Freq(Hz),S21 Log Mag(dB),S21 Phase(°)
1000000000,-7.0394664,-47.158913
1001000000,-7.0345783,-47.221416
1002000000,-7.0650668,-47.171177
1003000000,-7.0542197,-47.057983
1004000000,-7.0226908,-47.097599
1005000000,-7.0941124,-47.293175
1006000000,-7.061789,-47.365517
1007000000,-7.0442119,-47.263214
1008000000,-7.0529675,-47.4342
1009000000,-7.0538778,-47.468647
1010000000,-7.0642672,-47.52533
1011000000,-7.0897455,-47.419407
1012000000,-7.0906281,-47.337097
1013000000,-7.0511017,-47.631424
1014000000,-7.0776067,-47.5354
1015000000,-7.071907,-47.633579
1016000000,-7.07903,-47.562248
1017000000,-7.0626936,-47.839478
1018000000,-7.0982895,-47.727798
1019000000,-7.0863442,-47.7575
1020000000,-7.1149182,-47.686474
1021000000,-7.0785055,-48.014408
1022000000,-7.0632644,-47.735413
1023000000,-7.0899191,-48.103733
1024000000,-7.1230268,-48.01474
1025000000,-7.1232591,-47.818779
1026000000,-7.1364331,-48.01606
1027000000,-7.0752301,-48.07666
1028000000,-7.0952253,-48.117378
1029000000,-7.115437,-48.188763
1030000000,-7.0895495,-48.285702
1031000000,-7.1151433,-48.207764
1032000000,-7.1445079,-48.428585
1033000000,-7.138207,-48.151287
1034000000,-7.1594553,-48.348328
1035000000,-7.1332183,-48.229713
1036000000,-7.1046162,-48.521751
1037000000,-7.1053381,-48.620415
1038000000,-7.1194057,-48.409618
1039000000,-7.1420965,-48.540928
1040000000,-7.1173959,-48.479275
1041000000,-7.1673322,-48.654781
1042000000,-7.1442084,-48.589729
1043000000,-7.1249156,-48.564465
1044000000,-7.1157689,-48.536366
1045000000,-7.1586871,-48.769009
1046000000,-7.1481347,-48.91222
1047000000,-7.1596127,-48.617516
1048000000,-7.1699572,-48.716457
1049000000,-7.173049,-48.683651
1050000000,-7.1357207,-48.790165
1051000000,-7.1571112,-48.853054
1052000000,-7.1805754,-49.066723
1053000000,-7.1763091,-48.940006
1054000000,-7.1543627,-49.048275
1055000000,-7.1842351,-48.938946
1056000000,-7.1749258,-49.128071
1057000000,-7.1641889,-49.209518
1058000000,-7.1968856,-49.250248
1059000000,-7.2106571,-49.291138
1060000000,-7.169559,-49.283058
1061000000,-7.2208104,-49.334316
1062000000,-7.2121367,-49.359234
1063000000,-7.1908884,-49.287388
1064000000,-7.2047296,-49.563725
1065000000,-7.1764779,-49.627754
1066000000,-7.195509,-49.449261
1067000000,-7.2182083,-49.557568
1068000000,-7.1717086,-49.523842
1069000000,-7.2026968,-49.528217
1070000000,-7.2172799,-49.581802
1071000000,-7.1965151,-49.520924
1072000000,-7.2115035,-49.638294
1073000000,-7.2248874,-49.632107
1074000000,-7.1940217,-49.710117
1075000000,-7.2432046,-49.942566
1076000000,-7.2336063,-49.894249
1077000000,-7.2298741,-49.883411
1078000000,-7.2090383,-49.751621
1079000000,-7.2204576,-49.867882
1080000000,-7.2302833,-49.927559
1081000000,-7.2626681,-49.960594
1082000000,-7.2521286,-50.113186
1083000000,-7.2266693,-50.097099
1084000000,-7.2133574,-50.064899
1085000000,-7.2443447,-50.081089
1086000000,-7.259696,-50.327656
1087000000,-7.2462287,-50.163204
1088000000,-7.254437,-50.273338
1089000000,-7.2469277,-50.232742
1090000000,-7.2149014,-50.423302
1091000000,-7.2373562,-50.310772
1092000000,-7.2281199,-50.499443
1093000000,-7.2493706,-50.359463
1094000000,-7.2959471,-50.652073
1095000000,-7.2501245,-50.489838
1096000000,-7.2845197,-50.713829
1097000000,-7.2812352,-50.506397
1098000000,-7.2599607,-50.509384
1099000000,-7.2879682,-50.854202
1100000000,-7.2485199,-50.666397
1101000000,-7.2929163,-50.663376
1102000000,-7.3091044,-50.640541
1103000000,-7.2916889,-50.831326
1104000000,-7.2897573,-50.903702
1105000000,-7.3046784,-50.863312
1106000000,-7.2929211,-50.883694
1107000000,-7.3117247,-50.932419
1108000000,-7.305203,-50.996052
1109000000,-7.2694101,-50.950214
1110000000,-7.3110271,-50.891384
1111000000,-7.3173652,-50.900089
1112000000,-7.2942328,-51.201447
1113000000,-7.3418741,-51.139557
1114000000,-7.3278947,-51.282085
1115000000,-7.3415341,-51.096016
1116000000,-7.3245282,-51.386814
1117000000,-7.2985106,-51.034241
1118000000,-7.3225484,-51.160824
1119000000,-7.3124089,-51.397022
1120000000,-7.3375473,-51.334938
1121000000,-7.3442116,-51.413681
1122000000,-7.3643479,-51.464561
1123000000,-7.3172517,-51.394222
1124000000,-7.306397,-51.507572
1125000000,-7.3427043,-51.588413
1126000000,-7.35111,-51.570713
1127000000,-7.3486977,-51.49435
1128000000,-7.3747015,-51.613796
1129000000,-7.3566179,-51.763069
1130000000,-7.3834405,-51.582085
1131000000,-7.3410625,-51.777431
1132000000,-7.3664017,-51.647636
1133000000,-7.3531914,-51.799847
1134000000,-7.3516297,-51.812298
1135000000,-7.407249,-51.642025
1136000000,-7.3779011,-51.746704
1137000000,-7.3773046,-51.896259
1138000000,-7.3632255,-51.968716
1139000000,-7.3842216,-51.970642
1140000000,-7.3823204,-52.113808
1141000000,-7.3915815,-52.045094
1142000000,-7.3948503,-52.164978
1143000000,-7.3598866,-52.111145
1144000000,-7.4093914,-52.144054
1145000000,-7.3751116,-52.212719
1146000000,-7.3577962,-52.080734
1147000000,-7.3635597,-52.308475
1148000000,-7.372869,-52.321476
1149000000,-7.4044108,-52.272747
1150000000,-7.3995752,-52.274014
1151000000,-7.4065132,-52.315044
1152000000,-7.3929043,-52.431156
1153000000,-7.3890009,-52.234238
1154000000,-7.4217291,-52.377686
1155000000,-7.4191513,-52.525249
1156000000,-7.3855066,-52.626358
1157000000,-7.4178419,-52.537689
1158000000,-7.429491,-52.460461
1159000000,-7.4306054,-52.672775
1160000000,-7.4146895,-52.633904
1161000000,-7.4093804,-52.512257
1162000000,-7.4341226,-52.779175
1163000000,-7.4539576,-52.819599
1164000000,-7.4348578,-52.863758
1165000000,-7.4280453,-52.674587
1166000000,-7.4258671,-52.840214
1167000000,-7.4305477,-52.921551
1168000000,-7.4439464,-52.792305
1169000000,-7.430192,-52.895649
1170000000,-7.4485178,-52.910542
1171000000,-7.4284711,-52.942425
1172000000,-7.438128,-52.910015
1173000000,-7.4484911,-53.030689
1174000000,-7.4864168,-52.937275
1175000000,-7.4459977,-53.003296
1176000000,-7.4313946,-53.061615
1177000000,-7.4925728,-53.025028
1178000000,-7.4687009,-53.176956
1179000000,-7.4681082,-53.19804
1180000000,-7.456202,-53.248543
1181000000,-7.4609709,-53.204288
1182000000,-7.466856,-53.171787
1183000000,-7.4915223,-53.251099
1184000000,-7.501945,-53.345104
1185000000,-7.5030398,-53.24144
1186000000,-7.4792933,-53.213707
1187000000,-7.4919605,-53.435272
1188000000,-7.4907932,-53.599598
1189000000,-7.4999123,-53.685715
1190000000,-7.4797263,-53.44696
1191000000,-7.4885607,-53.52607
1192000000,-7.474894,-53.613197
1193000000,-7.4743834,-53.652237
1194000000,-7.4841924,-53.684196
1195000000,-7.5020061,-53.54855
1196000000,-7.488194,-53.597851
1197000000,-7.4951277,-53.917938
1198000000,-7.5118194,-53.777027
1199000000,-7.5097928,-53.826775
1200000000,-7.5143805,-54.011929
1201000000,-7.4902139,-53.950645
1202000000,-7.509583,-54.003353
1203000000,-7.516767,-53.901093
1204000000,-7.5060501,-53.875191
1205000000,-7.5247803,-54.045036
1206000000,-7.5419779,-54.086563
1207000000,-7.5319829,-53.903076
1208000000,-7.5283136,-54.073006
1209000000,-7.524116,-53.927761
1210000000,-7.5691967,-54.044533
1211000000,-7.5458422,-54.140923
1212000000,-7.5233245,-54.234516
1213000000,-7.5249681,-54.354527
1214000000,-7.5393434,-54.278336
1215000000,-7.5369153,-54.055168
1216000000,-7.5419769,-54.387012
1217000000,-7.5597358,-54.348976
1218000000,-7.532515,-54.497456
1219000000,-7.5539951,-54.232426
1220000000,-7.5393386,-54.449146
1221000000,-7.55233,-54.3936
1222000000,-7.5544605,-54.446896
1223000000,-7.5619855,-54.399994
1224000000,-7.5359831,-54.246468
1225000000,-7.5626421,-54.533585
1226000000,-7.567668,-54.594746
1227000000,-7.5579057,-54.708069
1228000000,-7.6004143,-54.595913
1229000000,-7.5721216,-54.659172
1230000000,-7.5731435,-54.772919
1231000000,-7.6026244,-54.774063
1232000000,-7.6106467,-54.659122
1233000000,-7.5921736,-54.888489
1234000000,-7.6012506,-54.759941
1235000000,-7.5665393,-54.899261
1236000000,-7.6089869,-54.966877
1237000000,-7.585813,-54.942974
1238000000,-7.6161451,-54.932625
1239000000,-7.6271429,-54.920143
1240000000,-7.6144185,-55.083138
1241000000,-7.637269,-54.999821
1242000000,-7.588872,-54.909523
1243000000,-7.5940247,-54.974445
1244000000,-7.6163101,-55.07909
1245000000,-7.633256,-55.027817
1246000000,-7.6005864,-55.192089
1247000000,-7.6436267,-55.175465
1248000000,-7.6287017,-55.152733
1249000000,-7.6129069,-55.189754
1250000000,-7.6377621,-55.286423
1251000000,-7.6038775,-55.328522
1252000000,-7.6088696,-55.422245
1253000000,-7.6562638,-55.372692
1254000000,-7.6554008,-55.460869
1255000000,-7.6202421,-55.268726
1256000000,-7.6374803,-55.539394
1257000000,-7.6151729,-55.630589
1258000000,-7.6300921,-55.484463
1259000000,-7.6517882,-55.626053
1260000000,-7.6567173,-55.522591
1261000000,-7.6662259,-55.228222
1262000000,-7.6584406,-55.653664
1263000000,-7.6051378,-55.726566
1264000000,-7.673687,-55.517292
1265000000,-7.6409693,-55.534454
1266000000,-7.6477108,-55.509933
1267000000,-7.6434464,-55.744354
1268000000,-7.6674914,-55.895832
1269000000,-7.6660285,-55.464409
1270000000,-7.6881242,-55.653397
1271000000,-7.6619301,-55.701511
1272000000,-7.65238,-55.762714
1273000000,-7.6795092,-55.860691
1274000000,-7.6687827,-55.797333
1275000000,-7.6783814,-56.083336
1276000000,-7.6922798,-55.889217
1277000000,-7.7029438,-55.779819
1278000000,-7.6864071,-55.846886
1279000000,-7.7048364,-56.127758
1280000000,-7.6909866,-56.190876
1281000000,-7.7251959,-55.84267
1282000000,-7.7321501,-56.016182
1283000000,-7.7099733,-56.150711
1284000000,-7.6710896,-56.092293
1285000000,-7.6945577,-56.139919
1286000000,-7.7119131,-56.129871
1287000000,-7.6941381,-56.076935
1288000000,-7.7137747,-55.967327
1289000000,-7.7282486,-56.247433
1290000000,-7.7363214,-56.293266
1291000000,-7.7090178,-56.311108
1292000000,-7.7307453,-56.405895
1293000000,-7.7342114,-56.252342
1294000000,-7.7099524,-56.295979
1295000000,-7.7004972,-56.383526
1296000000,-7.7310362,-56.099751
1297000000,-7.7538486,-56.463078
1298000000,-7.7445607,-56.535358
1299000000,-7.7267566,-56.284729
1300000000,-7.7162318,-56.596581
1301000000,-7.7616282,-56.508568
1302000000,-7.7247758,-56.530605
1303000000,-7.7368155,-56.490379
1304000000,-7.7531481,-56.345844
1305000000,-7.7373638,-56.402779
1306000000,-7.7520623,-56.50029
1307000000,-7.7479959,-56.546051
1308000000,-7.7766128,-56.546276
1309000000,-7.7536902,-56.597336
1310000000,-7.7487321,-56.798515
1311000000,-7.7451415,-56.776432
1312000000,-7.7665505,-56.607918
1313000000,-7.7674389,-56.720791
1314000000,-7.7643642,-56.856556
1315000000,-7.75916,-56.79911
1316000000,-7.7904587,-56.869144
1317000000,-7.7680454,-56.890793
1318000000,-7.7792764,-56.927433
1319000000,-7.8079314,-56.952076
1320000000,-7.7937651,-56.933952
1321000000,-7.7854662,-56.840607
1322000000,-7.7901955,-56.931126
1323000000,-7.793787,-57.001118
1324000000,-7.7858119,-56.882618
1325000000,-7.7831182,-56.705322
1326000000,-7.8097506,-56.954136
1327000000,-7.7899733,-57.006016
1328000000,-7.8053689,-57.002129
1329000000,-7.807086,-57.177994
1330000000,-7.7952261,-57.069851
1331000000,-7.8123021,-57.188095
1332000000,-7.8104463,-57.201912
1333000000,-7.8205481,-57.221035
1334000000,-7.8030024,-57.229256
1335000000,-7.8129377,-57.07616
1336000000,-7.8061056,-57.10762
1337000000,-7.8141265,-57.316948
1338000000,-7.8178873,-57.215729
1339000000,-7.8214965,-57.344208
1340000000,-7.8518834,-57.235172
1341000000,-7.8134627,-57.294632
1342000000,-7.8029399,-57.370674
1343000000,-7.8126788,-57.347492
1344000000,-7.8551931,-57.314445
1345000000,-7.8279552,-57.513054
1346000000,-7.8326511,-57.349697
1347000000,-7.8456616,-57.547615
1348000000,-7.8035908,-57.417603
1349000000,-7.8219395,-57.629921
1350000000,-7.800221,-57.682514
1351000000,-7.8263421,-57.299252
1352000000,-7.8442869,-57.703671
1353000000,-7.8224363,-57.513409
1354000000,-7.8386693,-57.596424
1355000000,-7.8679647,-57.410515
1356000000,-7.8492351,-57.658974
1357000000,-7.8543081,-57.825405
1358000000,-7.8605886,-57.436214
1359000000,-7.8595929,-57.76791
1360000000,-7.8338952,-57.835037
1361000000,-7.872808,-57.735912
1362000000,-7.8637271,-57.761585
1363000000,-7.8679957,-57.682266
1364000000,-7.8843508,-57.756832
1365000000,-7.8821058,-57.798489
1366000000,-7.8417139,-57.6945
1367000000,-7.8637052,-57.864361
1368000000,-7.862895,-57.896946
1369000000,-7.8535852,-57.918781
1370000000,-7.8608799,-57.815086
1371000000,-7.8739138,-57.7883
1372000000,-7.8706989,-58.009659
1373000000,-7.8699036,-58.057396
1374000000,-7.8763385,-58.051636
1375000000,-7.8854866,-57.891293
1376000000,-7.8865113,-57.872513
1377000000,-7.882802,-57.982738
1378000000,-7.8741632,-58.070145
1379000000,-7.8741827,-58.059212
1380000000,-7.9257464,-58.071575
1381000000,-7.9249735,-58.112446
1382000000,-7.8957462,-58.070992
1383000000,-7.9057107,-58.02282
1384000000,-7.8948855,-58.232697
1385000000,-7.9146018,-58.062538
1386000000,-7.8768349,-58.126495
1387000000,-7.9215641,-58.149929
1388000000,-7.9124279,-58.25148
1389000000,-7.9109325,-58.113525
1390000000,-7.9028206,-58.179886
1391000000,-7.8813095,-58.068356
1392000000,-7.9279904,-58.153965
1393000000,-7.9041471,-58.25301
1394000000,-7.929471,-58.432133
1395000000,-7.8949509,-58.077305
1396000000,-7.9261189,-58.256359
1397000000,-7.9283047,-58.221783
1398000000,-7.9041514,-58.29882
1399000000,-7.9111009,-58.415085
1400000000,-7.9242992,-58.592075
1401000000,-7.9067569,-58.588188
1402000000,-7.949471,-58.236748
1403000000,-7.9337692,-58.471527
1404000000,-7.9280944,-58.392155
1405000000,-7.9514308,-58.477486
1406000000,-7.9254155,-58.548599
1407000000,-7.9449997,-58.463161
1408000000,-7.9401736,-58.517544
1409000000,-7.9288802,-58.435539
1410000000,-7.9208064,-58.615723
1411000000,-7.9243927,-58.614559
1412000000,-7.9396181,-58.618679
1413000000,-7.9365163,-58.501102
1414000000,-7.9414282,-58.54726
1415000000,-7.9242396,-58.512341
1416000000,-7.9136,-58.584335
1417000000,-7.9321461,-58.634319
1418000000,-7.9590335,-58.599827
1419000000,-7.9369683,-58.87608
1420000000,-7.9676366,-58.435787
1421000000,-7.9461732,-58.646137
1422000000,-7.9585724,-58.676655
1423000000,-7.9396057,-58.758057
1424000000,-7.9344273,-58.816269
1425000000,-7.9495573,-58.661449
1426000000,-7.9600778,-58.668285
1427000000,-7.9611535,-58.61055
1428000000,-7.956872,-58.80666
1429000000,-7.9567719,-58.829296
1430000000,-7.9790268,-58.697765
1431000000,-7.9547629,-58.762077
1432000000,-7.9636664,-58.924294
1433000000,-7.9640265,-58.731125
1434000000,-7.9570384,-58.751389
1435000000,-7.96243,-58.779713
1436000000,-7.9556446,-58.808311
1437000000,-7.9868021,-58.904507
1438000000,-7.9519773,-58.926968
1439000000,-7.9926662,-58.929874
1440000000,-7.998672,-58.883804
1441000000,-7.9751682,-58.903786
1442000000,-7.994627,-58.895344
1443000000,-7.9492135,-59.079014
1444000000,-7.9607973,-58.80217
1445000000,-7.9767828,-58.945599
1446000000,-7.987534,-59.11063
1447000000,-7.9656253,-58.899158
1448000000,-7.9678321,-59.151657
1449000000,-8.0125656,-58.94075
1450000000,-7.9883709,-59.074394
1451000000,-8.0005608,-59.152328
1452000000,-7.9705172,-59.155373
1453000000,-7.9924731,-59.205391
1454000000,-8.002821,-59.214058
1455000000,-7.9936862,-59.038345
1456000000,-7.9948053,-59.261917
1457000000,-7.9892955,-59.180653
1458000000,-8.0102797,-59.206505
1459000000,-8.0354881,-59.212883
1460000000,-7.9587402,-59.083076
1461000000,-7.9463077,-59.341167
1462000000,-7.9804716,-59.326027
1463000000,-8.0004892,-59.190441
1464000000,-7.9797783,-59.160961
1465000000,-7.9874582,-59.251514
1466000000,-8.0003777,-59.248798
1467000000,-7.9910684,-59.219509
1468000000,-7.9850121,-59.227905
1469000000,-7.9775963,-59.240028
1470000000,-7.9780335,-59.220966
1471000000,-8.0012999,-59.330139
1472000000,-8.0011053,-59.144875
1473000000,-8.0311298,-59.185699
1474000000,-7.9823503,-59.285763
1475000000,-7.9982767,-59.395817
1476000000,-7.9981432,-59.350246
1477000000,-8.0105972,-59.198444
1478000000,-8.0103731,-59.096001
1479000000,-7.9950843,-59.447598
1480000000,-8.0028791,-59.590866
1481000000,-7.9892888,-59.468231
1482000000,-7.9803576,-59.580055
1483000000,-8.0106583,-59.305283
1484000000,-8.026248,-59.581764
1485000000,-8.0091305,-59.373154
1486000000,-7.9985499,-59.410175
1487000000,-8.0199337,-59.455799
1488000000,-8.0144606,-59.393719
1489000000,-8.0327749,-59.332066
1490000000,-8.0047398,-59.535919
1491000000,-8.0115986,-59.56031
1492000000,-7.9926949,-59.558765
1493000000,-8.0155478,-59.388271
1494000000,-8.0091171,-59.65102
1495000000,-8.0165434,-59.496468
1496000000,-8.0152483,-59.566059
1497000000,-8.0073433,-59.600906
1498000000,-8.002141,-59.517723
1499000000,-7.9973888,-59.519821
1500000000,-8.0096865,-59.763424
1501000000,-8.034173,-59.485935
1502000000,-8.0196266,-59.629566
1503000000,-8.0114489,-59.560555
1504000000,-7.993041,-59.512817
1505000000,-8.0322933,-59.891014
1506000000,-8.0273466,-59.636665
1507000000,-8.0295582,-59.681797
1508000000,-8.0162697,-59.673477
1509000000,-8.0329161,-59.562878
1510000000,-8.0086021,-59.460766
1511000000,-8.0455275,-59.57589
1512000000,-8.0177431,-59.562698
1513000000,-8.0279236,-59.6409
1514000000,-7.9955196,-59.538925
1515000000,-8.0474205,-59.539188
1516000000,-8.041894,-59.90638
1517000000,-8.0468693,-59.750576
1518000000,-8.0263176,-59.61676
1519000000,-8.0006762,-59.587902
1520000000,-8.0114307,-59.845791
1521000000,-8.0412483,-59.738182
1522000000,-8.0326252,-59.753937
1523000000,-8.0480766,-60.00322
1524000000,-8.0440636,-59.811543
1525000000,-8.0378551,-59.807343
1526000000,-8.020504,-59.821613
1527000000,-8.0198765,-59.971622
1528000000,-8.0256557,-59.726788
1529000000,-8.0398207,-59.798622
1530000000,-8.0419645,-59.769073
1531000000,-8.0173998,-59.871731
1532000000,-8.0238619,-59.715416
1533000000,-8.0315866,-59.9799
1534000000,-8.0295238,-59.695248
1535000000,-8.0277157,-59.850941
1536000000,-7.9914169,-60.097935
1537000000,-8.0137205,-59.893921
1538000000,-7.9923506,-59.921764
1539000000,-8.0409565,-59.908955
1540000000,-8.0145321,-59.961349
1541000000,-8.0049505,-59.851864
1542000000,-8.0172367,-59.898163
1543000000,-8.0476379,-60.010876
1544000000,-8.01686,-59.834343
1545000000,-8.0632792,-59.926037
1546000000,-8.0306997,-60.016018
1547000000,-7.9972491,-59.94825
1548000000,-8.0138702,-59.793007
1549000000,-8.0126562,-59.925156
1550000000,-8.0380859,-59.910378
1551000000,-7.9872699,-59.869648
1552000000,-7.9972639,-60.071754
1553000000,-8.022563,-60.000946
1554000000,-8.0078888,-59.690456
1555000000,-7.9984493,-59.927372
1556000000,-7.9974947,-59.75351
1557000000,-8.0197935,-59.978111
1558000000,-7.9941053,-59.881744
1559000000,-7.9920015,-59.806522
1560000000,-8.025528,-59.928059
1561000000,-7.9821939,-59.929329
1562000000,-8.0162477,-59.935879
1563000000,-8.0453625,-59.930069
1564000000,-8.005476,-60.027752
1565000000,-8.0040455,-59.94545
1566000000,-8.008379,-59.928314
1567000000,-8.0086813,-59.985249
1568000000,-8.0043478,-59.981506
1569000000,-8.0145473,-59.961678
1570000000,-7.9834704,-60.002087
1571000000,-8.0122213,-60.075184
1572000000,-7.9934659,-59.830223
1573000000,-8.0147095,-60.0411
1574000000,-7.9838648,-59.858459
1575000000,-7.9824028,-60.049221
1576000000,-8.0031357,-60.166145
1577000000,-7.9749007,-60.20454
1578000000,-7.9942861,-59.869984
1579000000,-7.9982815,-60.158497
1580000000,-7.9822493,-60.111061
1581000000,-7.9839635,-60.07502
1582000000,-7.9899621,-60.039433
1583000000,-7.9852557,-60.059082
1584000000,-7.9757023,-60.279583
1585000000,-7.9551554,-59.960518
1586000000,-7.9839087,-60.252365
1587000000,-7.9966359,-60.028828
1588000000,-7.9957452,-60.101429
1589000000,-7.9651833,-60.324764
1590000000,-7.9427814,-60.018574
1591000000,-8.0021019,-60.112217
1592000000,-7.9966588,-60.003815
1593000000,-7.9493027,-60.123936
1594000000,-7.9857969,-59.904255
1595000000,-7.982091,-60.213104
1596000000,-7.9736919,-60.279385
1597000000,-7.9773655,-60.216656
1598000000,-7.9695449,-60.279057
1599000000,-7.9431825,-60.203892
1600000000,-7.9597759,-60.184952
1601000000,-7.9452729,-60.128197
1602000000,-7.9591823,-60.251286
1603000000,-7.9601226,-60.118908
1604000000,-7.9459939,-60.278393
1605000000,-7.9333963,-60.104164
1606000000,-7.9626689,-60.244816
1607000000,-7.9470735,-60.161407
1608000000,-7.9410119,-60.029789
1609000000,-7.9364262,-60.341846
1610000000,-7.9508662,-60.285599
1611000000,-7.9575748,-60.155704
1612000000,-7.9549403,-60.143974
1613000000,-7.9528441,-60.150272
1614000000,-7.9515181,-60.339222
1615000000,-7.9175587,-60.195026
1616000000,-7.9462709,-60.06094
1617000000,-7.9352851,-60.1633
1618000000,-7.9287086,-60.223583
1619000000,-7.902319,-60.253662
1620000000,-7.9256573,-60.266754
1621000000,-7.9161782,-60.194641
1622000000,-7.9202833,-60.072067
1623000000,-7.8725076,-60.209312
1624000000,-7.9082427,-60.258751
1625000000,-7.921021,-60.311771
1626000000,-7.9330235,-60.254787
1627000000,-7.9076238,-60.231506
1628000000,-7.9108658,-60.1422
1629000000,-7.9234619,-60.357433
1630000000,-7.8880587,-60.178406
1631000000,-7.9035058,-60.277916
1632000000,-7.8925557,-60.31575
1633000000,-7.8914175,-60.459278
1634000000,-7.8992701,-60.250671
1635000000,-7.8542962,-60.404972
1636000000,-7.8767614,-60.452877
1637000000,-7.8597827,-60.185402
1638000000,-7.8709922,-60.353054
1639000000,-7.8697209,-60.524132
1640000000,-7.9001741,-60.147091
1641000000,-7.8851705,-60.342781
1642000000,-7.8859677,-60.389515
1643000000,-7.8635182,-60.4203
1644000000,-7.8578839,-60.273838
1645000000,-7.8665605,-60.337303
1646000000,-7.870028,-60.391209
1647000000,-7.8375535,-60.359852
1648000000,-7.8583961,-60.298801
1649000000,-7.853334,-60.343971
1650000000,-7.8480115,-60.300587
1651000000,-7.8321071,-60.361279
1652000000,-7.8390746,-60.403564
1653000000,-7.8379078,-60.373032
1654000000,-7.8460536,-60.33427
1655000000,-7.8375893,-60.46072
1656000000,-7.8352013,-60.318882
1657000000,-7.8364749,-60.329899
1658000000,-7.8255916,-60.313637
1659000000,-7.8053613,-60.261196
1660000000,-7.802681,-60.501373
1661000000,-7.8233781,-60.26022
1662000000,-7.8209248,-60.352154
1663000000,-7.8050971,-60.278332
1664000000,-7.8103557,-60.447319
1665000000,-7.7898574,-60.354271
1666000000,-7.7662296,-60.455925
1667000000,-7.7911725,-60.327995
1668000000,-7.8192396,-60.550323
1669000000,-7.7903018,-60.458931
1670000000,-7.7920461,-60.493389
1671000000,-7.7584605,-60.502651
1672000000,-7.7826881,-60.550056
1673000000,-7.7902651,-60.449341
1674000000,-7.7543001,-60.610874
1675000000,-7.7529821,-60.411194
1676000000,-7.7949119,-60.589176
1677000000,-7.785604,-60.405148
1678000000,-7.7410679,-60.53685
1679000000,-7.7650199,-60.551315
1680000000,-7.752295,-60.485634
1681000000,-7.7625599,-60.310688
1682000000,-7.7628112,-60.40155
1683000000,-7.7200475,-60.581642
1684000000,-7.7330565,-60.411549
1685000000,-7.7387547,-60.285789
1686000000,-7.748631,-60.612198
1687000000,-7.6965804,-60.746597
1688000000,-7.715209,-60.665104
1689000000,-7.7316852,-60.337101
1690000000,-7.7258134,-60.473793
1691000000,-7.698843,-60.477276
1692000000,-7.699779,-60.68531
1693000000,-7.7173672,-60.627438
1694000000,-7.6919727,-60.664516
1695000000,-7.7042136,-60.620163
1696000000,-7.6585755,-60.594727
1697000000,-7.6896887,-60.635414
1698000000,-7.6724944,-60.528091
1699000000,-7.6787605,-60.519245
1700000000,-7.6769524,-60.47192
1701000000,-7.6703863,-60.713253
1702000000,-7.6705022,-60.597946
1703000000,-7.6572523,-60.754425
1704000000,-7.6658678,-60.460945
1705000000,-7.6816893,-60.736111
1706000000,-7.6516299,-60.633926
1707000000,-7.6623302,-60.698479
1708000000,-7.6342411,-60.877079
1709000000,-7.6425457,-60.742889
1710000000,-7.6203899,-60.853947
1711000000,-7.6081324,-60.582035
1712000000,-7.6045408,-60.461609
1713000000,-7.623426,-60.668652
1714000000,-7.5881333,-60.808876
1715000000,-7.6160235,-60.786293
1716000000,-7.6466613,-60.694836
1717000000,-7.5856295,-60.738434
1718000000,-7.5855484,-60.644402
1719000000,-7.5723667,-60.78117
1720000000,-7.5964065,-60.626194
1721000000,-7.5717201,-60.777004
1722000000,-7.55617,-60.650085
1723000000,-7.5913634,-60.758358
1724000000,-7.5770001,-60.750858
1725000000,-7.5862007,-60.642239
1726000000,-7.5833764,-60.869705
1727000000,-7.5642056,-60.610432
1728000000,-7.5651278,-60.778152
1729000000,-7.5514736,-60.840855
1730000000,-7.5718374,-60.921791
1731000000,-7.5355949,-60.904778
1732000000,-7.5304699,-61.017071
1733000000,-7.5470033,-60.92683
1734000000,-7.5317831,-60.820026
1735000000,-7.5391889,-60.695816
1736000000,-7.4940372,-60.761116
1737000000,-7.5157552,-60.839424
1738000000,-7.4957948,-60.86758
1739000000,-7.5034552,-60.838116
1740000000,-7.5182462,-60.901348
1741000000,-7.5006018,-60.842739
1742000000,-7.5046453,-60.977131
1743000000,-7.4898515,-61.072472
1744000000,-7.466239,-60.841209
1745000000,-7.4813209,-61.111103
1746000000,-7.4916992,-60.83144
1747000000,-7.4824314,-61.153797
1748000000,-7.4784727,-60.973194
1749000000,-7.458127,-61.022236
1750000000,-7.4172015,-61.14893
1751000000,-7.4503474,-61.084812
1752000000,-7.4247484,-61.083694
1753000000,-7.432128,-61.02087
1754000000,-7.435885,-61.152447
1755000000,-7.414721,-60.942043
1756000000,-7.4426889,-60.934093
1757000000,-7.4111052,-61.337116
1758000000,-7.4265437,-61.329628
1759000000,-7.402935,-61.210484
1760000000,-7.3921361,-61.148602
1761000000,-7.4076638,-61.063702
1762000000,-7.3813391,-61.137856
1763000000,-7.4182248,-61.047291
1764000000,-7.3625455,-61.062351
1765000000,-7.3653851,-61.214924
1766000000,-7.415782,-61.240898
1767000000,-7.3752761,-61.224976
1768000000,-7.3572664,-61.186138
1769000000,-7.3436346,-61.03212
1770000000,-7.3424702,-61.073914
1771000000,-7.3585992,-61.352428
1772000000,-7.3334913,-61.196884
1773000000,-7.3053327,-61.246689
1774000000,-7.3322625,-61.224388
1775000000,-7.3016162,-61.166264
1776000000,-7.310504,-61.369858
1777000000,-7.2965341,-61.315018
1778000000,-7.3157196,-61.302013
1779000000,-7.2879128,-61.189411
1780000000,-7.2831163,-61.23344
1781000000,-7.2899799,-61.322342
1782000000,-7.2893128,-61.445271
1783000000,-7.2688894,-61.431549
1784000000,-7.2772245,-61.290401
1785000000,-7.2541523,-61.359928
1786000000,-7.2659574,-61.538002
1787000000,-7.269598,-61.49712
1788000000,-7.2690029,-61.438393
1789000000,-7.2435632,-61.370644
1790000000,-7.2448468,-61.56271
1791000000,-7.2081857,-61.625095
1792000000,-7.2011633,-61.623875
1793000000,-7.2373681,-61.555325
1794000000,-7.1727576,-61.687695
1795000000,-7.2130604,-61.588528
1796000000,-7.2131319,-61.627232
1797000000,-7.1725545,-61.557373
1798000000,-7.1889129,-61.615238
1799000000,-7.1901574,-61.601799
1800000000,-7.1745958,-61.680946
1801000000,-7.1828775,-61.802231
1802000000,-7.1700144,-61.899895
1803000000,-7.1540174,-61.520485
1804000000,-7.1618738,-61.714134
1805000000,-7.1398406,-61.621464
1806000000,-7.1241598,-61.780079
1807000000,-7.1448169,-61.714954
1808000000,-7.1219854,-61.781563
1809000000,-7.1308732,-61.865894
1810000000,-7.1366396,-61.850636
1811000000,-7.0978222,-61.862751
1812000000,-7.0969319,-61.89249
1813000000,-7.1146183,-61.724243
1814000000,-7.0713377,-61.874802
1815000000,-7.0905285,-61.942585
1816000000,-7.0918674,-61.837841
1817000000,-7.0835676,-62.016273
1818000000,-7.0530944,-61.846256
1819000000,-7.0791378,-61.994335
1820000000,-7.0422702,-61.837555
1821000000,-7.051106,-61.805206
1822000000,-7.0511026,-61.823029
1823000000,-7.0420723,-61.945515
1824000000,-7.0098987,-61.816452
1825000000,-6.9967151,-61.927872
1826000000,-7.0205045,-61.900692
1827000000,-6.9845881,-62.11264
1828000000,-7.0016861,-62.199692
1829000000,-7.0018535,-61.870995
1830000000,-7.0149655,-61.981251
1831000000,-6.9902134,-61.952568
1832000000,-6.9770765,-61.928799
1833000000,-6.9936075,-61.969357
1834000000,-6.9744587,-62.081631
1835000000,-6.9249897,-62.30817
1836000000,-6.9457388,-62.120926
1837000000,-6.9388895,-62.053219
1838000000,-6.9099202,-62.354164
1839000000,-6.9274406,-62.147511
1840000000,-6.9258065,-62.245544
1841000000,-6.9199739,-62.119644
1842000000,-6.9024444,-62.371437
1843000000,-6.8782339,-62.362659
1844000000,-6.9215341,-62.189796
1845000000,-6.8835225,-62.280972
1846000000,-6.8561335,-62.55439
1847000000,-6.8707008,-62.559238
1848000000,-6.8522615,-62.433365
1849000000,-6.8437076,-62.389893
1850000000,-6.8585176,-62.212265
1851000000,-6.8612022,-62.363228
1852000000,-6.8504157,-62.401512
1853000000,-6.8332901,-62.598816
1854000000,-6.8599815,-62.357601
1855000000,-6.8313279,-62.454357
1856000000,-6.8087821,-62.50399
1857000000,-6.790411,-62.599667
1858000000,-6.8047667,-62.532364
1859000000,-6.7720566,-62.641884
1860000000,-6.7876735,-62.825741
1861000000,-6.7926626,-62.741203
1862000000,-6.7571602,-62.513302
1863000000,-6.7409687,-62.64991
1864000000,-6.7391973,-62.649174
1865000000,-6.7604413,-62.75481
1866000000,-6.7527437,-62.681896
1867000000,-6.7184262,-62.801815
1868000000,-6.7524271,-62.760334
1869000000,-6.7312889,-62.677094
1870000000,-6.7005324,-62.855293
1871000000,-6.673737,-62.842659
1872000000,-6.6745486,-63.005222
1873000000,-6.6770067,-63.071873
1874000000,-6.6671476,-62.940079
1875000000,-6.6410637,-62.786228
1876000000,-6.6309237,-62.976276
1877000000,-6.6835494,-62.892574
1878000000,-6.6398096,-63.056526
1879000000,-6.6151466,-63.279831
1880000000,-6.6049066,-63.324516
1881000000,-6.5932484,-62.975273
1882000000,-6.6213322,-63.250484
1883000000,-6.60148,-63.090076
1884000000,-6.6056237,-63.055626
1885000000,-6.5692101,-63.303097
1886000000,-6.5818896,-63.284626
1887000000,-6.5759454,-63.358036
1888000000,-6.5580316,-63.202438
1889000000,-6.572022,-63.201401
1890000000,-6.5734172,-63.287945
1891000000,-6.5320201,-63.51833
1892000000,-6.546052,-63.425385
1893000000,-6.5144377,-63.344635
1894000000,-6.5336037,-63.562542
1895000000,-6.5125737,-63.480408
1896000000,-6.4980087,-63.750957
1897000000,-6.4811983,-63.604923
1898000000,-6.4881072,-63.594582
1899000000,-6.4967437,-63.587254
1900000000,-6.4593372,-63.578415
1901000000,-6.4553642,-63.592762
1902000000,-6.4642801,-63.637691
1903000000,-6.4338436,-63.665676
1904000000,-6.4658146,-63.893143
1905000000,-6.4359283,-63.760662
1906000000,-6.4461651,-63.707851
1907000000,-6.4301872,-63.962769
1908000000,-6.4051414,-63.97361
1909000000,-6.3965683,-63.873573
1910000000,-6.4082479,-64.08271
1911000000,-6.3758054,-64.054916
1912000000,-6.4067001,-63.93409
1913000000,-6.3615785,-63.979099
1914000000,-6.3678741,-63.911972
1915000000,-6.3184881,-64.187347
1916000000,-6.3654337,-64.141335
1917000000,-6.3607202,-64.016502
1918000000,-6.3595648,-64.181953
1919000000,-6.3210273,-64.23436
1920000000,-6.3246918,-64.255684
1921000000,-6.3216205,-64.06263
1922000000,-6.2830048,-64.477844
1923000000,-6.2779226,-64.385361
1924000000,-6.2879944,-64.190262
1925000000,-6.2873917,-64.510696
1926000000,-6.2792835,-64.527817
1927000000,-6.2622805,-64.396255
1928000000,-6.2482138,-64.389626
1929000000,-6.2577748,-64.415901
1930000000,-6.2423663,-64.71814
1931000000,-6.2345982,-64.464516
1932000000,-6.2291608,-64.407967
1933000000,-6.2234454,-64.582161
1934000000,-6.1804161,-64.705688
1935000000,-6.2089787,-64.616943
1936000000,-6.1936226,-64.947388
1937000000,-6.1646538,-64.768776
1938000000,-6.1831274,-64.847076
1939000000,-6.1658626,-64.990059
1940000000,-6.1608381,-64.910194
1941000000,-6.1379862,-65.020592
1942000000,-6.1358137,-64.765358
1943000000,-6.1129842,-65.059029
1944000000,-6.1462531,-64.884232
1945000000,-6.106864,-65.255074
1946000000,-6.0962939,-65.322029
1947000000,-6.0619669,-65.158905
1948000000,-6.1168847,-65.1968
1949000000,-6.080925,-65.251106
1950000000,-6.050777,-65.32267
1951000000,-6.0738873,-65.242203
1952000000,-6.0377941,-65.138748
1953000000,-6.0864773,-65.240318
1954000000,-5.9977522,-65.535843
1955000000,-6.0004697,-65.384911
1956000000,-6.0431747,-65.430161
1957000000,-6.0173502,-65.870461
1958000000,-6.001452,-65.665016
1959000000,-5.9778652,-65.464615
1960000000,-6.0001879,-65.675789
1961000000,-5.993238,-65.744232
1962000000,-5.9759841,-65.813446
1963000000,-5.9958849,-65.871323
1964000000,-5.9405813,-65.870697
1965000000,-5.9646206,-65.95089
1966000000,-5.9635344,-66.031158
1967000000,-5.9281831,-66.01339
1968000000,-5.9461784,-66.10881
1969000000,-5.8771372,-66.204605
1970000000,-5.9286108,-66.059204
1971000000,-5.8873029,-66.117363
1972000000,-5.8918171,-66.23362
1973000000,-5.8554726,-66.021645
1974000000,-5.8947906,-66.301697
1975000000,-5.8532801,-66.328217
1976000000,-5.8684754,-66.345802
1977000000,-5.8376732,-66.349884
1978000000,-5.8206849,-66.276718
1979000000,-5.8336639,-66.320313
1980000000,-5.8295851,-66.481903
1981000000,-5.8236356,-66.589745
1982000000,-5.81984,-66.491234
1983000000,-5.801208,-66.71505
1984000000,-5.7929482,-66.487686
1985000000,-5.7721019,-66.862816
1986000000,-5.7586551,-66.805603
1987000000,-5.7792754,-66.81385
1988000000,-5.7595162,-66.889153
1989000000,-5.7572651,-66.825638
1990000000,-5.7680254,-66.874374
1991000000,-5.740911,-67.093773
1992000000,-5.7047615,-67.041473
1993000000,-5.7319207,-67.046249
1994000000,-5.6984801,-67.088768
1995000000,-5.6975446,-67.113396
1996000000,-5.6925278,-67.298889
1997000000,-5.6880245,-67.447311
1998000000,-5.6818366,-67.079414
1999000000,-5.6634574,-67.500511
2000000000,-5.665493,-67.436531
2001000000,-5.6328621,-67.359474
2002000000,-5.6317506,-67.33989
2003000000,-5.6724248,-67.483459
2004000000,-5.5891104,-67.510559
2005000000,-5.6019945,-67.744064
2006000000,-5.5958824,-67.661819
2007000000,-5.6147351,-67.462646
2008000000,-5.5957222,-67.630966
2009000000,-5.5662084,-67.642838
2010000000,-5.5296044,-67.80851
2011000000,-5.5591917,-67.738426
2012000000,-5.562645,-67.81086
2013000000,-5.55058,-67.989792
2014000000,-5.5351439,-67.91349
2015000000,-5.5317669,-67.98893
2016000000,-5.5490618,-68.38752
2017000000,-5.5017252,-68.093193
2018000000,-5.4650488,-68.068481
2019000000,-5.4763422,-68.325546
2020000000,-5.5005398,-68.292694
2021000000,-5.4831657,-68.423843
2022000000,-5.492959,-68.351868
2023000000,-5.5040846,-68.450661
2024000000,-5.4485803,-68.561714
2025000000,-5.4472113,-68.819962
2026000000,-5.4261169,-68.488579
2027000000,-5.4289274,-68.754341
2028000000,-5.4346895,-68.646019
2029000000,-5.3961468,-68.625481
2030000000,-5.4154601,-68.808784
2031000000,-5.3658299,-68.767342
2032000000,-5.3684158,-68.999084
2033000000,-5.3618941,-68.985428
2034000000,-5.3825951,-68.920403
2035000000,-5.3421159,-68.989319
2036000000,-5.3440094,-69.21917
2037000000,-5.3683915,-69.137375
2038000000,-5.3079824,-69.307076
2039000000,-5.3287587,-69.304726
2040000000,-5.334384,-69.33934
2041000000,-5.2823277,-69.372681
2042000000,-5.2831106,-69.503906
2043000000,-5.3054314,-69.573387
2044000000,-5.2497473,-69.50695
2045000000,-5.272706,-69.549973
2046000000,-5.2462387,-69.664055
2047000000,-5.2179837,-69.714012
2048000000,-5.2496362,-69.749626
2049000000,-5.246202,-69.96109
2050000000,-5.2672248,-69.982529
2051000000,-5.2369895,-69.899857
2052000000,-5.2191153,-69.988632
2053000000,-5.1736617,-70.035789
2054000000,-5.1918087,-70.182297
2055000000,-5.1778641,-70.084229
2056000000,-5.1888142,-70.100769
2057000000,-5.1943789,-70.408661
2058000000,-5.164341,-70.338135
2059000000,-5.1654329,-70.747932
2060000000,-5.155911,-70.521187
2061000000,-5.1448598,-70.391922
2062000000,-5.151145,-70.608376
2063000000,-5.1339078,-70.425079
2064000000,-5.1205721,-70.705299
2065000000,-5.126235,-70.612007
2066000000,-5.1175447,-70.808296
2067000000,-5.0853143,-70.780022
2068000000,-5.0623474,-71.084137
2069000000,-5.063323,-71.008369
2070000000,-5.0523162,-70.926964
2071000000,-5.0998998,-71.19101
2072000000,-5.060276,-70.947525
2073000000,-5.0548692,-71.272842
2074000000,-5.0039487,-71.137527
2075000000,-5.0367231,-71.279465
2076000000,-5.0192833,-71.616203
2077000000,-5.007544,-71.543518
2078000000,-4.9939089,-71.464127
2079000000,-4.9996548,-71.572449
2080000000,-4.993309,-71.741341
2081000000,-4.9945765,-71.863098
2082000000,-4.953372,-71.653923
2083000000,-4.9535861,-71.947556
2084000000,-4.9376845,-71.956047
2085000000,-4.9598079,-71.934029
2086000000,-4.9532795,-72.004356
2087000000,-4.9146328,-72.201965
2088000000,-4.9240785,-72.107773
2089000000,-4.9046688,-72.017349
2090000000,-4.886868,-72.290619
2091000000,-4.9199066,-72.426224
2092000000,-4.9044614,-72.372353
2093000000,-4.8840861,-72.448814
2094000000,-4.8582201,-72.526733
2095000000,-4.8453307,-72.831642
2096000000,-4.8671098,-72.647202
2097000000,-4.8468933,-72.70372
2098000000,-4.8388968,-72.7136
2099000000,-4.823298,-72.887802
2100000000,-4.8201776,-72.924591
2101000000,-4.8129234,-73.059799
2102000000,-4.8039775,-72.898621
2103000000,-4.7906489,-73.179726
2104000000,-4.7736592,-73.107437
2105000000,-4.7788243,-73.213715
2106000000,-4.7736726,-73.188377
2107000000,-4.7772841,-73.516739
2108000000,-4.7687588,-73.413826
2109000000,-4.7246175,-73.259674
2110000000,-4.7622962,-73.646156
2111000000,-4.753139,-73.635406
2112000000,-4.744606,-73.656715
2113000000,-4.7129836,-73.77562
2114000000,-4.6933255,-73.930374
2115000000,-4.7052684,-74.033516
2116000000,-4.697567,-74.091187
2117000000,-4.6825833,-74.110512
2118000000,-4.6918092,-74.137367
2119000000,-4.6791053,-74.080597
2120000000,-4.6737504,-74.062317
2121000000,-4.6688924,-74.341537
2122000000,-4.6474237,-74.324402
2123000000,-4.6616979,-74.479477
2124000000,-4.6127834,-74.611755
2125000000,-4.6376629,-74.657631
2126000000,-4.605372,-74.787399
2127000000,-4.6073337,-74.730377
2128000000,-4.6572127,-74.625107
2129000000,-4.6368747,-74.861023
2130000000,-4.6112685,-74.939819
2131000000,-4.5705032,-75.127892
2132000000,-4.5978527,-74.950539
2133000000,-4.572866,-75.116966
2134000000,-4.5736361,-75.326782
2135000000,-4.5589404,-75.164337
2136000000,-4.544899,-75.452797
2137000000,-4.5257025,-75.483749
2138000000,-4.5319104,-75.316986
2139000000,-4.5255847,-75.695023
2140000000,-4.5377121,-75.63958
2141000000,-4.5460682,-75.622368
2142000000,-4.5139813,-75.690231
2143000000,-4.5193071,-75.906601
2144000000,-4.4782696,-75.84127
2145000000,-4.4720039,-76.011841
2146000000,-4.4800167,-76.122772
2147000000,-4.4757004,-76.135162
2148000000,-4.4515896,-76.034164
2149000000,-4.4573474,-76.253479
2150000000,-4.4373422,-76.234703
2151000000,-4.4444284,-76.464355
2152000000,-4.406229,-76.528198
2153000000,-4.4234023,-76.626442
2154000000,-4.4229212,-76.836006
2155000000,-4.4332538,-76.822433
2156000000,-4.3803849,-76.652596
2157000000,-4.3924918,-76.867256
2158000000,-4.3898606,-76.875748
2159000000,-4.391624,-76.723007
2160000000,-4.3718891,-77.188774
2161000000,-4.3524575,-77.296082
2162000000,-4.3423018,-77.291351
2163000000,-4.3608766,-77.186592
2164000000,-4.3614426,-77.283257
2165000000,-4.3576937,-77.502357
2166000000,-4.3479652,-77.741608
2167000000,-4.3317699,-77.617218
2168000000,-4.3108439,-77.737961
2169000000,-4.3366332,-77.574097
2170000000,-4.3067579,-77.88488
2171000000,-4.3026619,-77.902527
2172000000,-4.2910132,-78.144264
2173000000,-4.3005619,-78.279907
2174000000,-4.2770805,-78.189751
2175000000,-4.2666879,-78.242767
2176000000,-4.2847033,-78.334541
2177000000,-4.2704597,-78.230484
2178000000,-4.2535324,-78.364975
2179000000,-4.2690253,-78.451782
2180000000,-4.2255945,-78.442528
2181000000,-4.2202091,-78.583145
2182000000,-4.2224092,-78.680122
2183000000,-4.2228856,-78.73156
2184000000,-4.2182579,-78.925591
2185000000,-4.2119451,-78.880394
2186000000,-4.1954908,-78.833435
2187000000,-4.21416,-79.062943
2188000000,-4.2002316,-79.415131
2189000000,-4.1309447,-79.326515
2190000000,-4.1755881,-78.916328
2191000000,-4.1578393,-79.420006
2192000000,-4.16293,-79.336029
2193000000,-4.1168208,-79.596024
2194000000,-4.1687412,-79.75425
2195000000,-4.165689,-79.66291
2196000000,-4.1341343,-79.944847
2197000000,-4.1387773,-80.073631
2198000000,-4.0960011,-80.035103
2199000000,-4.1098747,-80.122696
2200000000,-4.1425538,-79.948135
2201000000,-4.1007333,-80.288086
2202000000,-4.0860043,-80.331177
2203000000,-4.0921044,-80.490982
2204000000,-4.0715156,-80.648804
2205000000,-4.0505762,-80.371803
2206000000,-4.0825415,-80.464134
2207000000,-4.0452528,-80.796791
2208000000,-4.0488439,-80.899879
2209000000,-4.0697122,-80.875854
2210000000,-4.0602312,-80.890274
2211000000,-4.064733,-80.992195
2212000000,-4.0667024,-81.05069
2213000000,-4.0288229,-81.065361
2214000000,-4.0065556,-81.230812
2215000000,-4.0152164,-81.311966
2216000000,-4.0368309,-81.323128
2217000000,-3.9906049,-81.647812
2218000000,-4.0102,-81.598923
2219000000,-4.0132327,-81.700203
2220000000,-3.9974387,-81.807823
2221000000,-3.9963706,-81.809685
2222000000,-3.9750459,-81.784035
2223000000,-3.9768653,-82.084351
2224000000,-3.9672658,-81.996574
2225000000,-3.9780643,-82.001511
2226000000,-3.9511418,-82.101875
2227000000,-3.9856994,-82.266068
2228000000,-3.9095969,-82.381432
2229000000,-3.947216,-82.617043
2230000000,-3.9348683,-82.712967
2231000000,-3.9231946,-82.818619
2232000000,-3.9321411,-82.777122
2233000000,-3.9429042,-82.958328
2234000000,-3.9239676,-82.676071
2235000000,-3.8807218,-82.960098
2236000000,-3.888828,-83.038437
2237000000,-3.9148402,-83.255692
2238000000,-3.8576972,-83.210678
2239000000,-3.8875794,-83.333115
2240000000,-3.8654664,-83.27404
2241000000,-3.8726902,-83.356239
2242000000,-3.8705952,-83.456047
2243000000,-3.8617036,-83.268707
2244000000,-3.8681455,-83.666878
2245000000,-3.8317616,-83.618202
2246000000,-3.8443675,-83.688004
2247000000,-3.8088493,-83.974426
2248000000,-3.8230562,-83.898788
2249000000,-3.8158045,-84.048615
2250000000,-3.8199856,-84.262192
2251000000,-3.825094,-84.270287
2252000000,-3.7934806,-84.454865
2253000000,-3.8010974,-84.273834
2254000000,-3.7962527,-84.430244
2255000000,-3.7777975,-84.483475
2256000000,-3.7769651,-84.640686
2257000000,-3.7855318,-84.67038
2258000000,-3.815836,-84.806839
2259000000,-3.7698987,-84.961021
2260000000,-3.7615206,-85.032249
2261000000,-3.774523,-85.008087
2262000000,-3.7667625,-85.075569
2263000000,-3.7449908,-85.219376
2264000000,-3.7577269,-85.173737
2265000000,-3.7382271,-85.340492
2266000000,-3.7245376,-85.602623
2267000000,-3.7184327,-85.697472
2268000000,-3.7238066,-85.643089
2269000000,-3.7435672,-85.723305
2270000000,-3.7230546,-85.85157
2271000000,-3.7092426,-86.026527
2272000000,-3.7261987,-85.977791
2273000000,-3.6987309,-86.096176
2274000000,-3.6868973,-86.195793
2275000000,-3.6977944,-86.152107
2276000000,-3.6816025,-86.386719
2277000000,-3.677995,-86.491386
2278000000,-3.6976199,-86.552849
2279000000,-3.6822853,-86.418961
2280000000,-3.6796138,-86.761002
2281000000,-3.6783564,-86.771103
2282000000,-3.674103,-86.967537
2283000000,-3.6486161,-86.917046
2284000000,-3.6443088,-87.056953
2285000000,-3.6302884,-87.229584
2286000000,-3.6313281,-87.591843
2287000000,-3.6368325,-87.391609
2288000000,-3.6293075,-87.318695
2289000000,-3.645829,-87.329834
2290000000,-3.6047299,-87.447578
2291000000,-3.6083226,-87.732918
2292000000,-3.6057355,-87.539619
2293000000,-3.5958414,-87.986076
2294000000,-3.5827584,-87.931435
2295000000,-3.6137691,-87.877464
2296000000,-3.6006792,-88.304428
2297000000,-3.5730469,-88.06649
2298000000,-3.5860455,-88.348763
2299000000,-3.5756123,-88.302872
2300000000,-3.5466228,-88.395424
2301000000,-3.6090357,-88.659653
2302000000,-3.5393445,-88.698692
2303000000,-3.5498524,-88.653328
2304000000,-3.5936987,-88.636482
2305000000,-3.5595264,-88.697395
2306000000,-3.5656815,-88.849251
2307000000,-3.5709248,-89.154648
2308000000,-3.5245667,-88.87664
2309000000,-3.5610559,-89.144516
2310000000,-3.5560231,-89.238678
2311000000,-3.5102718,-89.345818
2312000000,-3.5436275,-89.324646
2313000000,-3.5000629,-89.536369
2314000000,-3.5250401,-89.516792
2315000000,-3.5120018,-89.601807
2316000000,-3.4961507,-89.938354
2317000000,-3.5070913,-89.692398
2318000000,-3.5107625,-89.821663
2319000000,-3.4845259,-90.149071
2320000000,-3.4936604,-90.153191
2321000000,-3.4923422,-90.139526
2322000000,-3.46051,-90.349449
2323000000,-3.4483423,-90.401428
2324000000,-3.4471354,-90.386848
2325000000,-3.4564342,-90.600647
2326000000,-3.4902205,-90.591972
2327000000,-3.4792447,-90.661087
2328000000,-3.4800284,-90.770081
2329000000,-3.4550745,-91.031219
2330000000,-3.4489119,-91.067642
2331000000,-3.4718363,-91.176071
2332000000,-3.4801338,-91.325134
2333000000,-3.4822862,-91.364288
2334000000,-3.4047663,-91.185516
2335000000,-3.4287343,-91.684288
2336000000,-3.4131379,-91.480827
2337000000,-3.4356833,-91.501038
2338000000,-3.4199505,-91.633659
2339000000,-3.4315798,-91.858559
2340000000,-3.3992956,-92.045738
2341000000,-3.4201643,-91.815269
2342000000,-3.3824759,-92.140961
2343000000,-3.4144709,-92.296577
2344000000,-3.4036272,-92.222839
2345000000,-3.3936117,-92.176071
2346000000,-3.4097042,-92.610893
2347000000,-3.3878741,-92.395271
2348000000,-3.3728545,-92.617294
2349000000,-3.408998,-92.46875
2350000000,-3.3921766,-92.577095
2351000000,-3.3939741,-92.833878
2352000000,-3.3629534,-93.02182
2353000000,-3.3953366,-92.956108
2354000000,-3.3802686,-93.154541
2355000000,-3.358263,-93.211029
2356000000,-3.3626466,-93.344612
2357000000,-3.3621726,-93.188156
2358000000,-3.3650069,-93.398247
2359000000,-3.3839655,-93.662407
2360000000,-3.3370655,-93.717392
2361000000,-3.3716702,-93.588547
2362000000,-3.3361325,-93.74118
2363000000,-3.2899592,-93.688766
2364000000,-3.3084269,-94.028954
2365000000,-3.3309798,-94.084648
2366000000,-3.3140745,-94.131622
2367000000,-3.3214335,-94.215309
2368000000,-3.3007028,-94.210251
2369000000,-3.3063564,-94.45266
2370000000,-3.3057532,-94.481644
2371000000,-3.3358743,-94.403351
2372000000,-3.3222251,-94.759605
2373000000,-3.328445,-94.84304
2374000000,-3.3113916,-94.853439
2375000000,-3.2888308,-95.053886
2376000000,-3.2833157,-95.182037
2377000000,-3.2705822,-95.220734
2378000000,-3.3005767,-95.343689
2379000000,-3.3070104,-95.354179
2380000000,-3.2552097,-95.495438
2381000000,-3.2895744,-95.578941
2382000000,-3.3073742,-95.450897
2383000000,-3.2754209,-95.841667
2384000000,-3.2744107,-95.656357
2385000000,-3.2932243,-95.91864
2386000000,-3.2647872,-96.026794
2387000000,-3.2272446,-96.031433
2388000000,-3.2642198,-96.097977
2389000000,-3.2595315,-96.049934
2390000000,-3.2934988,-96.323845
2391000000,-3.2614832,-96.466545
2392000000,-3.2294123,-96.649979
2393000000,-3.2630041,-96.522293
2394000000,-3.255497,-96.643082
2395000000,-3.2562706,-96.629784
2396000000,-3.2501047,-96.904633
2397000000,-3.2304313,-96.930443
2398000000,-3.2573926,-97.040016
2399000000,-3.2561443,-97.026672
2400000000,-3.2414877,-97.361595
2401000000,-3.2147512,-97.270004
2402000000,-3.2328072,-97.275208
2403000000,-3.2106085,-97.553978
2404000000,-3.197191,-97.57608
2405000000,-3.2402501,-97.554039
2406000000,-3.2411666,-97.679001
2407000000,-3.2195685,-97.787247
2408000000,-3.2020772,-98.049477
2409000000,-3.1953433,-97.84819
2410000000,-3.2100105,-98.055168
2411000000,-3.1900725,-98.145981
2412000000,-3.2337236,-98.258041
2413000000,-3.1809449,-98.528687
2414000000,-3.2173016,-98.422058
2415000000,-3.1983807,-98.766068
2416000000,-3.1960866,-98.673103
2417000000,-3.2006152,-98.590172
2418000000,-3.1660917,-98.876472
2419000000,-3.1845205,-98.73835
2420000000,-3.1981945,-98.899513
2421000000,-3.1627245,-99.231728
2422000000,-3.1640205,-99.209091
2423000000,-3.1795111,-99.144684
2424000000,-3.199724,-99.5401
2425000000,-3.1836393,-99.511971
2426000000,-3.1782141,-99.587761
2427000000,-3.1375358,-99.610352
2428000000,-3.1223826,-99.679405
2429000000,-3.1524782,-99.821777
2430000000,-3.1825399,-99.809105
2431000000,-3.1485116,-100.03333
2432000000,-3.1392117,-99.965034
2433000000,-3.1470175,-100.17146
2434000000,-3.1453352,-100.06294
2435000000,-3.1722512,-100.41827
2436000000,-3.1679823,-100.42165
2437000000,-3.1400254,-100.45863
2438000000,-3.117928,-100.63045
2439000000,-3.1723332,-100.52232
2440000000,-3.1428115,-100.76805
2441000000,-3.1188788,-100.82281
2442000000,-3.164737,-101.14853
2443000000,-3.1639371,-100.79836
2444000000,-3.1476276,-101.14323
2445000000,-3.1600525,-101.2018
2446000000,-3.1448748,-101.2975
2447000000,-3.1590507,-101.57095
2448000000,-3.127317,-101.60499
2449000000,-3.1354599,-101.67947
2450000000,-3.1198392,-101.62002
2451000000,-3.1302738,-101.65996
2452000000,-3.123297,-102.02641
2453000000,-3.1093175,-101.80739
2454000000,-3.1045871,-101.9618
2455000000,-3.1695182,-102.11472
2456000000,-3.149888,-102.14854
2457000000,-3.130281,-102.42903
2458000000,-3.10095,-102.46899
2459000000,-3.1248682,-102.57601
2460000000,-3.1020243,-102.65827
2461000000,-3.1106341,-102.57409
2462000000,-3.1025038,-102.8631
2463000000,-3.1264427,-102.9377
2464000000,-3.111413,-102.94021
2465000000,-3.1058617,-103.00578
2466000000,-3.0982485,-103.02458
2467000000,-3.1273282,-103.22686
2468000000,-3.1059294,-103.33645
2469000000,-3.1063695,-103.47144
2470000000,-3.1116321,-103.63106
2471000000,-3.1185715,-103.65645
2472000000,-3.1066699,-103.68458
2473000000,-3.0782554,-103.70176
2474000000,-3.1039443,-103.97139
2475000000,-3.0976577,-104.11475
2476000000,-3.0964398,-104.14245
2477000000,-3.1108179,-104.21291
2478000000,-3.0973902,-104.22358
2479000000,-3.1383152,-104.28288
2480000000,-3.0960288,-104.5163
2481000000,-3.1068029,-104.55365
2482000000,-3.0953014,-104.40763
2483000000,-3.0717165,-104.55624
2484000000,-3.1177773,-104.56482
2485000000,-3.1043317,-104.86411
2486000000,-3.1032643,-104.88864
2487000000,-3.10501,-104.96981
2488000000,-3.0559986,-105.05562
2489000000,-3.0748119,-105.35671
2490000000,-3.0857873,-105.03476
2491000000,-3.0966969,-105.65812
2492000000,-3.076293,-105.61386
2493000000,-3.0618529,-105.54503
2494000000,-3.1159186,-105.54256
2495000000,-3.0933688,-105.73814
2496000000,-3.0718439,-105.99993
2497000000,-3.0963016,-105.95976
2498000000,-3.0893326,-105.99973
2499000000,-3.0591712,-106.06499
2500000000,-3.0959451,-106.14027
2501000000,-3.0579443,-106.23405
2502000000,-3.0656314,-106.40195
2503000000,-3.0788791,-106.56637
2504000000,-3.0799243,-106.53184
2505000000,-3.0814819,-106.6002
2506000000,-3.0594437,-106.84199
2507000000,-3.0656171,-106.87135
2508000000,-3.0511,-106.85356
2509000000,-3.0605667,-106.95331
2510000000,-3.0662258,-107.13588
2511000000,-3.0694852,-107.00526
2512000000,-3.0685565,-107.27245
2513000000,-3.0602086,-107.29671
2514000000,-3.0750856,-107.55685
2515000000,-3.0929961,-107.54371
2516000000,-3.0434372,-107.73885
2517000000,-3.0391996,-107.81561
2518000000,-3.0683506,-107.80386
2519000000,-3.0887702,-107.83015
2520000000,-3.0463228,-107.94374
2521000000,-3.063386,-108.11862
2522000000,-3.1002975,-108.25629
2523000000,-3.0525935,-108.02456
2524000000,-3.0780909,-108.28934
2525000000,-3.0380828,-108.14558
2526000000,-3.0658922,-108.60105
2527000000,-3.0691409,-108.6568
2528000000,-3.0316532,-108.82274
2529000000,-3.0403805,-108.68111
2530000000,-3.0640233,-108.67961
2531000000,-3.062649,-109.1233
2532000000,-3.0737081,-108.91561
2533000000,-3.0659413,-109.18422
2534000000,-3.0622785,-109.29002
2535000000,-3.0707064,-109.49479
2536000000,-3.0277095,-109.39194
2537000000,-3.0810337,-109.4555
2538000000,-3.0699074,-109.68461
2539000000,-3.0625985,-109.79266
2540000000,-3.0852835,-109.60124
2541000000,-3.0642915,-109.79362
2542000000,-3.0744114,-109.97256
2543000000,-3.0563333,-110.14462
2544000000,-3.0480268,-110.25902
2545000000,-3.0888386,-110.28551
2546000000,-3.062145,-110.28845
2547000000,-3.0601928,-110.34824
2548000000,-3.0442154,-110.44241
2549000000,-3.0764401,-110.68948
2550000000,-3.0584235,-110.314
2551000000,-3.0641205,-110.68375
2552000000,-3.0884199,-110.91222
2553000000,-3.0434842,-110.76285
2554000000,-3.0732341,-110.97646
2555000000,-3.0429187,-110.98167
2556000000,-3.0493298,-111.17506
2557000000,-3.0550265,-110.96083
2558000000,-3.0862854,-111.34879
2559000000,-3.05881,-111.46274
2560000000,-3.0358236,-111.42848
2561000000,-3.0671103,-111.61177
2562000000,-3.0542548,-111.51038
2563000000,-3.0458937,-111.96755
2564000000,-3.0730042,-111.67861
2565000000,-3.088624,-112.04413
2566000000,-3.0600584,-111.75758
2567000000,-3.0773792,-112.21484
2568000000,-3.0762789,-111.90126
2569000000,-3.0743377,-112.27835
2570000000,-3.0561004,-112.63087
2571000000,-3.0714931,-112.41459
2572000000,-3.0784779,-112.67929
2573000000,-3.0464411,-112.62159
2574000000,-3.0695715,-112.57514
2575000000,-3.0745137,-112.76093
2576000000,-3.0564053,-112.91472
2577000000,-3.087038,-112.97992
2578000000,-3.077234,-112.9464
2579000000,-3.0584452,-113.42325
2580000000,-3.0574586,-113.28168
2581000000,-3.0783603,-113.3457
2582000000,-3.0769625,-113.58917
2583000000,-3.0614595,-113.19344
2584000000,-3.048568,-113.6873
2585000000,-3.0662925,-113.42588
2586000000,-3.06182,-113.55701
2587000000,-3.0569324,-113.77705
2588000000,-3.0801334,-113.96315
2589000000,-3.0711615,-113.89137
2590000000,-3.0732102,-114.11684
2591000000,-3.1076562,-114.2178
2592000000,-3.1046214,-114.34784
2593000000,-3.0625703,-114.31679
2594000000,-3.089628,-114.22475
2595000000,-3.0793231,-114.5574
2596000000,-3.069344,-114.50995
2597000000,-3.0859172,-114.88364
2598000000,-3.0571568,-114.92334
2599000000,-3.0739057,-115.16874
2600000000,-3.0829148,-114.97552
2601000000,-3.0649719,-115.26887
2602000000,-3.07739,-115.05223
2603000000,-3.0749402,-115.21152
2604000000,-3.0885599,-115.3502
2605000000,-3.1234453,-115.41575
2606000000,-3.0781443,-115.41226
2607000000,-3.1106112,-115.40982
2608000000,-3.056962,-115.53713
2609000000,-3.0983641,-115.69131
2610000000,-3.0663285,-115.77155
2611000000,-3.0850487,-116.07864
2612000000,-3.0992539,-115.88539
2613000000,-3.112673,-116.14227
2614000000,-3.1095159,-116.15604
2615000000,-3.1149757,-116.16026
2616000000,-3.1032424,-116.23939
2617000000,-3.1460052,-116.22676
2618000000,-3.1079347,-116.61642
2619000000,-3.1421909,-116.51031
2620000000,-3.0979552,-116.66956
2621000000,-3.1046159,-116.82682
2622000000,-3.1235228,-117.08212
2623000000,-3.1118793,-116.91723
2624000000,-3.0704918,-117.00846
2625000000,-3.1400759,-117.21789
2626000000,-3.0797083,-117.20211
2627000000,-3.0786488,-117.39371
2628000000,-3.1321449,-117.40565
2629000000,-3.0964255,-117.46512
2630000000,-3.1227577,-117.44357
2631000000,-3.0989769,-117.74287
2632000000,-3.1249385,-117.59896
2633000000,-3.1463633,-117.798
2634000000,-3.1222913,-117.99614
2635000000,-3.1149554,-117.98517
2636000000,-3.0949843,-118.14322
2637000000,-3.1376958,-118.16209
2638000000,-3.1192086,-118.1435
2639000000,-3.1452119,-118.37484
2640000000,-3.1430893,-118.39592
2641000000,-3.1448395,-118.59216
2642000000,-3.1199253,-118.59848
2643000000,-3.1351311,-118.54445
2644000000,-3.1346672,-118.69347
2645000000,-3.1272304,-118.82438
2646000000,-3.1626921,-118.94287
2647000000,-3.1534801,-119.02999
2648000000,-3.1419401,-118.91458
2649000000,-3.1626117,-119.1403
2650000000,-3.1360343,-119.05178
2651000000,-3.1592453,-119.24681
2652000000,-3.1232309,-119.21748
2653000000,-3.1513357,-119.58088
2654000000,-3.1654785,-119.44516
2655000000,-3.1535716,-119.45259
2656000000,-3.1434751,-119.55003
2657000000,-3.1806479,-119.7432
2658000000,-3.17045,-119.97304
2659000000,-3.1415873,-119.66345
2660000000,-3.1945174,-120.0611
2661000000,-3.1783822,-120.22966
2662000000,-3.1766632,-120.30287
2663000000,-3.1582294,-120.32926
2664000000,-3.1691253,-120.28886
2665000000,-3.1779006,-120.32705
2666000000,-3.1585267,-120.37101
2667000000,-3.1567473,-120.74249
2668000000,-3.1735704,-120.81882
2669000000,-3.1753531,-120.78635
2670000000,-3.1783605,-120.82326
2671000000,-3.1836686,-121.09689
2672000000,-3.1677375,-121.05426
2673000000,-3.1874418,-121.06281
2674000000,-3.1878862,-121.21671
2675000000,-3.1826472,-121.17884
2676000000,-3.1710351,-121.29353
2677000000,-3.1783257,-121.52148
2678000000,-3.19871,-121.50049
2679000000,-3.2059157,-121.68739
2680000000,-3.1914175,-121.55059
2681000000,-3.1891115,-121.92466
2682000000,-3.2075,-121.73513
2683000000,-3.2124949,-121.89973
2684000000,-3.1848369,-121.95329
2685000000,-3.1898687,-122.1354
2686000000,-3.2171943,-122.04416
2687000000,-3.179121,-122.37927
2688000000,-3.2414873,-122.3159
2689000000,-3.239512,-122.32741
2690000000,-3.2313721,-122.38712
2691000000,-3.2085214,-122.72131
2692000000,-3.2177684,-122.73083
2693000000,-3.2319911,-122.69019
2694000000,-3.1915805,-122.76669
2695000000,-3.2349186,-122.87057
2696000000,-3.2532878,-123.2194
2697000000,-3.2275317,-123.23241
2698000000,-3.236424,-123.14678
2699000000,-3.248661,-123.18674
2700000000,-3.2391744,-123.33591
2701000000,-3.208549,-123.31361
2702000000,-3.2031531,-123.47536
2703000000,-3.2524757,-123.49107
2704000000,-3.2416649,-123.60983
2705000000,-3.2841792,-123.60081
2706000000,-3.2397537,-123.69971
2707000000,-3.2438946,-123.84382
2708000000,-3.2277267,-123.86523
2709000000,-3.2215769,-124.07077
2710000000,-3.2573826,-124.25091
2711000000,-3.2658403,-123.99273
2712000000,-3.2631657,-124.06673
2713000000,-3.2352941,-124.20866
2714000000,-3.2668803,-124.53257
2715000000,-3.2521994,-124.36753
2716000000,-3.2786751,-124.75188
2717000000,-3.2506893,-124.41421
2718000000,-3.2597497,-124.87682
2719000000,-3.2761052,-125.04324
2720000000,-3.2821724,-124.60496
2721000000,-3.3219857,-124.92973
2722000000,-3.2607379,-125.01913
2723000000,-3.279104,-125.01943
2724000000,-3.2788322,-125.18583
2725000000,-3.3091631,-125.03915
2726000000,-3.2898407,-125.39912
2727000000,-3.2885458,-125.50575
2728000000,-3.3125179,-125.4782
2729000000,-3.2794349,-125.51009
2730000000,-3.2969792,-125.56553
2731000000,-3.3002772,-125.68604
2732000000,-3.2871854,-125.87658
2733000000,-3.3209748,-125.96885
2734000000,-3.2742293,-126.05117
2735000000,-3.2898784,-126.23696
2736000000,-3.3090484,-126.05266
2737000000,-3.3057032,-126.11958
2738000000,-3.3171389,-126.18871
2739000000,-3.2545567,-126.38267
2740000000,-3.3161457,-126.37592
2741000000,-3.3095706,-126.46621
2742000000,-3.3236115,-126.44794
2743000000,-3.2980912,-126.81253
2744000000,-3.3268788,-126.72823
2745000000,-3.3178418,-126.77193
2746000000,-3.3504512,-126.87991
2747000000,-3.3430796,-126.76643
2748000000,-3.3445201,-126.97237
2749000000,-3.3646307,-127.24242
2750000000,-3.3270197,-127.25362
2751000000,-3.3387046,-127.3886
2752000000,-3.3444417,-127.41577
2753000000,-3.3335512,-127.40715
2754000000,-3.3412619,-127.58066
2755000000,-3.3572698,-127.5622
2756000000,-3.3461685,-127.46044
2757000000,-3.3365769,-127.73261
2758000000,-3.3812404,-127.83517
2759000000,-3.3503823,-128.00452
2760000000,-3.3697543,-127.94524
2761000000,-3.4043913,-128.07138
2762000000,-3.3880274,-128.17482
2763000000,-3.3683515,-128.29654
2764000000,-3.3907185,-128.1723
2765000000,-3.3795629,-128.51074
2766000000,-3.3771324,-128.33771
2767000000,-3.3665757,-128.53734
2768000000,-3.38691,-128.45387
2769000000,-3.3999131,-128.5972
2770000000,-3.4123836,-128.69876
2771000000,-3.4096997,-129.05647
2772000000,-3.3844392,-128.87338
2773000000,-3.4004769,-128.94664
2774000000,-3.4068818,-129.05481
2775000000,-3.3954053,-129.17773
2776000000,-3.4231946,-129.16721
2777000000,-3.4137654,-129.40654
2778000000,-3.449496,-129.44939
2779000000,-3.3863139,-129.4005
2780000000,-3.4163711,-129.80551
2781000000,-3.4082835,-129.59457
2782000000,-3.4339051,-129.53085
2783000000,-3.442322,-129.6263
2784000000,-3.4181697,-129.86113
2785000000,-3.4310198,-129.79425
2786000000,-3.4012468,-130.01556
2787000000,-3.4437089,-129.93533
2788000000,-3.43224,-130.26646
2789000000,-3.4315612,-130.29482
2790000000,-3.4507105,-130.22517
2791000000,-3.4403718,-130.3223
2792000000,-3.3998103,-130.08434
2793000000,-3.4492123,-130.4398
2794000000,-3.4791758,-130.59578
2795000000,-3.4222622,-130.73012
2796000000,-3.447506,-130.62787
2797000000,-3.4480219,-130.79021
2798000000,-3.4921381,-130.86375
2799000000,-3.4594588,-130.88989
2800000000,-3.4885001,-130.85208
2801000000,-3.5059254,-131.0007
2802000000,-3.5032613,-131.28111
2803000000,-3.4605145,-131.28706
2804000000,-3.4929557,-131.30571
2805000000,-3.5322535,-131.47105
2806000000,-3.514082,-131.39783
2807000000,-3.4858453,-131.30341
2808000000,-3.5035548,-131.47249
2809000000,-3.4816163,-131.50658
2810000000,-3.5105662,-131.89857
2811000000,-3.4897385,-131.56851
2812000000,-3.4963391,-132.10564
2813000000,-3.5165477,-131.86023
2814000000,-3.4831703,-132.07744
2815000000,-3.4913213,-132.24384
2816000000,-3.5183399,-132.09122
2817000000,-3.4801738,-132.36021
2818000000,-3.53514,-132.18823
2819000000,-3.5026991,-132.05507
2820000000,-3.5610909,-132.44774
2821000000,-3.5243518,-132.54866
2822000000,-3.550581,-132.50758
2823000000,-3.5360677,-132.69797
2824000000,-3.5224712,-132.73431
2825000000,-3.5258698,-132.73137
2826000000,-3.5393045,-132.91122
2827000000,-3.5645289,-133.10857
2828000000,-3.5467694,-132.93657
2829000000,-3.5476294,-132.86559
2830000000,-3.5380597,-133.29498
2831000000,-3.5582709,-133.45691
2832000000,-3.5651457,-133.58595
2833000000,-3.5745077,-133.24765
2834000000,-3.5418816,-133.5378
2835000000,-3.544786,-133.536
2836000000,-3.5561132,-133.6591
2837000000,-3.5478783,-133.56194
2838000000,-3.588568,-133.78947
2839000000,-3.60355,-133.74582
2840000000,-3.5855541,-134.01715
2841000000,-3.6114643,-133.73589
2842000000,-3.5685768,-133.99643
2843000000,-3.5579405,-133.9156
2844000000,-3.5961771,-134.12433
2845000000,-3.5933492,-134.4729
2846000000,-3.5893867,-134.31693
2847000000,-3.5796311,-134.6226
2848000000,-3.6088331,-134.36588
2849000000,-3.5942891,-134.38901
2850000000,-3.6038606,-134.52322
2851000000,-3.6179998,-134.70587
2852000000,-3.5953782,-134.56517
2853000000,-3.6112838,-134.98038
2854000000,-3.6376915,-135.0676
2855000000,-3.6229718,-134.9742
2856000000,-3.6444447,-134.99187
2857000000,-3.6370625,-135.23051
2858000000,-3.6337616,-135.29036
2859000000,-3.6437206,-135.23265
2860000000,-3.6289742,-135.20561
2861000000,-3.6206696,-135.47743
2862000000,-3.6418045,-135.50693
2863000000,-3.6345756,-135.39856
2864000000,-3.6620171,-135.79234
2865000000,-3.6389036,-135.55705
2866000000,-3.6839111,-135.907
2867000000,-3.6493995,-135.78755
2868000000,-3.6644504,-136.01093
2869000000,-3.6864517,-136.01257
2870000000,-3.6780546,-136.10736
2871000000,-3.6799035,-135.82735
2872000000,-3.711498,-136.00342
2873000000,-3.6501107,-136.24727
2874000000,-3.693747,-136.19652
2875000000,-3.6880128,-136.20531
2876000000,-3.6844132,-136.30804
2877000000,-3.7054682,-136.57635
2878000000,-3.7163484,-136.69258
2879000000,-3.7255926,-136.85014
2880000000,-3.7335031,-136.63072
2881000000,-3.7186484,-136.85155
2882000000,-3.6833341,-136.84702
2883000000,-3.7118893,-136.95474
2884000000,-3.7291346,-136.84547
2885000000,-3.7098222,-137.21031
2886000000,-3.7307527,-137.27382
2887000000,-3.7373812,-137.18285
2888000000,-3.7050478,-137.43259
2889000000,-3.7119339,-137.24593
2890000000,-3.7147174,-137.33649
2891000000,-3.761694,-137.38647
2892000000,-3.7342093,-137.47572
2893000000,-3.7316983,-137.63377
2894000000,-3.7551751,-137.71136
2895000000,-3.7063568,-137.74614
2896000000,-3.7762654,-137.93733
2897000000,-3.7822254,-137.98717
2898000000,-3.7573264,-138.03214
2899000000,-3.7188098,-137.98468
2900000000,-3.7578714,-138.09142
2901000000,-3.7735987,-138.1433
2902000000,-3.7672355,-138.14272
2903000000,-3.7781801,-138.24612
2904000000,-3.7794778,-138.34268
2905000000,-3.7762792,-138.26244
2906000000,-3.7708678,-138.36014
2907000000,-3.7991929,-138.76958
2908000000,-3.7849638,-138.5527
2909000000,-3.8144743,-138.52957
2910000000,-3.7763069,-138.70033
2911000000,-3.8190899,-138.86916
2912000000,-3.8020267,-138.88277
2913000000,-3.8228636,-138.87767
2914000000,-3.7983015,-139.08656
2915000000,-3.8111589,-139.05656
2916000000,-3.8079073,-139.18103
2917000000,-3.7907603,-139.0912
2918000000,-3.8198214,-139.35417
2919000000,-3.8083653,-139.55446
2920000000,-3.7867553,-139.23628
2921000000,-3.8021183,-139.55505
2922000000,-3.8268955,-139.54874
2923000000,-3.8088763,-139.49586
2924000000,-3.823168,-139.6427
2925000000,-3.8388019,-139.72925
2926000000,-3.8344307,-139.65796
2927000000,-3.8621008,-139.89049
2928000000,-3.84817,-140.07471
2929000000,-3.8667874,-140.12405
2930000000,-3.8685031,-140.27089
2931000000,-3.8700545,-140.25104
2932000000,-3.8650126,-140.24213
2933000000,-3.8789287,-140.26355
2934000000,-3.8360295,-140.33853
2935000000,-3.8863726,-140.55106
2936000000,-3.8556027,-140.34177
2937000000,-3.8788068,-140.68503
2938000000,-3.8992262,-140.43602
2939000000,-3.8730974,-140.8022
2940000000,-3.8731275,-140.77875
2941000000,-3.8689976,-140.67816
2942000000,-3.899029,-141.01518
2943000000,-3.8661749,-141.0813
2944000000,-3.8881028,-140.95403
2945000000,-3.9249842,-141.33179
2946000000,-3.9028602,-141.15518
2947000000,-3.8906147,-141.3195
2948000000,-3.9236555,-141.52254
2949000000,-3.9080644,-141.52489
2950000000,-3.9092023,-141.63037
2951000000,-3.9567983,-141.33035
2952000000,-3.9560447,-141.59311
2953000000,-3.9366899,-141.6252
2954000000,-3.94682,-141.87172
2955000000,-3.970434,-141.71425
2956000000,-3.9207182,-141.92972
2957000000,-3.9342184,-142.28473
2958000000,-3.9551115,-141.81248
2959000000,-3.9279222,-142.07625
2960000000,-3.9415188,-142.19202
2961000000,-3.9353027,-142.20686
2962000000,-3.9534969,-142.28958
2963000000,-4.0027695,-142.34932
2964000000,-3.9713309,-142.33199
2965000000,-3.9950521,-142.46861
2966000000,-3.9771256,-142.4599
2967000000,-4.0061631,-142.44569
2968000000,-3.9927027,-142.72763
2969000000,-3.994921,-142.67641
2970000000,-4.0287914,-142.86742
2971000000,-3.9867444,-142.68062
2972000000,-3.962554,-142.82765
2973000000,-3.9825885,-142.92688
2974000000,-3.999671,-143.23138
2975000000,-4.0024118,-143.07463
2976000000,-4.0055733,-143.16592
2977000000,-4.0122943,-143.24414
2978000000,-3.9860976,-143.39514
2979000000,-4.0234632,-143.42201
2980000000,-4.0157366,-143.4541
2981000000,-4.0286469,-143.44427
2982000000,-4.0166497,-143.39473
2983000000,-4.0203309,-143.64206
2984000000,-4.0254288,-143.74339
2985000000,-4.0196443,-143.81773
2986000000,-4.0349751,-143.83685
2987000000,-4.0317411,-143.99339
2988000000,-4.0586448,-143.86299
2989000000,-4.019722,-144.13229
2990000000,-4.0486264,-144.11505
2991000000,-4.0630298,-144.14668
2992000000,-4.0336566,-144.08066
2993000000,-4.0788465,-144.40756
2994000000,-4.0901623,-144.03893
2995000000,-4.0892081,-144.30382
2996000000,-4.0907631,-144.42711
2997000000,-4.0790162,-144.65529
2998000000,-4.0606613,-144.6613
2999000000,-4.09337,-144.71288
3000000000,-4.1054173,-144.6958
3001000000,-4.0941463,-144.73195
3002000000,-4.0993843,-144.87019
3003000000,-4.0895309,-144.98193
3004000000,-4.1105199,-144.97786
3005000000,-4.1049585,-145.05927
3006000000,-4.1153259,-145.06175
3007000000,-4.1093488,-145.15929
3008000000,-4.1320262,-145.35738
3009000000,-4.1076207,-145.18597
3010000000,-4.1404061,-145.35046
3011000000,-4.1132207,-145.46426
3012000000,-4.1049757,-145.38927
3013000000,-4.1404548,-145.55867
3014000000,-4.1300559,-145.57869
3015000000,-4.1145806,-145.42668
3016000000,-4.1512299,-145.74191
3017000000,-4.1421218,-145.85736
3018000000,-4.1603785,-145.88731
3019000000,-4.1574593,-145.87312
3020000000,-4.1417112,-146.08351
3021000000,-4.1541219,-145.99422
3022000000,-4.1726298,-146.20047
3023000000,-4.1470098,-146.20831
3024000000,-4.1489639,-146.41724
3025000000,-4.2005191,-146.36566
3026000000,-4.1669283,-146.35875
3027000000,-4.1650224,-146.35045
3028000000,-4.2051177,-146.49544
3029000000,-4.1718483,-146.54166
3030000000,-4.2044959,-146.63338
3031000000,-4.190433,-146.82509
3032000000,-4.2130022,-146.87859
3033000000,-4.2256408,-146.60524
3034000000,-4.1592922,-147.06839
3035000000,-4.2074113,-147.00433
3036000000,-4.2428951,-146.78265
3037000000,-4.207839,-147.20287
3038000000,-4.2332015,-147.10367
3039000000,-4.2376742,-146.95486
3040000000,-4.2138829,-147.17561
3041000000,-4.2093468,-147.32094
3042000000,-4.2323985,-147.14899
3043000000,-4.2739577,-147.43036
3044000000,-4.2358341,-147.60942
3045000000,-4.2385807,-147.55255
3046000000,-4.2370639,-147.61192
3047000000,-4.2595739,-147.55743
3048000000,-4.2590408,-147.91629
3049000000,-4.2494173,-147.89507
3050000000,-4.2498021,-147.76537
3051000000,-4.2498136,-147.93636
3052000000,-4.2975998,-147.91603
3053000000,-4.2650013,-148.03755
3054000000,-4.2778044,-148.16898
3055000000,-4.2781982,-148.14209
3056000000,-4.2926092,-148.26459
3057000000,-4.3017235,-148.14914
3058000000,-4.2652831,-148.60307
3059000000,-4.2754869,-148.13844
3060000000,-4.2975612,-148.43686
3061000000,-4.2984905,-148.47694
3062000000,-4.3341951,-148.56602
3063000000,-4.3052783,-148.61508
3064000000,-4.2872372,-148.56772
3065000000,-4.3075647,-148.84846
3066000000,-4.3087263,-149.07484
3067000000,-4.3248258,-148.81631
3068000000,-4.3145437,-149.06616
3069000000,-4.3479838,-149.07385
3070000000,-4.3350143,-148.8862
3071000000,-4.3551769,-149.24461
3072000000,-4.3627996,-149.29662
3073000000,-4.3462501,-149.29871
3074000000,-4.3518081,-149.19104
3075000000,-4.3635397,-149.23691
3076000000,-4.3420491,-149.43427
3077000000,-4.3579021,-149.48705
3078000000,-4.3545623,-149.45973
3079000000,-4.3910589,-149.70285
3080000000,-4.3676295,-149.79265
3081000000,-4.39115,-149.67989
3082000000,-4.3552504,-149.64038
3083000000,-4.373601,-149.95084
3084000000,-4.3799448,-149.84476
3085000000,-4.3983784,-149.87837
3086000000,-4.3683605,-149.90962
3087000000,-4.4169111,-149.94728
3088000000,-4.4332929,-150.19052
3089000000,-4.3833389,-150.07623
3090000000,-4.3841891,-150.43169
3091000000,-4.4110599,-150.27943
3092000000,-4.3925557,-150.45798
3093000000,-4.4361496,-150.4639
3094000000,-4.4246755,-150.73409
3095000000,-4.4322605,-150.57329
3096000000,-4.4131832,-150.73158
3097000000,-4.4446802,-150.74751
3098000000,-4.4741645,-150.53262
3099000000,-4.4600954,-150.78505
3100000000,-4.4412498,-150.82506
3101000000,-4.4660325,-150.94475
3102000000,-4.4614406,-150.9361
3103000000,-4.4551411,-151.00525
3104000000,-4.4545398,-151.11157
3105000000,-4.455739,-151.14737
3106000000,-4.5014949,-151.10838
3107000000,-4.4928112,-151.32607
3108000000,-4.4666958,-151.31834
3109000000,-4.4582644,-151.28308
3110000000,-4.496242,-151.3342
3111000000,-4.497684,-151.55165
3112000000,-4.4718757,-151.56383
3113000000,-4.4728169,-151.69847
3114000000,-4.512394,-151.79068
3115000000,-4.4831886,-151.55627
3116000000,-4.5245233,-151.90277
3117000000,-4.4996991,-151.70238
3118000000,-4.5423045,-152.0779
3119000000,-4.477592,-151.82977
3120000000,-4.5142589,-152.14711
3121000000,-4.490406,-151.9588
3122000000,-4.5346322,-152.20306
3123000000,-4.5061903,-152.17313
3124000000,-4.5291729,-152.19771
3125000000,-4.5439873,-152.27966
3126000000,-4.5447383,-152.38074
3127000000,-4.5122743,-152.4921
3128000000,-4.5436902,-152.46275
3129000000,-4.5511088,-152.44875
3130000000,-4.5561051,-152.78929
3131000000,-4.5547848,-152.90663
3132000000,-4.5365367,-152.76321
3133000000,-4.5911527,-152.74384
3134000000,-4.5461116,-152.92633
3135000000,-4.5890779,-152.94342
3136000000,-4.5733895,-152.80128
3137000000,-4.5844946,-152.95264
3138000000,-4.5666251,-152.91623
3139000000,-4.5798316,-153.24301
3140000000,-4.5853744,-153.08093
3141000000,-4.6039786,-153.11227
3142000000,-4.5752802,-153.33224
3143000000,-4.6054592,-153.43608
3144000000,-4.6140704,-153.39153
3145000000,-4.6154733,-153.56989
3146000000,-4.5994782,-153.53612
3147000000,-4.5949135,-153.70801
3148000000,-4.6580071,-153.46382
3149000000,-4.6399212,-153.52228
3150000000,-4.654912,-153.98383
3151000000,-4.6501641,-153.98145
3152000000,-4.6773539,-153.8345
3153000000,-4.6587229,-153.93071
3154000000,-4.640841,-154.08473
3155000000,-4.6630039,-154.08073
3156000000,-4.6670957,-153.96684
3157000000,-4.6697769,-154.10814
3158000000,-4.6773148,-154.15218
3159000000,-4.6657195,-154.18633
3160000000,-4.6764436,-154.27769
3161000000,-4.6750903,-154.34402
3162000000,-4.677207,-154.27696
3163000000,-4.6835079,-154.49887
3164000000,-4.6770415,-154.37263
3165000000,-4.67802,-154.67972
3166000000,-4.7364902,-154.56645
3167000000,-4.7203913,-154.9151
3168000000,-4.6909742,-154.83289
3169000000,-4.6871305,-154.94185
3170000000,-4.6646886,-154.84602
3171000000,-4.694015,-154.95566
3172000000,-4.7201805,-154.88689
3173000000,-4.7111936,-155.00945
3174000000,-4.7502465,-155.00992
3175000000,-4.7343421,-155.17548
3176000000,-4.7368541,-155.36035
3177000000,-4.7334232,-155.27678
3178000000,-4.7567735,-155.30208
3179000000,-4.732151,-155.33464
3180000000,-4.7271614,-155.29068
3181000000,-4.7603374,-155.42192
3182000000,-4.7462049,-155.42426
3183000000,-4.7496104,-155.43697
3184000000,-4.7590261,-155.6741
3185000000,-4.786375,-155.53638
3186000000,-4.7472496,-155.76791
3187000000,-4.7572169,-156.01886
3188000000,-4.795548,-155.64386
3189000000,-4.7671499,-155.85809
3190000000,-4.7921224,-155.88156
3191000000,-4.7752624,-155.97052
3192000000,-4.8050671,-156.0069
3193000000,-4.8118525,-155.93974
3194000000,-4.8047328,-156.24115
3195000000,-4.7968369,-156.35112
3196000000,-4.8367357,-156.35713
3197000000,-4.8123116,-156.21701
3198000000,-4.823801,-156.40886
3199000000,-4.8277464,-156.46712
3200000000,-4.7931895,-156.44167
3201000000,-4.8333917,-156.45883
3202000000,-4.817636,-156.83324
3203000000,-4.8249183,-156.56105
3204000000,-4.8188887,-156.49731
3205000000,-4.8622065,-156.5489
3206000000,-4.8574119,-156.69968
3207000000,-4.8882351,-156.74016
3208000000,-4.8277087,-156.87788
3209000000,-4.8536906,-157.09654
3210000000,-4.8302546,-156.8904
3211000000,-4.8618851,-156.95116
3212000000,-4.8365431,-157.10506
3213000000,-4.8710742,-157.17659
3214000000,-4.8619161,-157.29349
3215000000,-4.8559971,-157.41129
3216000000,-4.8582654,-157.424
3217000000,-4.8923335,-157.2952
3218000000,-4.886219,-157.39017
3219000000,-4.859899,-157.31366
3220000000,-4.8830605,-157.45705
3221000000,-4.8657427,-157.48946
3222000000,-4.9029884,-157.43292
3223000000,-4.9077148,-157.66624
3224000000,-4.9061136,-157.58246
3225000000,-4.8873048,-157.85916
3226000000,-4.9170012,-158.11307
3227000000,-4.9204059,-157.82101
3228000000,-4.9407315,-158.04822
3229000000,-4.8823829,-158.18411
3230000000,-4.9311509,-158.1546
3231000000,-4.9294915,-158.23592
3232000000,-4.9301791,-158.00635
3233000000,-4.9638519,-158.24487
3234000000,-4.9250975,-158.55708
3235000000,-4.931149,-158.34377
3236000000,-4.9496636,-158.46262
3237000000,-4.9446497,-158.41344
3238000000,-4.9474478,-158.40588
3239000000,-4.970232,-158.44409
3240000000,-4.9399714,-158.64868
3241000000,-4.9701133,-158.90976
3242000000,-4.9371929,-158.67952
3243000000,-4.9728475,-158.98016
3244000000,-4.9818316,-158.5988
3245000000,-4.971333,-158.85526
3246000000,-5.0179338,-158.61499
3247000000,-4.9828248,-158.85561
3248000000,-5.0147252,-159.02669
3249000000,-4.9979544,-158.96248
3250000000,-5.0032425,-159.05573
3251000000,-4.9830718,-159.23299
3252000000,-5.0146651,-159.1431
3253000000,-5.0271339,-159.38527
3254000000,-5.0265002,-159.27911
3255000000,-5.04181,-159.203
3256000000,-5.0726671,-159.24548
3257000000,-5.0355773,-159.56773
3258000000,-5.0586152,-159.62924
3259000000,-5.0578361,-159.5061
3260000000,-5.0563202,-159.79567
3261000000,-5.0421276,-159.78343
3262000000,-4.9915648,-159.63457
3263000000,-5.0826759,-159.69736
3264000000,-5.0706358,-159.66399
3265000000,-5.037034,-159.92734
3266000000,-5.0998206,-159.96898
3267000000,-5.0743642,-159.9623
3268000000,-5.0586476,-159.8652
3269000000,-5.0684333,-159.925
3270000000,-5.0580258,-160.02782
3271000000,-5.0820303,-160.05438
3272000000,-5.0867567,-160.06212
3273000000,-5.0627241,-160.43387
3274000000,-5.0960083,-160.19774
3275000000,-5.0887609,-160.28015
3276000000,-5.0862498,-160.44458
3277000000,-5.1025133,-160.45415
3278000000,-5.0814943,-160.4677
3279000000,-5.1553769,-160.50096
3280000000,-5.1163578,-160.70558
3281000000,-5.102695,-160.71332
3282000000,-5.1089115,-160.92734
3283000000,-5.1257453,-160.6403
3284000000,-5.1293988,-160.69713
3285000000,-5.1535101,-160.72261
3286000000,-5.1367526,-160.849
3287000000,-5.1296177,-160.88916
3288000000,-5.1453028,-161.14825
3289000000,-5.13798,-161.11285
3290000000,-5.151875,-161.25018
3291000000,-5.1295557,-161.32266
3292000000,-5.1504469,-161.01231
3293000000,-5.1570134,-161.25722
3294000000,-5.1540074,-161.34305
3295000000,-5.1636982,-161.21536
3296000000,-5.1720514,-161.32977
3297000000,-5.1513419,-161.47128
3298000000,-5.1803594,-161.70967
3299000000,-5.1993656,-161.67503
3300000000,-5.1935468,-161.89194
3301000000,-5.2056227,-161.55359
3302000000,-5.1794276,-161.653
3303000000,-5.1904716,-161.85362
3304000000,-5.2170982,-161.97987
3305000000,-5.2166014,-161.72203
3306000000,-5.1927648,-162.02066
3307000000,-5.2112551,-162.04413
3308000000,-5.2044277,-161.91971
3309000000,-5.2118473,-161.92505
3310000000,-5.216763,-162.17229
3311000000,-5.2539082,-162.10095
3312000000,-5.2463074,-162.50377
3313000000,-5.2258906,-162.38445
3314000000,-5.25003,-162.24397
3315000000,-5.2401071,-162.38922
3316000000,-5.2189975,-162.19272
3317000000,-5.2434011,-162.50032
3318000000,-5.2379999,-162.68198
3319000000,-5.2752519,-162.62848
3320000000,-5.2708173,-162.42641
3321000000,-5.2561698,-162.60933
3322000000,-5.2668605,-162.76942
3323000000,-5.2902908,-162.59705
3324000000,-5.261868,-162.86099
3325000000,-5.2592587,-162.92055
3326000000,-5.2783861,-162.94859
3327000000,-5.2584577,-163.09767
3328000000,-5.293829,-162.98856
3329000000,-5.2791166,-162.98901
3330000000,-5.258709,-163.06044
3331000000,-5.289114,-163.28938
3332000000,-5.2959976,-163.17455
3333000000,-5.2891555,-163.34952
3334000000,-5.3480759,-163.32256
3335000000,-5.3431716,-163.35109
3336000000,-5.3307395,-163.37572
3337000000,-5.3188105,-163.56146
3338000000,-5.3251476,-163.50966
3339000000,-5.3463573,-163.72781
3340000000,-5.3358426,-163.55544
3341000000,-5.3298426,-163.52519
3342000000,-5.2987676,-163.6485
3343000000,-5.3336225,-163.60648
3344000000,-5.3477297,-163.93712
3345000000,-5.3504438,-163.8987
3346000000,-5.3547511,-163.88353
3347000000,-5.3763261,-163.79965
3348000000,-5.3579211,-163.94948
3349000000,-5.3716326,-164.01659
3350000000,-5.3586125,-164.21925
3351000000,-5.3577542,-164.03482
3352000000,-5.3350925,-164.40475
3353000000,-5.3622818,-164.15247
3354000000,-5.3423276,-163.99539
3355000000,-5.3961363,-164.41542
3356000000,-5.3708596,-164.28072
3357000000,-5.3978705,-164.19279
3358000000,-5.3936019,-164.30186
3359000000,-5.4183888,-164.42093
3360000000,-5.4065576,-164.56534
3361000000,-5.3976598,-164.53059
3362000000,-5.3879952,-164.80739
3363000000,-5.4441648,-164.80772
3364000000,-5.4098382,-164.57857
3365000000,-5.4256692,-164.94742
3366000000,-5.4227185,-164.80438
3367000000,-5.425632,-164.88788
3368000000,-5.4260211,-164.79727
3369000000,-5.4494724,-164.91551
3370000000,-5.4406333,-165.06149
3371000000,-5.4399667,-165.07149
3372000000,-5.430831,-165.05208
3373000000,-5.426764,-165.0927
3374000000,-5.4608049,-165.23572
3375000000,-5.4572892,-165.24492
3376000000,-5.4827709,-165.39465
3377000000,-5.4882541,-165.29277
3378000000,-5.4631553,-165.21458
3379000000,-5.4736948,-165.30841
3380000000,-5.4832234,-165.52991
3381000000,-5.5051832,-165.38023
3382000000,-5.4947453,-165.69325
3383000000,-5.4816728,-165.72273
3384000000,-5.4819851,-165.73523
3385000000,-5.4690175,-165.6545
3386000000,-5.5284534,-165.96985
3387000000,-5.495162,-165.9334
3388000000,-5.5160675,-165.91231
3389000000,-5.4929285,-165.92917
3390000000,-5.5148187,-165.90662
3391000000,-5.4964972,-166.17465
3392000000,-5.506175,-165.97139
3393000000,-5.5041289,-165.89301
3394000000,-5.5166907,-166.01575
3395000000,-5.5279169,-166.10805
3396000000,-5.5105414,-166.26865
3397000000,-5.5467687,-166.30614
3398000000,-5.5631471,-166.34094
3399000000,-5.5412827,-166.3161
3400000000,-5.5316362,-166.58171
3401000000,-5.5428009,-166.55241
3402000000,-5.5546279,-166.52826
3403000000,-5.5720077,-166.5862
3404000000,-5.6020665,-166.54413
3405000000,-5.5660539,-166.77786
3406000000,-5.5419941,-166.62187
3407000000,-5.5681648,-166.77919
3408000000,-5.5518208,-166.55441
3409000000,-5.6005363,-166.91524
3410000000,-5.5854168,-166.79088
3411000000,-5.5897417,-166.8956
3412000000,-5.5735011,-166.95988
3413000000,-5.5998898,-167.04182
3414000000,-5.6197028,-167.05527
3415000000,-5.6136646,-166.9621
3416000000,-5.6209326,-167.26218
3417000000,-5.6104379,-167.22379
3418000000,-5.6121893,-167.41614
3419000000,-5.6252632,-167.30472
3420000000,-5.6169477,-167.42889
3421000000,-5.6512604,-167.25117
3422000000,-5.6048794,-167.45781
3423000000,-5.6219454,-167.56461
3424000000,-5.6406984,-167.61388
3425000000,-5.6380157,-167.51584
3426000000,-5.6540294,-167.75533
3427000000,-5.6420279,-167.88615
3428000000,-5.636579,-167.68135
3429000000,-5.6483183,-167.83643
3430000000,-5.6411333,-167.87669
3431000000,-5.6438355,-167.795
3432000000,-5.6688895,-167.80484
3433000000,-5.6397576,-167.95033
3434000000,-5.6503429,-168.08615
3435000000,-5.6528802,-168.16196
3436000000,-5.6865492,-168.11945
3437000000,-5.6877599,-168.02
3438000000,-5.7028627,-168.24281
3439000000,-5.678412,-168.17322
3440000000,-5.6903586,-168.29823
3441000000,-5.7044382,-168.16507
3442000000,-5.6734014,-168.25902
3443000000,-5.7091599,-168.37451
3444000000,-5.7179642,-168.42467
3445000000,-5.7216277,-168.43079
3446000000,-5.7084022,-168.60942
3447000000,-5.7176437,-168.54955
3448000000,-5.7038546,-168.59839
3449000000,-5.7116175,-168.53023
3450000000,-5.7170601,-169.01233
3451000000,-5.7532396,-168.68538
3452000000,-5.7325487,-168.77054
3453000000,-5.7171941,-168.93777
3454000000,-5.7395487,-168.94836
3455000000,-5.7415957,-168.92303
3456000000,-5.757719,-168.96085
3457000000,-5.7479568,-168.9763
3458000000,-5.7682943,-169.29306
3459000000,-5.7823668,-169.08774
3460000000,-5.7349043,-169.12193
3461000000,-5.7951655,-169.11313
3462000000,-5.7855463,-169.26955
3463000000,-5.7601933,-169.37492
3464000000,-5.7820601,-169.35722
3465000000,-5.7934809,-169.27522
3466000000,-5.8037548,-169.34624
3467000000,-5.7743425,-169.37537
3468000000,-5.769155,-169.42477
3469000000,-5.8000469,-169.51804
3470000000,-5.8044519,-169.68254
3471000000,-5.7922702,-169.78056
3472000000,-5.7860999,-169.63634
3473000000,-5.7949057,-169.82312
3474000000,-5.8307762,-169.75818
3475000000,-5.8205175,-169.84708
3476000000,-5.8170667,-169.9241
3477000000,-5.7900219,-169.92126
3478000000,-5.8452435,-170.10321
3479000000,-5.7933874,-169.87877
3480000000,-5.8414273,-170.10451
3481000000,-5.8196187,-170.17807
3482000000,-5.8413401,-170.13445
3483000000,-5.8503208,-170.23114
3484000000,-5.8302746,-170.10408
3485000000,-5.8288546,-170.17049
3486000000,-5.8493423,-170.36571
3487000000,-5.8889198,-170.3589
3488000000,-5.8494391,-170.31358
3489000000,-5.9110441,-170.49036
3490000000,-5.8524637,-170.57649
3491000000,-5.8641458,-170.67969
3492000000,-5.8733397,-170.61931
3493000000,-5.8686771,-170.5567
3494000000,-5.8875141,-170.66048
3495000000,-5.9033322,-170.7614
3496000000,-5.878458,-170.62737
3497000000,-5.9258752,-170.84138
3498000000,-5.8708425,-170.89851
3499000000,-5.8880253,-170.95422
3500000000,-5.89327,-170.88278
3501000000,-5.9347353,-170.90231
3502000000,-5.9340363,-171.0352
3503000000,-5.919373,-171.00233
3504000000,-5.9326329,-171.06192
3505000000,-5.9321342,-171.09482
3506000000,-5.9101419,-171.16992
3507000000,-5.9146414,-171.29105
3508000000,-5.9215107,-171.26234
3509000000,-5.9276586,-171.28401
3510000000,-5.915813,-171.40631
3511000000,-5.9595323,-171.3224
3512000000,-5.9508109,-171.39101
3513000000,-5.9533701,-171.48763
3514000000,-5.9602771,-171.7065
3515000000,-5.9749451,-171.56654
3516000000,-5.9791493,-171.80597
3517000000,-5.9373546,-171.54358
3518000000,-5.9366279,-171.70963
3519000000,-5.9962649,-171.72954
3520000000,-6.0028529,-171.80524
3521000000,-5.9552236,-171.96318
3522000000,-5.9866657,-171.97585
3523000000,-5.991024,-171.9165
3524000000,-5.9679193,-171.87036
3525000000,-6.022191,-171.97549
3526000000,-6.0092649,-172.02997
3527000000,-6.0088162,-172.00769
3528000000,-5.9962249,-172.18056
3529000000,-6.0016289,-172.18739
3530000000,-6.0147023,-172.14526
3531000000,-6.0252433,-172.21635
3532000000,-6.0343776,-172.14096
3533000000,-6.0245128,-172.25055
3534000000,-6.0151377,-172.52759
3535000000,-6.0387006,-172.40271
3536000000,-6.0510893,-172.43254
3537000000,-6.0173106,-172.32477
3538000000,-6.0216022,-172.57982
3539000000,-6.0574231,-172.63197
3540000000,-6.0603499,-172.63603
3541000000,-6.0469022,-172.79602
3542000000,-6.0272417,-172.72951
3543000000,-6.0695634,-172.66734
3544000000,-6.0624256,-172.67972
3545000000,-6.0519471,-172.83031
3546000000,-6.0497422,-172.87482
3547000000,-6.0860748,-172.90662
3548000000,-6.0807953,-172.98834
3549000000,-6.0645542,-173.10071
3550000000,-6.0708055,-173.0031
3551000000,-6.0929279,-173.03722
3552000000,-6.0773578,-172.87209
3553000000,-6.1049933,-173.12518
3554000000,-6.0881653,-173.12068
3555000000,-6.1084666,-173.29092
3556000000,-6.1355019,-173.25304
3557000000,-6.1161799,-173.37366
3558000000,-6.1117215,-173.24422
3559000000,-6.0874825,-173.30574
3560000000,-6.1112866,-173.34096
3561000000,-6.1026268,-173.549
3562000000,-6.1492743,-173.64545
3563000000,-6.1258035,-173.6165
3564000000,-6.1283841,-173.50671
3565000000,-6.1071739,-173.63858
3566000000,-6.1217299,-173.4225
3567000000,-6.1404295,-173.73911
3568000000,-6.1848412,-173.85139
3569000000,-6.1532955,-173.59157
3570000000,-6.1600189,-173.70113
3571000000,-6.1730103,-174.0553
3572000000,-6.1781983,-173.58029
3573000000,-6.1612563,-173.87048
3574000000,-6.1559715,-173.88205
3575000000,-6.1386485,-174.00694
3576000000,-6.1812553,-173.88501
3577000000,-6.2027063,-174.14377
3578000000,-6.1915479,-174.24966
3579000000,-6.2015457,-174.3468
3580000000,-6.1724014,-174.08292
3581000000,-6.1886978,-174.25327
3582000000,-6.2017326,-174.27959
3583000000,-6.2162499,-174.20961
3584000000,-6.2189822,-174.12656
3585000000,-6.2135525,-174.36111
3586000000,-6.2150831,-174.58913
3587000000,-6.1879854,-174.39532
3588000000,-6.2037344,-174.48418
3589000000,-6.2092094,-174.38438
3590000000,-6.2486835,-174.80055
3591000000,-6.2368097,-174.67294
3592000000,-6.2467256,-174.65167
3593000000,-6.2237396,-174.61833
3594000000,-6.235815,-174.86159
3595000000,-6.2202754,-174.92477
3596000000,-6.2518697,-174.87453
3597000000,-6.2638173,-175.02744
3598000000,-6.2897196,-174.93607
3599000000,-6.2602725,-174.92287
3600000000,-6.2402081,-174.81381
3601000000,-6.2683816,-174.90172
3602000000,-6.2421036,-175.14864
3603000000,-6.3127265,-175.20697
3604000000,-6.2511911,-175.33261
3605000000,-6.259016,-175.24751
3606000000,-6.2703075,-175.21625
3607000000,-6.2661953,-175.33028
3608000000,-6.267909,-175.18127
3609000000,-6.2650919,-175.31027
3610000000,-6.3031487,-175.36679
3611000000,-6.2775874,-175.45575
3612000000,-6.3172183,-175.45021
3613000000,-6.2854924,-175.72002
3614000000,-6.3043613,-175.56314
3615000000,-6.3251228,-175.69669
3616000000,-6.2975407,-175.3662
3617000000,-6.3221741,-175.64435
3618000000,-6.3216491,-175.79138
3619000000,-6.290215,-175.77451
3620000000,-6.3234839,-175.85307
3621000000,-6.3225245,-175.8396
3622000000,-6.3561058,-175.97884
3623000000,-6.331069,-176.11212
3624000000,-6.339324,-175.81935
3625000000,-6.3409047,-175.97516
3626000000,-6.3456025,-176.13832
3627000000,-6.3462057,-175.97531
3628000000,-6.3463964,-175.9111
3629000000,-6.3385038,-176.04594
3630000000,-6.3777986,-176.17723
3631000000,-6.3411708,-176.15385
3632000000,-6.3554564,-176.27359
3633000000,-6.3735461,-176.43307
3634000000,-6.3804483,-176.44324
3635000000,-6.3801932,-176.40685
3636000000,-6.3971519,-176.49901
3637000000,-6.3958068,-176.44217
3638000000,-6.4028215,-176.53754
3639000000,-6.3771286,-176.59416
3640000000,-6.3870673,-176.59651
3641000000,-6.3857102,-176.72916
3642000000,-6.4105477,-176.4144
3643000000,-6.413044,-176.6819
3644000000,-6.4072862,-176.59082
3645000000,-6.4344707,-176.74252
3646000000,-6.4497075,-176.85985
3647000000,-6.444097,-176.79671
3648000000,-6.4097095,-177.03282
3649000000,-6.4204607,-177.12355
3650000000,-6.4041677,-177.03461
3651000000,-6.4637365,-176.90921
3652000000,-6.431251,-177.02255
3653000000,-6.4155149,-177.09666
3654000000,-6.4571447,-177.06339
3655000000,-6.4482546,-177.12814
3656000000,-6.4333653,-176.95515
3657000000,-6.4606709,-177.25145
3658000000,-6.457387,-177.32019
3659000000,-6.4526033,-177.30223
3660000000,-6.453629,-177.42499
3661000000,-6.497685,-177.37769
3662000000,-6.4711175,-177.42932
3663000000,-6.474041,-177.46001
3664000000,-6.4805689,-177.38199
3665000000,-6.4897327,-177.34492
3666000000,-6.4850798,-177.48071
3667000000,-6.5227814,-177.58432
3668000000,-6.5004702,-177.73212
3669000000,-6.5066557,-177.60411
3670000000,-6.5070381,-177.49962
3671000000,-6.4757295,-177.80789
3672000000,-6.5214148,-177.63835
3673000000,-6.5044179,-178.03644
3674000000,-6.4943805,-177.95465
3675000000,-6.5053744,-177.99095
3676000000,-6.5259233,-177.82344
3677000000,-6.5336218,-177.85611
3678000000,-6.532196,-177.92499
3679000000,-6.5069737,-178.12224
3680000000,-6.5598273,-178.07712
3681000000,-6.5397062,-177.98518
3682000000,-6.5286493,-178.13985
3683000000,-6.5396609,-178.03172
3684000000,-6.5695071,-178.02428
3685000000,-6.5713921,-178.24557
3686000000,-6.5515399,-178.55511
3687000000,-6.5765796,-178.37694
3688000000,-6.5641432,-178.24507
3689000000,-6.5363832,-178.36072
3690000000,-6.5380611,-178.37411
3691000000,-6.5596595,-178.44238
3692000000,-6.5870552,-178.50302
3693000000,-6.584744,-178.55705
3694000000,-6.5558314,-178.61592
3695000000,-6.6187491,-178.7352
3696000000,-6.5853672,-178.67754
3697000000,-6.5989981,-178.66991
3698000000,-6.6028814,-178.7262
3699000000,-6.6070004,-178.71579
3700000000,-6.6151137,-178.79364
3701000000,-6.6176062,-178.83336
3702000000,-6.6289563,-178.96533
3703000000,-6.6306224,-178.90346
3704000000,-6.6454453,-178.99205
3705000000,-6.6378284,-178.97435
3706000000,-6.6341972,-178.91806
3707000000,-6.6301265,-179.08221
3708000000,-6.6294565,-179.03471
3709000000,-6.6135049,-179.0764
3710000000,-6.6519642,-178.9937
3711000000,-6.6359644,-179.10205
3712000000,-6.6455135,-179.17036
3713000000,-6.6546421,-179.13789
3714000000,-6.6531711,-179.16191
3715000000,-6.6497941,-179.41951
3716000000,-6.6755562,-179.42181
3717000000,-6.6562157,-179.52963
3718000000,-6.6536183,-179.25714
3719000000,-6.6519346,-179.34834
3720000000,-6.6892056,-179.51712
3721000000,-6.6724944,-179.61237
3722000000,-6.6667652,-179.4958
3723000000,-6.6828451,-179.65271
3724000000,-6.6723986,-179.60461
3725000000,-6.6860919,-179.71356
3726000000,-6.6956058,-179.73053
3727000000,-6.7089958,-179.66692
3728000000,-6.700314,-179.88925
3729000000,-6.6949267,-179.85286
3730000000,-6.6821699,-179.8867
3731000000,-6.7219529,-179.78531
3732000000,-6.752913,-179.86713
3733000000,-6.7133188,-179.92532
3734000000,-6.7346416,-179.9068
3735000000,-6.7423167,-179.79839
3736000000,-6.760128,-180.10197
3737000000,-6.7575064,-180.23004
3738000000,-6.755796,-180.1602
3739000000,-6.7342453,-180.04716
3740000000,-6.7611513,-180.06537
3741000000,-6.7417936,-180.14983
3742000000,-6.7404141,-180.20972
3743000000,-6.747622,-180.49205
3744000000,-6.775949,-180.25182
3745000000,-6.7640533,-180.38522
3746000000,-6.7591558,-180.36232
3747000000,-6.7726784,-180.52568
3748000000,-6.7698526,-180.54776
3749000000,-6.7770271,-180.49776
3750000000,-6.7749829,-180.55077
3751000000,-6.7858243,-180.33704
3752000000,-6.7862124,-180.64655
3753000000,-6.7727218,-180.67491
3754000000,-6.8104558,-180.49854
3755000000,-6.8089304,-180.78891
3756000000,-6.8044386,-180.82809
3757000000,-6.7752695,-180.68567
3758000000,-6.830442,-180.88373
3759000000,-6.7932854,-180.77013
3760000000,-6.8323445,-180.88351
3761000000,-6.8479018,-180.85033
3762000000,-6.8460016,-181.09882
3763000000,-6.839479,-180.87395
3764000000,-6.8300271,-180.97284
3765000000,-6.8245797,-180.98596
3766000000,-6.8275571,-181.09149
3767000000,-6.8175373,-181.05283
3768000000,-6.8376188,-181.17288
3769000000,-6.8367133,-181.25931
3770000000,-6.8331428,-181.27328
3771000000,-6.8632646,-181.08832
3772000000,-6.8630233,-181.32274
3773000000,-6.8792648,-181.17087
3774000000,-6.8795738,-181.30101
3775000000,-6.883554,-181.43507
3776000000,-6.8662796,-181.57195
3777000000,-6.8599515,-181.48785
3778000000,-6.898644,-181.59215
3779000000,-6.9033713,-181.49892
3780000000,-6.8795557,-181.45538
3781000000,-6.8800211,-181.85541
3782000000,-6.8916278,-181.52586
3783000000,-6.9182324,-181.59091
3784000000,-6.9084268,-181.49814
3785000000,-6.8921185,-181.7475
3786000000,-6.8993235,-181.6644
3787000000,-6.9113855,-181.74998
3788000000,-6.9202366,-181.79521
3789000000,-6.8810196,-181.79128
3790000000,-6.9334607,-181.74464
3791000000,-6.9261141,-181.89456
3792000000,-6.9251642,-182.04645
3793000000,-6.9135327,-181.72701
3794000000,-6.9375949,-181.87271
3795000000,-6.9527345,-181.92305
3796000000,-6.9525175,-182.24036
3797000000,-6.938427,-182.00064
3798000000,-6.9245982,-182.01761
3799000000,-6.9404745,-182.11662
3800000000,-6.9538937,-182.14023
3801000000,-6.9426789,-182.1483
3802000000,-6.9621239,-182.17815
3803000000,-6.9587307,-182.084
3804000000,-6.9393253,-182.29555
3805000000,-6.9786191,-182.12816
3806000000,-6.9879441,-182.33122
3807000000,-7.0030403,-182.17625
3808000000,-6.9751334,-182.3524
3809000000,-6.9861507,-182.41762
3810000000,-6.9753971,-182.45898
3811000000,-6.9821587,-182.3885
3812000000,-6.9926343,-182.49907
3813000000,-7.0065289,-182.52377
3814000000,-6.9736743,-182.67831
3815000000,-6.9798017,-182.31586
3816000000,-6.987287,-182.69368
3817000000,-6.9950714,-182.74863
3818000000,-7.0156698,-182.54199
3819000000,-6.9979296,-182.61464
3820000000,-7.008491,-182.62454
3821000000,-6.996254,-182.80058
3822000000,-7.0048161,-182.67793
3823000000,-7.039742,-182.66336
3824000000,-7.0500755,-182.97798
3825000000,-7.0367994,-182.89803
3826000000,-7.0499897,-182.92436
3827000000,-7.0315361,-182.97198
3828000000,-7.0534234,-182.92096
3829000000,-7.0451145,-183.02309
3830000000,-7.0470114,-183.08469
3831000000,-7.0616455,-183.09592
3832000000,-7.0526347,-182.95378
3833000000,-7.0598259,-182.96623
3834000000,-7.0423899,-182.98508
3835000000,-7.0605516,-183.15489
3836000000,-7.0789862,-183.10834
3837000000,-7.0556049,-183.26443
3838000000,-7.0856886,-183.18843
3839000000,-7.0923052,-183.3027
3840000000,-7.0826912,-183.34726
3841000000,-7.0870662,-183.50227
3842000000,-7.0986261,-183.25464
3843000000,-7.0763583,-183.38063
3844000000,-7.0934148,-183.28613
3845000000,-7.1044965,-183.56763
3846000000,-7.0976348,-183.52448
3847000000,-7.0993886,-183.5213
3848000000,-7.1075182,-183.38568
3849000000,-7.1013045,-183.73814
3850000000,-7.1381407,-183.55254
3851000000,-7.1280961,-183.5649
3852000000,-7.1075039,-183.71214
3853000000,-7.1219983,-183.778
3854000000,-7.1601396,-183.74388
3855000000,-7.0982757,-183.65422
3856000000,-7.1691136,-183.65007
3857000000,-7.1512003,-183.69279
3858000000,-7.1358514,-183.77795
3859000000,-7.1660666,-183.91301
3860000000,-7.1443634,-183.72929
3861000000,-7.1583724,-184.00447
3862000000,-7.1569991,-183.92769
3863000000,-7.1349707,-183.97331
3864000000,-7.1516194,-183.98459
3865000000,-7.1679072,-184.17516
3866000000,-7.149436,-184.1673
3867000000,-7.1882496,-183.86966
3868000000,-7.1801138,-184.10548
3869000000,-7.1856017,-184.35753
3870000000,-7.1680679,-183.9951
3871000000,-7.1804466,-184.1713
3872000000,-7.183672,-183.97864
3873000000,-7.1699514,-184.15312
3874000000,-7.1912122,-184.14874
3875000000,-7.197237,-184.2059
3876000000,-7.1797013,-184.28737
3877000000,-7.1882591,-184.09793
3878000000,-7.2211614,-184.37128
3879000000,-7.2220945,-184.3838
3880000000,-7.2224245,-184.35648
3881000000,-7.225863,-184.52579
3882000000,-7.2183933,-184.28265
3883000000,-7.2256866,-184.48337
3884000000,-7.2295313,-184.35938
3885000000,-7.2050252,-184.50824
3886000000,-7.234035,-184.64175
3887000000,-7.2518883,-184.51961
3888000000,-7.2081928,-184.56339
3889000000,-7.2379069,-184.77028
3890000000,-7.2325058,-184.41089
3891000000,-7.2368569,-184.71002
3892000000,-7.2506557,-184.77338
3893000000,-7.2449741,-184.83855
3894000000,-7.2075849,-184.62813
3895000000,-7.280899,-184.78638
3896000000,-7.251143,-184.78073
3897000000,-7.2659488,-184.8625
3898000000,-7.2471161,-184.75293
3899000000,-7.2422624,-185.00528
3900000000,-7.2859387,-184.95323
3901000000,-7.2844663,-185.00328
3902000000,-7.2870088,-184.82809
3903000000,-7.2697368,-185.15224
3904000000,-7.276742,-185.01956
3905000000,-7.271225,-185.14247
3906000000,-7.300662,-185.0314
3907000000,-7.3094306,-184.95753
3908000000,-7.3000922,-185.17123
3909000000,-7.3154292,-185.0264
3910000000,-7.2854543,-185.07162
3911000000,-7.3034973,-185.10168
3912000000,-7.2867584,-185.23779
3913000000,-7.3146091,-185.21138
3914000000,-7.3063273,-185.29839
3915000000,-7.3095965,-185.35272
3916000000,-7.3261271,-185.25677
3917000000,-7.3283472,-185.39626
3918000000,-7.3110232,-185.21765
3919000000,-7.3405132,-185.36868
3920000000,-7.3232765,-185.50401
3921000000,-7.314157,-185.5545
3922000000,-7.3194065,-185.31938
3923000000,-7.3387442,-185.37645
3924000000,-7.351738,-185.3394
3925000000,-7.3686686,-185.29037
3926000000,-7.3339372,-185.66307
3927000000,-7.321444,-185.62827
3928000000,-7.3323593,-185.45937
3929000000,-7.3471322,-185.69975
3930000000,-7.3643556,-185.77888
3931000000,-7.35888,-185.49464
3932000000,-7.3537798,-185.77495
3933000000,-7.3342252,-185.66551
3934000000,-7.3539209,-185.87067
3935000000,-7.3679824,-185.614
3936000000,-7.3649998,-185.81001
3937000000,-7.3623867,-185.83101
3938000000,-7.3726082,-185.98303
3939000000,-7.4124179,-185.88091
3940000000,-7.3997951,-186.12878
3941000000,-7.3863006,-185.83687
3942000000,-7.3797326,-185.75346
3943000000,-7.4260745,-185.90567
3944000000,-7.4032168,-185.98634
3945000000,-7.4106855,-186.07582
3946000000,-7.4084263,-186.1391
3947000000,-7.4001889,-185.82721
3948000000,-7.4025989,-186.04068
3949000000,-7.396244,-186.157
3950000000,-7.4024892,-186.21574
3951000000,-7.4033241,-186.12126
3952000000,-7.4154263,-186.04108
3953000000,-7.4004545,-186.16182
3954000000,-7.4364266,-186.23529
3955000000,-7.4239974,-186.11319
3956000000,-7.4220786,-186.25491
3957000000,-7.4267793,-186.2477
3958000000,-7.4300671,-186.37402
3959000000,-7.411911,-186.41505
3960000000,-7.4469237,-186.23492
3961000000,-7.44239,-186.34087
3962000000,-7.461092,-186.44853
3963000000,-7.4353924,-186.47893
3964000000,-7.4401011,-186.36035
3965000000,-7.4430227,-186.34512
3966000000,-7.4553113,-186.42276
3967000000,-7.4530649,-186.36742
3968000000,-7.4904289,-186.64857
3969000000,-7.452898,-186.34842
3970000000,-7.4741812,-186.48793
3971000000,-7.4603682,-186.56351
3972000000,-7.495748,-186.5209
3973000000,-7.475945,-186.65712
3974000000,-7.4581304,-186.60059
3975000000,-7.4731956,-186.63933
3976000000,-7.4677005,-186.60004
3977000000,-7.4905519,-186.84135
3978000000,-7.4766145,-186.67572
3979000000,-7.4964528,-186.70547
3980000000,-7.4943743,-186.79738
3981000000,-7.5228682,-186.89087
3982000000,-7.5067739,-186.74664
3983000000,-7.4822783,-186.74889
3984000000,-7.4976597,-186.75026
3985000000,-7.4895678,-186.97083
3986000000,-7.5137792,-186.9028
3987000000,-7.4908924,-187.05844
3988000000,-7.5218768,-186.86005
3989000000,-7.4972305,-186.87222
3990000000,-7.4998221,-186.91904
3991000000,-7.5370917,-186.93755
3992000000,-7.5056086,-187.1129
3993000000,-7.521666,-187.13177
3994000000,-7.5181499,-187.08113
3995000000,-7.5153885,-186.9243
3996000000,-7.5283866,-187.28674
3997000000,-7.5227771,-187.22621
3998000000,-7.5513182,-187.21997
3999000000,-7.5504689,-187.18277
4000000000,-7.5303025,-187.48106
4001000000,-7.5064259,-187.27158
4002000000,-7.5505991,-187.26334
4003000000,-7.5509448,-187.10173
4004000000,-7.5521674,-187.16237
4005000000,-7.5441642,-187.28201
4006000000,-7.5592728,-187.23288
4007000000,-7.5709162,-187.34363
4008000000,-7.5529222,-187.16182
4009000000,-7.5775075,-187.23915
4010000000,-7.5676374,-187.32735
4011000000,-7.5563698,-187.3096
4012000000,-7.5775585,-187.26982
4013000000,-7.5448046,-187.42003
4014000000,-7.5839567,-187.24516
4015000000,-7.6026497,-187.60913
4016000000,-7.6043997,-187.5087
4017000000,-7.5808654,-187.50812
4018000000,-7.6040692,-187.34187
4019000000,-7.5925469,-187.73671
4020000000,-7.5875816,-187.41794
4021000000,-7.5847287,-187.57065
4022000000,-7.5748324,-187.61867
4023000000,-7.5966768,-187.66537
4024000000,-7.5971851,-187.5461
4025000000,-7.5934639,-187.62787
4026000000,-7.5724292,-187.78729
4027000000,-7.59479,-187.73213
4028000000,-7.6198764,-187.66504
4029000000,-7.6026278,-187.59128
4030000000,-7.5938129,-187.79794
4031000000,-7.6073546,-187.84418
4032000000,-7.5908775,-187.87167
4033000000,-7.6352873,-187.75031
4034000000,-7.5946174,-187.89677
4035000000,-7.6148009,-187.91095
4036000000,-7.6223264,-187.90359
4037000000,-7.6269822,-187.80237
4038000000,-7.6071396,-188.01991
4039000000,-7.6223402,-188.09355
4040000000,-7.6201754,-187.9549
4041000000,-7.6393795,-188.15573
4042000000,-7.632771,-188.1268
4043000000,-7.63941,-187.99045
4044000000,-7.6625023,-188.01012
4045000000,-7.6236687,-188.08049
4046000000,-7.653615,-187.89264
4047000000,-7.6399183,-188.01591
4048000000,-7.6495337,-188.08922
4049000000,-7.6398315,-188.05603
4050000000,-7.6469798,-187.98674
4051000000,-7.6507082,-188.05421
4052000000,-7.6561413,-188.34689
4053000000,-7.6576443,-188.12343
4054000000,-7.6560493,-188.24681
4055000000,-7.6549659,-188.25342
4056000000,-7.6707897,-188.40048
4057000000,-7.6384439,-188.33092
4058000000,-7.6714678,-188.2422
4059000000,-7.6700702,-188.20903
4060000000,-7.6941352,-188.28909
4061000000,-7.6829596,-188.418
4062000000,-7.6716385,-188.24094
4063000000,-7.6920323,-188.32721
4064000000,-7.6600256,-188.368
4065000000,-7.6741095,-188.41029
4066000000,-7.6899452,-188.29936
4067000000,-7.6481986,-188.49774
4068000000,-7.6756754,-188.37648
4069000000,-7.7262082,-188.62915
4070000000,-7.6690583,-188.40829
4071000000,-7.7060442,-188.56042
4072000000,-7.6871457,-188.39009
4073000000,-7.6976233,-188.5632
4074000000,-7.6857824,-188.59323
4075000000,-7.7007241,-188.39801
4076000000,-7.7227268,-188.62582
4077000000,-7.7119751,-188.52005
4078000000,-7.7166834,-188.75139
4079000000,-7.7131262,-188.56306
4080000000,-7.7031412,-188.70415
4081000000,-7.6809602,-188.55609
4082000000,-7.7406816,-188.88989
4083000000,-7.7068415,-188.8084
4084000000,-7.7207384,-188.84488
4085000000,-7.7179737,-188.83658
4086000000,-7.7295995,-188.69293
4087000000,-7.7317195,-188.75363
4088000000,-7.7334051,-188.92473
4089000000,-7.7565017,-188.56049
4090000000,-7.7433186,-188.94582
4091000000,-7.6990409,-188.84894
4092000000,-7.7418704,-188.72148
4093000000,-7.7417579,-188.85934
4094000000,-7.7630358,-189.00226
4095000000,-7.7470536,-188.96837
4096000000,-7.7369351,-188.8669
4097000000,-7.7371907,-188.99947
4098000000,-7.766346,-188.93416
4099000000,-7.7522039,-189.23203
4100000000,-7.761045,-188.97005
4101000000,-7.7583299,-189.04164
4102000000,-7.7744002,-189.00084
4103000000,-7.7611341,-189.03204
4104000000,-7.7464523,-189.16592
4105000000,-7.7701325,-189.12419
4106000000,-7.7629151,-188.95863
4107000000,-7.7707019,-189.04607
4108000000,-7.7692218,-189.02834
4109000000,-7.7662315,-189.00725
4110000000,-7.7441931,-188.98581
4111000000,-7.7537155,-189.10176
4112000000,-7.7651067,-189.02521
4113000000,-7.7792401,-189.19182
4114000000,-7.7554278,-189.16086
4115000000,-7.7834058,-189.09369
4116000000,-7.7577844,-189.11548
4117000000,-7.7694211,-189.358
4118000000,-7.7820024,-189.38118
4119000000,-7.7688737,-189.23814
4120000000,-7.763886,-189.10242
4121000000,-7.7792101,-189.43132
4122000000,-7.7587914,-189.42816
4123000000,-7.784039,-189.44702
4124000000,-7.7584391,-189.39378
4125000000,-7.7938333,-189.29034
4126000000,-7.7676382,-189.49649
4127000000,-7.7870293,-189.40858
4128000000,-7.7953229,-189.43037
4129000000,-7.7770748,-189.45541
4130000000,-7.769206,-189.50171
4131000000,-7.7767611,-189.39807
4132000000,-7.782618,-189.69495
4133000000,-7.7923698,-189.65572
4134000000,-7.7617908,-189.64639
4135000000,-7.7976961,-189.27324
4136000000,-7.7856936,-189.50665
4137000000,-7.7880187,-189.53914
4138000000,-7.787168,-189.53189
4139000000,-7.8073406,-189.42613
4140000000,-7.8168592,-189.62642
4141000000,-7.7740622,-189.5587
4142000000,-7.8276262,-189.65755
4143000000,-7.7997775,-189.6758
4144000000,-7.8060126,-189.71889
4145000000,-7.7814517,-189.95302
4146000000,-7.8041968,-189.74677
4147000000,-7.7971587,-189.83842
4148000000,-7.8004975,-189.76538
4149000000,-7.804328,-189.59196
4150000000,-7.812479,-189.71851
4151000000,-7.7996721,-189.78787
4152000000,-7.8184505,-189.76086
4153000000,-7.8147988,-189.86668
4154000000,-7.8335404,-189.8999
4155000000,-7.8134327,-189.71069
4156000000,-7.7974572,-189.75851
4157000000,-7.8025784,-189.76434
4158000000,-7.8500271,-189.91963
4159000000,-7.8174047,-189.95122
4160000000,-7.8320146,-189.94435
4161000000,-7.8290162,-189.80844
4162000000,-7.8349671,-189.77972
4163000000,-7.8226852,-189.91486
4164000000,-7.8208456,-189.86172
4165000000,-7.7991285,-189.77072
4166000000,-7.8186107,-190.05876
4167000000,-7.7911777,-190.12352
4168000000,-7.8425717,-189.97972
4169000000,-7.8287735,-189.97812
4170000000,-7.8257957,-190.16484
4171000000,-7.8151441,-189.89227
4172000000,-7.8070898,-190.11165
4173000000,-7.8402634,-190.12433
4174000000,-7.8007536,-190.01419
4175000000,-7.852191,-190.07593
4176000000,-7.8328152,-190.09645
4177000000,-7.8138351,-190.21909
4178000000,-7.8142629,-190.07959
4179000000,-7.8138623,-190.26445
4180000000,-7.8241992,-190.10555
4181000000,-7.8106184,-190.27196
4182000000,-7.8088994,-190.11798
4183000000,-7.8336573,-189.98723
4184000000,-7.8574772,-190.32359
4185000000,-7.8147821,-190.11586
4186000000,-7.8281479,-190.15685
4187000000,-7.8597326,-190.34473
4188000000,-7.8152227,-190.3866
4189000000,-7.8279753,-190.25626
4190000000,-7.8279295,-190.32329
4191000000,-7.8195267,-190.32774
4192000000,-7.8377967,-190.35286
4193000000,-7.8248711,-190.19434
4194000000,-7.8350253,-190.31221
4195000000,-7.8289366,-190.342
4196000000,-7.8358598,-190.28336
4197000000,-7.8460507,-190.39268
4198000000,-7.8535061,-190.33896
4199000000,-7.8367443,-190.43515
4200000000,-7.8426099,-190.31242
4201000000,-7.8446989,-190.52339
4202000000,-7.826889,-190.33904
4203000000,-7.8467073,-190.30586
4204000000,-7.8505306,-190.57561
4205000000,-7.8363934,-190.66992
4206000000,-7.836834,-190.46571
4207000000,-7.8448544,-190.56577
4208000000,-7.8536663,-190.47868
4209000000,-7.8290119,-190.63336
4210000000,-7.8496094,-190.48456
4211000000,-7.8295493,-190.55534
4212000000,-7.8302007,-190.65218
4213000000,-7.8670516,-190.55316
4214000000,-7.8513083,-190.58334
4215000000,-7.8417487,-190.64847
4216000000,-7.8662987,-190.71802
4217000000,-7.8401861,-190.62997
4218000000,-7.8238921,-190.56268
4219000000,-7.84061,-190.67444
4220000000,-7.8442154,-190.75848
4221000000,-7.8221297,-190.66138
4222000000,-7.827805,-190.7532
4223000000,-7.8232503,-190.93872
4224000000,-7.843174,-190.78325
4225000000,-7.8449335,-190.82353
4226000000,-7.8491926,-190.8299
4227000000,-7.8452063,-190.65784
4228000000,-7.8534799,-190.69209
4229000000,-7.8532491,-190.88181
4230000000,-7.833416,-190.63539
4231000000,-7.8843179,-190.87204
4232000000,-7.8072176,-190.73441
4233000000,-7.8349319,-190.95279
4234000000,-7.8582387,-190.99254
4235000000,-7.8492265,-191.00049
4236000000,-7.8512836,-190.74612
4237000000,-7.8650641,-190.86848
4238000000,-7.8654075,-190.7655
4239000000,-7.8416905,-191.05789
4240000000,-7.8384695,-190.74117
4241000000,-7.8535032,-190.99281
4242000000,-7.8485923,-190.99248
4243000000,-7.8607693,-190.85641
4244000000,-7.8691549,-191.0619
4245000000,-7.8547006,-190.96109
4246000000,-7.8308091,-191.03568
4247000000,-7.8504415,-190.95985
4248000000,-7.8492384,-191.00429
4249000000,-7.8064976,-190.9296
4250000000,-7.8494468,-191.02969
4251000000,-7.818079,-191.1716
4252000000,-7.8413048,-191.09647
4253000000,-7.8548875,-191.10864
4254000000,-7.8253675,-191.15019
4255000000,-7.8536391,-190.92207
4256000000,-7.8269019,-191.11581
4257000000,-7.8464575,-191.19354
4258000000,-7.8448148,-191.08498
4259000000,-7.8437619,-191.18878
4260000000,-7.8355303,-191.33815
4261000000,-7.830915,-191.20293
4262000000,-7.8275623,-191.1635
4263000000,-7.8125181,-191.20222
4264000000,-7.8274107,-191.25305
4265000000,-7.8397946,-191.16855
4266000000,-7.8407936,-191.16856
4267000000,-7.8367248,-191.18274
4268000000,-7.8559833,-191.32681
4269000000,-7.8308334,-191.31549
4270000000,-7.8432693,-191.38879
4271000000,-7.8349624,-191.42969
4272000000,-7.8517156,-191.44023
4273000000,-7.8228354,-191.67896
4274000000,-7.8640428,-191.13567
4275000000,-7.8406057,-191.39258
4276000000,-7.8244944,-191.40695
4277000000,-7.8502221,-191.57523
4278000000,-7.8374376,-191.37454
4279000000,-7.8198981,-191.5388
4280000000,-7.8291979,-191.54427
4281000000,-7.8269429,-191.29782
4282000000,-7.8282218,-191.51865
4283000000,-7.8333826,-191.66307
4284000000,-7.8189301,-191.63043
4285000000,-7.817102,-191.51703
4286000000,-7.8299317,-191.55182
4287000000,-7.8447566,-191.57242
4288000000,-7.8207483,-191.50424
4289000000,-7.838377,-191.52754
4290000000,-7.8265529,-191.57677
4291000000,-7.8080568,-191.606
4292000000,-7.8205447,-191.62349
4293000000,-7.8255329,-191.58533
4294000000,-7.8196974,-191.56667
4295000000,-7.8015242,-191.60786
4296000000,-7.8225842,-191.60823
4297000000,-7.8385844,-191.83127
4298000000,-7.822854,-191.73637
4299000000,-7.8268104,-191.82158
4300000000,-7.8187609,-191.56697
4301000000,-7.8305302,-191.64284
4302000000,-7.8298926,-191.83031
4303000000,-7.8036103,-191.57593
4304000000,-7.8174133,-191.91792
4305000000,-7.8253937,-191.71283
4306000000,-7.8148627,-191.88516
4307000000,-7.8281455,-191.72519
4308000000,-7.8097997,-191.94627
4309000000,-7.7870941,-191.81075
4310000000,-7.8076196,-191.80101
4311000000,-7.8258452,-191.88181
4312000000,-7.8148923,-191.76332
4313000000,-7.825222,-191.85152
4314000000,-7.8055735,-192.03746
4315000000,-7.805757,-192.07103
4316000000,-7.8093095,-191.8858
4317000000,-7.7831411,-192.03477
4318000000,-7.7888236,-191.93663
4319000000,-7.7935991,-192.08755
4320000000,-7.7840595,-191.82544
4321000000,-7.7654037,-191.9733
4322000000,-7.806283,-192.17035
4323000000,-7.781332,-191.99854
4324000000,-7.793756,-192.17711
4325000000,-7.7932806,-191.88194
4326000000,-7.7873859,-191.88318
4327000000,-7.7749753,-192.00229
4328000000,-7.7957125,-192.10638
4329000000,-7.8107257,-192.27177
4330000000,-7.8036847,-192.03252
4331000000,-7.7868552,-192.16452
4332000000,-7.7862649,-192.34612
4333000000,-7.7677035,-192.08139
4334000000,-7.7811918,-192.1805
4335000000,-7.7733488,-192.22134
4336000000,-7.8042412,-192.20964
4337000000,-7.7655144,-192.20685
4338000000,-7.7794528,-192.33197
4339000000,-7.7509003,-192.22958
4340000000,-7.7689309,-192.04703
4341000000,-7.7964492,-192.18201
4342000000,-7.7643695,-192.27403
4343000000,-7.7738118,-192.21706
4344000000,-7.7783937,-192.46555
4345000000,-7.7901869,-192.222
4346000000,-7.7706828,-192.41144
4347000000,-7.7589369,-192.32877
4348000000,-7.7779245,-192.55687
4349000000,-7.7458067,-192.48973
4350000000,-7.7741318,-192.29785
4351000000,-7.754446,-192.3309
4352000000,-7.7942252,-192.50378
4353000000,-7.7368116,-192.39972
4354000000,-7.7386312,-192.4209
4355000000,-7.7566676,-192.54044
4356000000,-7.7451639,-192.69711
4357000000,-7.7530265,-192.5031
4358000000,-7.7679987,-192.53137
4359000000,-7.7565703,-192.52827
4360000000,-7.7539182,-192.42923
4361000000,-7.7468486,-192.58981
4362000000,-7.7296677,-192.52318
4363000000,-7.7393117,-192.5388
4364000000,-7.7484021,-192.53702
4365000000,-7.7661619,-192.58801
4366000000,-7.7142873,-192.73109
4367000000,-7.741209,-192.62094
4368000000,-7.7373114,-192.62064
4369000000,-7.7448249,-192.72906
4370000000,-7.7505455,-192.83795
4371000000,-7.7432423,-192.7813
4372000000,-7.7246213,-192.80061
4373000000,-7.7361374,-193.01314
4374000000,-7.7176833,-192.48506
4375000000,-7.7302885,-192.81609
4376000000,-7.71738,-192.75487
4377000000,-7.7277126,-192.79314
4378000000,-7.7366042,-192.62688
4379000000,-7.7065563,-192.82553
4380000000,-7.7147374,-192.87405
4381000000,-7.7180619,-193.02199
4382000000,-7.6996822,-192.81815
4383000000,-7.6801825,-192.92708
4384000000,-7.6971798,-192.8642
4385000000,-7.6778316,-193.01686
4386000000,-7.7069545,-192.82608
4387000000,-7.7266197,-192.90515
4388000000,-7.731534,-192.94212
4389000000,-7.7122703,-192.93832
4390000000,-7.6920156,-193.05542
4391000000,-7.7001591,-192.92436
4392000000,-7.6815052,-193.05971
4393000000,-7.6689491,-192.96049
4394000000,-7.6737304,-193.1676
4395000000,-7.693316,-193.18381
4396000000,-7.686336,-192.97804
4397000000,-7.6677432,-193.11685
4398000000,-7.6669288,-193.11053
4399000000,-7.6715589,-193.13753
4400000000,-7.6766458,-192.97021
4401000000,-7.679482,-193.1337
4402000000,-7.6619797,-192.9826
4403000000,-7.6681347,-193.15266
4404000000,-7.6628733,-193.15958
4405000000,-7.6641417,-193.19287
4406000000,-7.660902,-193.38144
4407000000,-7.649159,-193.29845
4408000000,-7.6733022,-193.41161
4409000000,-7.6521411,-193.28218
4410000000,-7.6469378,-193.23065
4411000000,-7.6429563,-193.35655
4412000000,-7.6476688,-193.37259
4413000000,-7.628479,-193.41205
4414000000,-7.6548734,-193.68451
4415000000,-7.6363959,-193.32719
4416000000,-7.6409712,-193.31021
4417000000,-7.6293049,-193.27499
4418000000,-7.6105266,-193.50853
4419000000,-7.6472306,-193.39987
4420000000,-7.6109209,-193.67963
4421000000,-7.6443963,-193.4366
4422000000,-7.6312656,-193.39043
4423000000,-7.6302533,-193.45265
4424000000,-7.6072555,-193.66182
4425000000,-7.6114659,-193.69829
4426000000,-7.6073656,-193.60178
4427000000,-7.6300693,-193.60172
4428000000,-7.6370006,-193.6071
4429000000,-7.6017647,-193.75496
4430000000,-7.6011586,-193.76201
4431000000,-7.5995097,-193.61938
4432000000,-7.612524,-193.70665
4433000000,-7.5738196,-193.68761
4434000000,-7.5922241,-193.58902
4435000000,-7.5715828,-193.86443
4436000000,-7.5877657,-193.64751
4437000000,-7.5935521,-193.71484
4438000000,-7.5958652,-193.7299
4439000000,-7.5908027,-193.67915
4440000000,-7.5702281,-193.69815
4441000000,-7.5821548,-193.97266
4442000000,-7.617105,-193.83168
4443000000,-7.5794048,-193.78259
4444000000,-7.5840402,-193.87408
4445000000,-7.5515218,-193.93883
4446000000,-7.5788131,-194.05211
4447000000,-7.5719671,-193.83026
4448000000,-7.5559425,-193.91441
4449000000,-7.581399,-194.01982
4450000000,-7.5350561,-194.16467
4451000000,-7.5673475,-193.92831
4452000000,-7.5473757,-194.0799
4453000000,-7.5594664,-193.98225
4454000000,-7.5297446,-194.13489
4455000000,-7.547884,-194.07413
4456000000,-7.5353703,-193.98128
4457000000,-7.5312076,-193.96053
4458000000,-7.5406547,-194.12952
4459000000,-7.5343809,-194.32426
4460000000,-7.5079379,-194.07245
4461000000,-7.5249758,-194.07967
4462000000,-7.5171361,-194.12538
4463000000,-7.515409,-194.07112
4464000000,-7.5157647,-194.41084
4465000000,-7.5243115,-194.21609
4466000000,-7.5261922,-194.27905
4467000000,-7.5212765,-194.33733
4468000000,-7.5236306,-194.50002
4469000000,-7.4793096,-194.29305
4470000000,-7.517282,-194.28578
4471000000,-7.4930387,-194.40097
4472000000,-7.5311837,-194.31859
4473000000,-7.4872026,-194.27753
4474000000,-7.4997249,-194.545
4475000000,-7.4889545,-194.5524
4476000000,-7.4831638,-194.4693
4477000000,-7.498529,-194.4399
4478000000,-7.4921808,-194.48914
4479000000,-7.4845862,-194.38889
4480000000,-7.4948053,-194.61484
4481000000,-7.4799147,-194.51161
4482000000,-7.4772749,-194.65483
4483000000,-7.4747581,-194.54971
4484000000,-7.4543519,-194.53307
4485000000,-7.4763188,-194.74524
4486000000,-7.4770875,-194.73877
4487000000,-7.4490066,-194.83574
4488000000,-7.4718204,-194.61502
4489000000,-7.4502234,-194.96539
4490000000,-7.4317284,-194.74937
4491000000,-7.4123902,-194.97118
4492000000,-7.436553,-194.90688
4493000000,-7.4471087,-194.98746
4494000000,-7.4446635,-194.77377
4495000000,-7.4390607,-194.77399
4496000000,-7.4278226,-194.98386
4497000000,-7.4420757,-194.88696
4498000000,-7.4334884,-194.90244
4499000000,-7.4216247,-194.88475
4500000000,-7.4073958,-194.98448
4501000000,-7.4017053,-194.9879
4502000000,-7.3987827,-195.04529
4503000000,-7.414681,-195.04338
4504000000,-7.406878,-194.9342
4505000000,-7.3977237,-194.97047
4506000000,-7.4128489,-195.21495
4507000000,-7.420711,-195.23761
4508000000,-7.395927,-195.11882
4509000000,-7.3804903,-195.06688
4510000000,-7.3558235,-195.15839
4511000000,-7.4193192,-195.28397
4512000000,-7.383399,-195.28395
4513000000,-7.3626418,-195.25081
4514000000,-7.3766556,-195.44116
4515000000,-7.3967085,-195.36896
4516000000,-7.3385849,-195.53969
4517000000,-7.3407607,-195.50484
4518000000,-7.363451,-195.34969
4519000000,-7.3663101,-195.32918
4520000000,-7.3584523,-195.51631
4521000000,-7.3460183,-195.34758
4522000000,-7.3404264,-195.41405
4523000000,-7.3425198,-195.49382
4524000000,-7.3567176,-195.49249
4525000000,-7.3418736,-195.39896
4526000000,-7.3683891,-195.48737
4527000000,-7.3391867,-195.65634
4528000000,-7.3693175,-195.62637
4529000000,-7.337337,-195.71661
4530000000,-7.308352,-195.58504
4531000000,-7.3283615,-195.67439
4532000000,-7.3404937,-195.61786
4533000000,-7.3111553,-195.66949
4534000000,-7.3023944,-195.88907
4535000000,-7.3055329,-195.71812
4536000000,-7.2923861,-195.67328
4537000000,-7.320919,-195.81044
4538000000,-7.2929707,-195.95233
4539000000,-7.2989693,-195.7755
4540000000,-7.2822242,-195.8869
4541000000,-7.3006043,-195.9093
4542000000,-7.2994809,-195.87782
4543000000,-7.2777781,-195.98642
4544000000,-7.2698526,-195.91858
4545000000,-7.2784057,-195.97069
4546000000,-7.2802858,-196.08595
4547000000,-7.2623353,-196.0518
4548000000,-7.2655916,-195.94537
4549000000,-7.2740512,-196.22423
4550000000,-7.2451482,-196.17456
4551000000,-7.2469196,-196.20953
4552000000,-7.2557015,-196.06876
4553000000,-7.2445569,-196.10735
4554000000,-7.2548862,-196.17729
4555000000,-7.2244582,-196.25497
4556000000,-7.242712,-196.27139
4557000000,-7.2197132,-196.34003
4558000000,-7.2092862,-196.37627
4559000000,-7.2220163,-196.30481
4560000000,-7.2233348,-196.37132
4561000000,-7.2239752,-196.3766
4562000000,-7.2159448,-196.5742
4563000000,-7.213285,-196.47101
4564000000,-7.2013507,-196.42117
4565000000,-7.195159,-196.37422
4566000000,-7.2047529,-196.54961
4567000000,-7.2145796,-196.67216
4568000000,-7.1768675,-196.52621
4569000000,-7.2184443,-196.64899
4570000000,-7.1991653,-196.60849
4571000000,-7.1630721,-196.6954
4572000000,-7.1845207,-196.7263
4573000000,-7.1841264,-196.7728
4574000000,-7.1598649,-196.55028
4575000000,-7.1825194,-196.66425
4576000000,-7.1644244,-196.59291
4577000000,-7.1828799,-196.86497
4578000000,-7.1499634,-196.80791
4579000000,-7.1652441,-196.78807
4580000000,-7.1503854,-196.96242
4581000000,-7.1590924,-197.0645
4582000000,-7.1526079,-196.96568
4583000000,-7.1444545,-196.90388
4584000000,-7.1430836,-197.00591
4585000000,-7.1388884,-196.98679
4586000000,-7.1577301,-197.21059
4587000000,-7.125741,-197.1116
4588000000,-7.1153173,-197.07944
4589000000,-7.1235857,-197.03287
4590000000,-7.1300588,-197.23349
4591000000,-7.12708,-197.02525
4592000000,-7.1333246,-197.23036
4593000000,-7.1258593,-197.31012
4594000000,-7.109261,-197.27446
4595000000,-7.1005616,-197.16718
4596000000,-7.0832372,-197.23773
4597000000,-7.1161308,-197.25703
4598000000,-7.0729251,-197.41089
4599000000,-7.0912538,-197.40904
4600000000,-7.076376,-197.46974
4601000000,-7.0954499,-197.55714
4602000000,-7.0706487,-197.34941
4603000000,-7.0722966,-197.46216
4604000000,-7.0793076,-197.40025
4605000000,-7.0430012,-197.53366
4606000000,-7.0704269,-197.66806
4607000000,-7.0489388,-197.45499
4608000000,-7.0820765,-197.48318
4609000000,-7.0581589,-197.59862
4610000000,-7.0349689,-197.56816
4611000000,-7.0709124,-197.71219
4612000000,-7.0464458,-197.65919
4613000000,-7.0573692,-197.78462
4614000000,-7.032793,-197.74319
4615000000,-7.0399566,-197.75856
4616000000,-7.0115399,-197.73627
4617000000,-7.0156975,-197.80734
4618000000,-7.0304837,-197.84709
4619000000,-7.012599,-198.05643
4620000000,-7.0311637,-198.01103
4621000000,-7.0305138,-198.02078
4622000000,-6.998651,-198.14487
4623000000,-6.9920878,-197.95587
4624000000,-7.0076766,-198.00438
4625000000,-7.0165358,-198.1006
4626000000,-6.9888391,-198.20161
4627000000,-6.9939814,-198.39252
4628000000,-6.9525113,-198.23573
4629000000,-6.995297,-198.35776
4630000000,-6.9706364,-198.321
4631000000,-6.9769635,-198.28656
4632000000,-6.9768367,-198.41963
4633000000,-6.9709325,-198.46623
4634000000,-6.954175,-198.33865
4635000000,-6.9515204,-198.45322
4636000000,-6.9667983,-198.34126
4637000000,-6.9359646,-198.59804
4638000000,-6.9579344,-198.58446
4639000000,-6.9362345,-198.46597
4640000000,-6.9305134,-198.58002
4641000000,-6.9149895,-198.45636
4642000000,-6.9351153,-198.58185
4643000000,-6.9116054,-198.68549
4644000000,-6.9366002,-198.80975
4645000000,-6.9181104,-198.61337
4646000000,-6.9243646,-198.88654
4647000000,-6.9180088,-198.75507
4648000000,-6.8763185,-198.88109
4649000000,-6.9122362,-198.61685
4650000000,-6.8737926,-198.81319
4651000000,-6.9104257,-198.78593
4652000000,-6.9101005,-199.05592
4653000000,-6.8889585,-198.91457
4654000000,-6.8910508,-198.9682
4655000000,-6.8864117,-199.04678
4656000000,-6.8683367,-199.32582
4657000000,-6.8949676,-199.12938
4658000000,-6.8750148,-199.01518
4659000000,-6.8607283,-199.16811
4660000000,-6.8727322,-199.21515
4661000000,-6.8607759,-199.03755
4662000000,-6.8488269,-199.42293
4663000000,-6.8460317,-199.37582
4664000000,-6.8728695,-199.37344
4665000000,-6.8334823,-199.64212
4666000000,-6.8427725,-199.37897
4667000000,-6.8507571,-199.3246
4668000000,-6.8333888,-199.4528
4669000000,-6.8530092,-199.37086
4670000000,-6.8531289,-199.38695
4671000000,-6.8380098,-199.74995
4672000000,-6.8723235,-199.62671
4673000000,-6.7899327,-199.56947
4674000000,-6.8089156,-199.62128
4675000000,-6.8019948,-199.58028
4676000000,-6.8239069,-199.83292
4677000000,-6.7986302,-199.65872
4678000000,-6.7763095,-199.68294
4679000000,-6.8154707,-199.72737
4680000000,-6.8022957,-199.93341
4681000000,-6.7760501,-199.78441
4682000000,-6.769134,-200.01961
4683000000,-6.7796965,-199.86839
4684000000,-6.7675328,-199.85828
4685000000,-6.7659607,-200.02309
4686000000,-6.7705379,-199.99306
4687000000,-6.7502837,-199.96254
4688000000,-6.775393,-199.92204
4689000000,-6.7581563,-199.95436
4690000000,-6.7513289,-200.08296
4691000000,-6.7503457,-200.15758
4692000000,-6.75348,-199.98894
4693000000,-6.744864,-200.09868
4694000000,-6.7076917,-200.29221
4695000000,-6.7286534,-200.2959
4696000000,-6.7238569,-200.58882
4697000000,-6.7605357,-200.4724
4698000000,-6.7202024,-200.40297
4699000000,-6.7258492,-200.46721
4700000000,-6.7340441,-200.48294
4701000000,-6.7111673,-200.29527
4702000000,-6.7251191,-200.46207
4703000000,-6.7044873,-200.48781
4704000000,-6.6956611,-200.64363
4705000000,-6.7117352,-200.62669
4706000000,-6.7034869,-200.79944
4707000000,-6.6781983,-200.73854
4708000000,-6.6944261,-200.71002
4709000000,-6.6621852,-200.8468
4710000000,-6.6340818,-200.76201
4711000000,-6.6806965,-200.75555
4712000000,-6.6814399,-200.89955
4713000000,-6.6847787,-200.9969
4714000000,-6.6804523,-201.00745
4715000000,-6.6798615,-200.96318
4716000000,-6.6372447,-201.03003
4717000000,-6.6679068,-201.05588
4718000000,-6.6511383,-201.07593
4719000000,-6.6646652,-201.16275
4720000000,-6.6515779,-201.20654
4721000000,-6.623446,-201.18431
4722000000,-6.6353211,-201.25327
4723000000,-6.6152382,-201.24953
4724000000,-6.6051989,-201.12225
4725000000,-6.588336,-201.32181
4726000000,-6.6124516,-201.46053
4727000000,-6.6034751,-201.52742
4728000000,-6.6189489,-201.51828
4729000000,-6.6133308,-201.36266
4730000000,-6.5961957,-201.49571
4731000000,-6.6007619,-201.61191
4732000000,-6.6123023,-201.49054
4733000000,-6.5956116,-201.42531
4734000000,-6.5975618,-201.57925
4735000000,-6.5653677,-201.6606
4736000000,-6.5885415,-201.57533
4737000000,-6.5774207,-201.82851
4738000000,-6.5872278,-201.92957
4739000000,-6.5735373,-201.71913
4740000000,-6.5922956,-201.83267
4741000000,-6.5671239,-201.85443
4742000000,-6.5343084,-201.81676
4743000000,-6.5362911,-201.85452
4744000000,-6.5471425,-202.07379
4745000000,-6.5317006,-202.11777
4746000000,-6.5368476,-202.19505
4747000000,-6.530942,-202.15939
4748000000,-6.5362592,-202.25499
4749000000,-6.5139871,-202.22627
4750000000,-6.5424061,-202.30524
4751000000,-6.5157881,-202.29605
4752000000,-6.5055013,-202.19667
4753000000,-6.4987869,-202.39159
4754000000,-6.5063858,-202.44159
4755000000,-6.5144453,-202.43307
4756000000,-6.5067992,-202.3389
4757000000,-6.4888239,-202.40543
4758000000,-6.5015988,-202.44652
4759000000,-6.4583926,-202.44879
4760000000,-6.4621944,-202.39166
4761000000,-6.4907899,-202.53352
4762000000,-6.470253,-202.73662
4763000000,-6.4792581,-202.68001
4764000000,-6.4752831,-202.91722
4765000000,-6.4698238,-202.83383
4766000000,-6.4401083,-202.95753
4767000000,-6.4624419,-202.90096
4768000000,-6.432869,-202.97202
4769000000,-6.4574914,-203.08472
4770000000,-6.4400029,-202.99986
4771000000,-6.4501109,-202.92874
4772000000,-6.4173441,-203.26204
4773000000,-6.4388785,-203.09605
4774000000,-6.442832,-203.2151
4775000000,-6.4056263,-203.23662
4776000000,-6.4337316,-203.34369
4777000000,-6.4258223,-203.25703
4778000000,-6.4365458,-203.27925
4779000000,-6.4064326,-203.32472
4780000000,-6.4057493,-203.50943
4781000000,-6.4279184,-203.54269
4782000000,-6.3886395,-203.42661
4783000000,-6.3943124,-203.76291
4784000000,-6.3850689,-203.57367
4785000000,-6.3609838,-203.60847
4786000000,-6.3715653,-203.74994
4787000000,-6.3598566,-203.78891
4788000000,-6.3462648,-203.79248
4789000000,-6.3686461,-203.61604
4790000000,-6.3585715,-203.85483
4791000000,-6.3706036,-203.88422
4792000000,-6.3633628,-203.83003
4793000000,-6.34201,-203.85211
4794000000,-6.3506064,-203.90448
4795000000,-6.3524628,-204.02312
4796000000,-6.3796391,-204.05907
4797000000,-6.3300152,-204.13541
4798000000,-6.32126,-204.06929
4799000000,-6.3507757,-204.09995
4800000000,-6.3191323,-204.20142
4801000000,-6.3227301,-204.22012
4802000000,-6.3354487,-204.21947
4803000000,-6.3044367,-204.45515
4804000000,-6.2929859,-204.24245
4805000000,-6.2959747,-204.4131
4806000000,-6.3000174,-204.50648
4807000000,-6.2898316,-204.54788
4808000000,-6.2803645,-204.63815
4809000000,-6.3049612,-204.56912
4810000000,-6.2787442,-204.5809
4811000000,-6.3003283,-204.73636
4812000000,-6.2789135,-204.65968
4813000000,-6.2517152,-204.77832
4814000000,-6.2655621,-204.73135
4815000000,-6.2630033,-204.76019
4816000000,-6.2631993,-204.87086
4817000000,-6.2482839,-205.09258
4818000000,-6.2605033,-204.92368
4819000000,-6.2635665,-205.22762
4820000000,-6.2581282,-205.08081
4821000000,-6.240541,-205.15933
4822000000,-6.2213979,-205.27794
4823000000,-6.2027698,-205.13327
4824000000,-6.2574983,-205.13597
4825000000,-6.2343197,-205.16544
4826000000,-6.2218366,-205.40182
4827000000,-6.223598,-205.435
4828000000,-6.1869068,-205.42896
4829000000,-6.2032084,-205.58345
4830000000,-6.1874061,-205.33659
4831000000,-6.2127132,-205.83203
4832000000,-6.1656761,-205.42958
4833000000,-6.205389,-205.44276
4834000000,-6.1902866,-205.79895
4835000000,-6.1724663,-205.68861
4836000000,-6.1884036,-205.82568
4837000000,-6.1958365,-205.7816
4838000000,-6.1381807,-205.8488
4839000000,-6.189846,-206.01637
4840000000,-6.1716204,-205.88518
4841000000,-6.1688662,-206.1431
4842000000,-6.1647134,-205.98456
4843000000,-6.1633382,-206.01816
4844000000,-6.1355028,-206.19331
4845000000,-6.1478209,-206.23325
4846000000,-6.1551137,-206.35292
4847000000,-6.1517258,-206.26114
4848000000,-6.1427259,-206.27953
4849000000,-6.1279716,-206.31378
4850000000,-6.1304517,-206.46977
4851000000,-6.137043,-206.48288
4852000000,-6.1090894,-206.45032
4853000000,-6.1054912,-206.5092
4854000000,-6.096458,-206.46025
4855000000,-6.0886636,-206.58046
4856000000,-6.0979848,-206.83606
4857000000,-6.0918016,-206.74829
4858000000,-6.1093278,-206.95316
4859000000,-6.1124182,-206.9687
4860000000,-6.0923333,-206.55222
4861000000,-6.0859828,-206.85149
4862000000,-6.0760398,-206.97211
4863000000,-6.083149,-207.086
4864000000,-6.0840797,-206.91553
4865000000,-6.0930386,-207.08368
4866000000,-6.0758977,-207.11124
4867000000,-6.0862231,-207.18515
4868000000,-6.0697412,-207.22623
4869000000,-6.0564275,-207.30856
4870000000,-6.0840526,-207.33841
4871000000,-6.0665369,-207.31831
4872000000,-6.0599356,-207.29002
4873000000,-6.0509448,-207.63562
4874000000,-6.0723071,-207.56845
4875000000,-6.0663357,-207.51468
4876000000,-6.0279078,-207.51302
4877000000,-6.035852,-207.72328
4878000000,-6.0218449,-207.7253
4879000000,-6.0179429,-207.81532
4880000000,-6.0309763,-207.78989
4881000000,-6.025763,-207.80574
4882000000,-6.0482717,-207.85542
4883000000,-6.0284786,-207.88216
4884000000,-5.9918623,-208.00392
4885000000,-6.0301781,-208.03175
4886000000,-5.9945426,-208.15706
4887000000,-6.0098577,-208.18875
4888000000,-6.0070214,-208.35422
4889000000,-6.0111189,-208.24622
4890000000,-5.9906077,-208.24973
4891000000,-6.0029812,-208.31146
4892000000,-6.0013709,-208.23575
4893000000,-5.9827957,-208.50418
4894000000,-6.0031152,-208.48323
4895000000,-5.9863901,-208.51892
4896000000,-5.9760079,-208.61728
4897000000,-5.9848847,-208.73515
4898000000,-5.9734492,-208.60487
4899000000,-5.9743829,-208.61055
4900000000,-5.973392,-208.72459
4901000000,-5.9940052,-208.92876
4902000000,-5.9637418,-208.87083
4903000000,-5.9666953,-208.79808
4904000000,-5.9633064,-208.80826
4905000000,-5.9675293,-209.01071
4906000000,-5.9632311,-209.03908
4907000000,-5.9564123,-209.09753
4908000000,-5.9267435,-209.00426
4909000000,-5.9755602,-209.25432
4910000000,-5.940392,-209.33202
4911000000,-5.9487076,-209.30925
4912000000,-5.9061265,-209.36769
4913000000,-5.9282336,-209.35873
4914000000,-5.9435678,-209.58604
4915000000,-5.9317441,-209.50604
4916000000,-5.9473286,-209.65582
4917000000,-5.953382,-209.62881
4918000000,-5.9196687,-209.73294
4919000000,-5.914278,-209.62015
4920000000,-5.9135408,-209.83636
4921000000,-5.9341903,-209.76418
4922000000,-5.9318585,-209.78685
4923000000,-5.9162068,-209.9288
4924000000,-5.9007688,-209.95825
4925000000,-5.923398,-210.05226
4926000000,-5.9121428,-210.03749
4927000000,-5.9077578,-210.09134
4928000000,-5.9219751,-210.02541
4929000000,-5.8985357,-210.00232
4930000000,-5.9064622,-210.21318
4931000000,-5.8842144,-210.22455
4932000000,-5.8903537,-210.24622
4933000000,-5.8725944,-210.21716
4934000000,-5.8803377,-210.24081
4935000000,-5.8810124,-210.3026
4936000000,-5.8833518,-210.50993
4937000000,-5.8777323,-210.32678
4938000000,-5.878943,-210.49928
4939000000,-5.8607316,-210.47415
4940000000,-5.8767157,-210.77443
4941000000,-5.8791113,-210.51974
4942000000,-5.85707,-210.78334
4943000000,-5.8823347,-210.76253
4944000000,-5.8670592,-210.51717
4945000000,-5.8675685,-210.91707
4946000000,-5.8456488,-210.79163
4947000000,-5.8816204,-210.98038
4948000000,-5.8485589,-211.0085
4949000000,-5.8582096,-211.03558
4950000000,-5.8726902,-210.90952
4951000000,-5.8543239,-210.95627
4952000000,-5.8534956,-211.11716
4953000000,-5.8335733,-211.24553
4954000000,-5.8186302,-211.08365
4955000000,-5.8116856,-211.1188
4956000000,-5.8272262,-211.21912
4957000000,-5.8241582,-211.32066
4958000000,-5.8117032,-211.38361
4959000000,-5.8166819,-211.41295
4960000000,-5.8201313,-211.50191
4961000000,-5.8042951,-211.49992
4962000000,-5.8319125,-211.59355
4963000000,-5.8226085,-211.48752
4964000000,-5.7865162,-211.64484
4965000000,-5.8131385,-211.68114
4966000000,-5.7894421,-211.7067
4967000000,-5.7980514,-211.61482
4968000000,-5.7852759,-211.7339
4969000000,-5.7797441,-211.82477
4970000000,-5.7873321,-211.87804
4971000000,-5.8084984,-211.89224
4972000000,-5.7615657,-211.91959
4973000000,-5.8033047,-211.98204
4974000000,-5.7681279,-211.98805
4975000000,-5.7750607,-212.03049
4976000000,-5.7634974,-211.9679
4977000000,-5.7605405,-212.15361
4978000000,-5.7098227,-212.1165
4979000000,-5.7792754,-212.18242
4980000000,-5.7684817,-212.36113
4981000000,-5.7570081,-212.36044
4982000000,-5.7204623,-212.29402
4983000000,-5.7198892,-212.43396
4984000000,-5.7238035,-212.46674
4985000000,-5.737308,-212.47751
4986000000,-5.7156415,-212.60849
4987000000,-5.761817,-212.58047
4988000000,-5.7439508,-212.66212
4989000000,-5.728024,-212.85686
4990000000,-5.7126384,-212.85397
4991000000,-5.7267241,-212.70755
4992000000,-5.6988611,-212.96159
4993000000,-5.7037797,-212.73717
4994000000,-5.7254238,-212.95638
4995000000,-5.6917543,-213.0027
4996000000,-5.7009153,-212.95316
4997000000,-5.697134,-212.95425
4998000000,-5.6815834,-212.84099
4999000000,-5.7002225,-213.19728
5000000000,-5.6503425,-213.2715
END,,
