Freq(Hz),S21 Log Mag(dB),S21 Phase(°)
1000000000,-6.6587505,-56.740868
1001000000,-6.6586747,-56.791683
1002000000,-6.6772957,-56.595993
1003000000,-6.6877775,-56.600216
1004000000,-6.6508431,-56.801449
1005000000,-6.7049866,-56.844456
1006000000,-6.6969967,-57.017937
1007000000,-6.6861162,-57.129707
1008000000,-6.6711535,-56.937084
1009000000,-6.6822133,-56.986015
1010000000,-6.6613116,-57.140339
1011000000,-6.7137241,-57.234509
1012000000,-6.7069068,-57.02721
1013000000,-6.6780381,-57.393208
1014000000,-6.6776233,-57.39333
1015000000,-6.6805363,-57.607121
1016000000,-6.6858006,-57.216705
1017000000,-6.6931076,-57.476269
1018000000,-6.7197747,-57.715229
1019000000,-6.7078395,-57.718765
1020000000,-6.7033668,-57.724838
1021000000,-6.6684461,-57.879154
1022000000,-6.6892834,-57.703701
1023000000,-6.7011647,-57.968395
1024000000,-6.7230735,-58.108559
1025000000,-6.7251129,-57.958595
1026000000,-6.700182,-57.998314
1027000000,-6.6900005,-58.001617
1028000000,-6.7248039,-58.272339
1029000000,-6.7087603,-58.206913
1030000000,-6.7182236,-58.314838
1031000000,-6.7174993,-58.33485
1032000000,-6.7370343,-58.514595
1033000000,-6.723628,-58.36404
1034000000,-6.7206874,-58.589371
1035000000,-6.72539,-58.558933
1036000000,-6.7170734,-58.63591
1037000000,-6.7321281,-58.872623
1038000000,-6.7053709,-58.763424
1039000000,-6.725584,-58.812183
1040000000,-6.7297759,-58.865528
1041000000,-6.7594776,-59.004784
1042000000,-6.7588186,-59.009777
1043000000,-6.70998,-58.979565
1044000000,-6.7134886,-59.129631
1045000000,-6.7323942,-59.102112
1046000000,-6.7315826,-59.61034
1047000000,-6.7394118,-59.210419
1048000000,-6.7732787,-59.332462
1049000000,-6.7288218,-59.436184
1050000000,-6.732357,-59.361046
1051000000,-6.7480874,-59.463203
1052000000,-6.7235231,-59.559864
1053000000,-6.7599931,-59.738987
1054000000,-6.7400618,-59.687691
1055000000,-6.7350626,-59.719185
1056000000,-6.7550087,-59.786095
1057000000,-6.725708,-60.007938
1058000000,-6.7626691,-59.909542
1059000000,-6.7693815,-59.99078
1060000000,-6.7369533,-60.139668
1061000000,-6.7742391,-60.130383
1062000000,-6.7664461,-60.196316
1063000000,-6.7371235,-60.199356
1064000000,-6.7841721,-60.464348
1065000000,-6.742877,-60.548187
1066000000,-6.7729607,-60.53508
1067000000,-6.7466779,-60.58007
1068000000,-6.7192569,-60.608185
1069000000,-6.7759223,-60.53019
1070000000,-6.7506323,-60.730968
1071000000,-6.7608457,-60.721851
1072000000,-6.7481852,-60.797947
1073000000,-6.7876787,-60.789013
1074000000,-6.7540832,-60.830902
1075000000,-6.7931585,-61.229813
1076000000,-6.7925639,-61.05545
1077000000,-6.7872553,-61.278564
1078000000,-6.7570248,-61.075359
1079000000,-6.7951016,-61.239674
1080000000,-6.7719302,-61.308147
1081000000,-6.7981806,-61.335072
1082000000,-6.7872205,-61.490856
1083000000,-6.7806745,-61.638351
1084000000,-6.7781715,-61.340694
1085000000,-6.8085032,-61.729919
1086000000,-6.7965465,-61.976761
1087000000,-6.772316,-61.677517
1088000000,-6.791481,-61.663425
1089000000,-6.7846661,-61.827705
1090000000,-6.7711315,-62.04649
1091000000,-6.7691998,-62.06752
1092000000,-6.8029799,-62.037094
1093000000,-6.7588415,-62.111465
1094000000,-6.8219976,-62.256054
1095000000,-6.8038611,-62.28397
1096000000,-6.7945991,-62.378979
1097000000,-6.8052874,-62.258419
1098000000,-6.7782068,-62.448456
1099000000,-6.8475366,-62.558857
1100000000,-6.8124185,-62.520355
1101000000,-6.8388915,-62.669472
1102000000,-6.8118277,-62.669609
1103000000,-6.8178821,-62.749638
1104000000,-6.8172307,-62.840118
1105000000,-6.8131924,-62.867973
1106000000,-6.80404,-62.959064
1107000000,-6.8198829,-62.871223
1108000000,-6.8356972,-63.248863
1109000000,-6.7906895,-62.985996
1110000000,-6.8232102,-63.332588
1111000000,-6.8248525,-63.288269
1112000000,-6.8138862,-63.421688
1113000000,-6.840147,-63.317917
1114000000,-6.8546014,-63.466274
1115000000,-6.8230629,-63.391514
1116000000,-6.8487968,-63.66235
1117000000,-6.8164401,-63.600845
1118000000,-6.8122311,-63.750896
1119000000,-6.8358855,-63.675838
1120000000,-6.8352294,-63.744461
1121000000,-6.8513422,-63.999954
1122000000,-6.8670301,-64.054382
1123000000,-6.826344,-63.842823
1124000000,-6.8285923,-64.175064
1125000000,-6.8337073,-64.157684
1126000000,-6.8688827,-64.328171
1127000000,-6.882091,-64.290863
1128000000,-6.8616276,-64.447052
1129000000,-6.8797235,-64.40303
1130000000,-6.8843513,-64.373116
1131000000,-6.8753819,-64.501526
1132000000,-6.8925099,-64.441338
1133000000,-6.8582859,-64.790939
1134000000,-6.8318996,-64.613449
1135000000,-6.8732262,-64.567429
1136000000,-6.8880367,-64.758133
1137000000,-6.8841524,-64.964645
1138000000,-6.8701549,-64.950996
1139000000,-6.8944325,-64.925041
1140000000,-6.8793511,-65.036812
1141000000,-6.8978043,-65.111893
1142000000,-6.90099,-65.260147
1143000000,-6.8758383,-65.069946
1144000000,-6.8998652,-65.375237
1145000000,-6.890625,-65.335197
1146000000,-6.8758492,-65.232559
1147000000,-6.8566694,-65.451111
1148000000,-6.8989573,-65.512009
1149000000,-6.9112725,-65.580688
1150000000,-6.9103775,-65.668831
1151000000,-6.9283624,-65.56041
1152000000,-6.8871875,-65.747452
1153000000,-6.9233212,-65.594505
1154000000,-6.91219,-65.751312
1155000000,-6.9348483,-66.104401
1156000000,-6.8856316,-66.093361
1157000000,-6.9206266,-65.971466
1158000000,-6.9057288,-66.131439
1159000000,-6.9366012,-66.26226
1160000000,-6.9057064,-66.292473
1161000000,-6.9103975,-66.131317
1162000000,-6.9459276,-66.469398
1163000000,-6.956018,-66.550743
1164000000,-6.934381,-66.458725
1165000000,-6.9370732,-66.51226
1166000000,-6.9249353,-66.636925
1167000000,-6.9187503,-66.716072
1168000000,-6.9365826,-66.849541
1169000000,-6.9316792,-66.861275
1170000000,-6.909977,-66.67794
1171000000,-6.9276495,-67.093132
1172000000,-6.9397111,-66.8806
1173000000,-6.9371748,-67.017242
1174000000,-6.9895997,-66.734627
1175000000,-6.9358964,-67.171745
1176000000,-6.9348202,-67.031288
1177000000,-6.9797211,-67.387199
1178000000,-6.9373889,-67.270767
1179000000,-6.9486704,-67.356644
1180000000,-6.9244804,-67.596474
1181000000,-6.9387455,-67.528481
1182000000,-6.9412808,-67.70768
1183000000,-6.9464426,-67.638885
1184000000,-6.9874535,-67.481071
1185000000,-6.9548459,-67.686562
1186000000,-6.9618664,-67.657867
1187000000,-6.9605689,-67.829399
1188000000,-6.976614,-67.948914
1189000000,-6.9515047,-68.176826
1190000000,-6.9307642,-68.127228
1191000000,-6.9909406,-68.268524
1192000000,-6.9588118,-68.160255
1193000000,-6.9748983,-68.261841
1194000000,-6.9616852,-68.346764
1195000000,-6.98736,-68.461136
1196000000,-6.9784145,-68.556625
1197000000,-6.9769568,-68.576828
1198000000,-6.9859738,-68.73423
1199000000,-6.9708037,-68.525093
1200000000,-6.9893022,-68.741203
1201000000,-6.955646,-68.852867
1202000000,-7.0047131,-68.906563
1203000000,-7.0314465,-68.906784
1204000000,-7.0209308,-68.999893
1205000000,-7.0005302,-68.977432
1206000000,-6.9848137,-69.00988
1207000000,-6.9959726,-68.841507
1208000000,-7.0072894,-69.29808
1209000000,-6.9924016,-69.185875
1210000000,-7.0458422,-69.429245
1211000000,-7.0131011,-69.503845
1212000000,-6.9881587,-69.390381
1213000000,-6.9905758,-69.697113
1214000000,-6.9951138,-69.590271
1215000000,-7.019073,-69.6119
1216000000,-6.9954462,-69.783188
1217000000,-7.0186658,-69.807129
1218000000,-6.9959078,-69.959885
1219000000,-7.0075836,-69.739632
1220000000,-7.0229855,-69.840706
1221000000,-7.0053911,-70.124435
1222000000,-6.9967976,-69.994476
1223000000,-7.0330076,-70.262619
1224000000,-6.9899521,-69.957924
1225000000,-7.0240235,-70.138954
1226000000,-7.0387087,-70.26149
1227000000,-7.0494962,-70.490799
1228000000,-7.0613313,-70.48806
1229000000,-6.9969935,-70.540283
1230000000,-7.0304475,-70.668808
1231000000,-7.0311289,-70.826736
1232000000,-7.0553703,-70.661423
1233000000,-7.0307245,-70.739372
1234000000,-7.0837951,-70.870056
1235000000,-7.0107951,-70.931648
1236000000,-7.0652242,-70.843262
1237000000,-7.0331211,-70.973282
1238000000,-7.0661297,-70.93856
1239000000,-7.0739164,-71.181183
1240000000,-7.0568075,-71.283676
1241000000,-7.0638881,-71.303673
1242000000,-7.0362558,-71.342468
1243000000,-7.0800714,-71.472748
1244000000,-7.0779471,-71.499779
1245000000,-7.0898438,-71.626617
1246000000,-7.0565395,-71.818222
1247000000,-7.0655403,-71.825722
1248000000,-7.0634818,-71.802628
1249000000,-7.062542,-71.780586
1250000000,-7.1113925,-71.799538
1251000000,-7.0639701,-71.984299
1252000000,-7.0688243,-72.082474
1253000000,-7.095314,-72.109756
1254000000,-7.1137261,-72.159721
1255000000,-7.0890617,-72.297928
1256000000,-7.0863004,-72.333527
1257000000,-7.0763335,-72.371063
1258000000,-7.0715032,-72.518394
1259000000,-7.1096563,-72.547325
1260000000,-7.0994649,-72.357002
1261000000,-7.0998883,-72.484406
1262000000,-7.1165438,-72.547394
1263000000,-7.0811353,-72.773415
1264000000,-7.1229043,-72.81987
1265000000,-7.0948629,-72.859367
1266000000,-7.0836515,-72.943344
1267000000,-7.0839691,-72.999542
1268000000,-7.1038194,-73.142998
1269000000,-7.120204,-73.180305
1270000000,-7.1572618,-73.184486
1271000000,-7.1191015,-73.181549
1272000000,-7.1166315,-73.293907
1273000000,-7.1328664,-73.542984
1274000000,-7.1446362,-73.320534
1275000000,-7.1306334,-73.482346
1276000000,-7.1366162,-73.66748
1277000000,-7.1555715,-73.632713
1278000000,-7.1233654,-73.473984
1279000000,-7.139329,-73.763588
1280000000,-7.1347003,-73.855392
1281000000,-7.1615262,-73.869873
1282000000,-7.1689515,-73.885063
1283000000,-7.1414781,-74.15416
1284000000,-7.1317697,-74.061546
1285000000,-7.1703739,-74.062752
1286000000,-7.1513968,-74.102287
1287000000,-7.1381936,-74.266693
1288000000,-7.1313753,-74.163948
1289000000,-7.1712022,-74.377029
1290000000,-7.1456714,-74.568893
1291000000,-7.1337814,-74.48101
1292000000,-7.1792426,-74.706604
1293000000,-7.1669106,-74.616386
1294000000,-7.1597877,-74.594246
1295000000,-7.1550031,-74.742134
1296000000,-7.1877694,-74.579018
1297000000,-7.2050052,-74.923691
1298000000,-7.1763172,-75.164482
1299000000,-7.1681871,-74.860039
1300000000,-7.1793895,-75.172546
1301000000,-7.219492,-75.145065
1302000000,-7.1802325,-75.184464
1303000000,-7.1689501,-75.360893
1304000000,-7.1871243,-75.293663
1305000000,-7.1981792,-75.493759
1306000000,-7.1977673,-75.351593
1307000000,-7.1880617,-75.408646
1308000000,-7.2049594,-75.51561
1309000000,-7.1742215,-75.433693
1310000000,-7.1958551,-75.680519
1311000000,-7.1826763,-75.834892
1312000000,-7.202898,-75.716537
1313000000,-7.2032533,-75.860405
1314000000,-7.2181582,-76.126205
1315000000,-7.228416,-76.156555
1316000000,-7.218904,-76.053764
1317000000,-7.1874323,-76.020424
1318000000,-7.2121701,-76.285408
1319000000,-7.2328587,-76.270538
1320000000,-7.2206554,-76.50544
1321000000,-7.252646,-76.406738
1322000000,-7.2039356,-76.426788
1323000000,-7.2395473,-76.509613
1324000000,-7.2333231,-76.651123
1325000000,-7.2452831,-76.593239
1326000000,-7.2270231,-76.745895
1327000000,-7.2321362,-76.716049
1328000000,-7.2326503,-76.957321
1329000000,-7.2733188,-76.906097
1330000000,-7.2488894,-76.871887
1331000000,-7.2501922,-77.167938
1332000000,-7.2393188,-76.985138
1333000000,-7.2851872,-77.409492
1334000000,-7.2591772,-77.384537
1335000000,-7.2726645,-77.277298
1336000000,-7.2574887,-77.253906
1337000000,-7.2108164,-77.569046
1338000000,-7.2473888,-77.379189
1339000000,-7.2796221,-77.673706
1340000000,-7.2759857,-77.56028
1341000000,-7.2849202,-77.639587
1342000000,-7.2434564,-77.761971
1343000000,-7.2696991,-77.871521
1344000000,-7.2917542,-77.962517
1345000000,-7.2609377,-77.951706
1346000000,-7.2801061,-77.989433
1347000000,-7.2834492,-78.255478
1348000000,-7.2752481,-78.015266
1349000000,-7.2849693,-78.328377
1350000000,-7.2804766,-78.27195
1351000000,-7.2573805,-78.04261
1352000000,-7.2870855,-78.63298
1353000000,-7.2567911,-78.416039
1354000000,-7.3068924,-78.652855
1355000000,-7.3130989,-78.522385
1356000000,-7.3131404,-78.730568
1357000000,-7.3136244,-78.887405
1358000000,-7.3044281,-78.630165
1359000000,-7.2870421,-79.028641
1360000000,-7.294488,-79.058723
1361000000,-7.308949,-79.187279
1362000000,-7.3080912,-79.185509
1363000000,-7.3095446,-79.179382
1364000000,-7.330759,-79.158127
1365000000,-7.2976584,-79.362808
1366000000,-7.3067241,-79.323364
1367000000,-7.3160472,-79.425888
1368000000,-7.3366995,-79.592438
1369000000,-7.3104711,-79.5839
1370000000,-7.3569965,-79.614769
1371000000,-7.3429523,-79.726715
1372000000,-7.3321681,-79.909065
1373000000,-7.3292532,-79.928459
1374000000,-7.311646,-80.066635
1375000000,-7.3326411,-79.979347
1376000000,-7.3487039,-79.960976
1377000000,-7.3141141,-80.188492
1378000000,-7.3280945,-80.130089
1379000000,-7.3565683,-80.163544
1380000000,-7.3627782,-80.379509
1381000000,-7.3681889,-80.435028
1382000000,-7.3241224,-80.600113
1383000000,-7.3537917,-80.259293
1384000000,-7.3958402,-80.460197
1385000000,-7.3551369,-80.626312
1386000000,-7.3299828,-80.810738
1387000000,-7.3789973,-80.762642
1388000000,-7.400249,-80.85556
1389000000,-7.3765965,-81.073875
1390000000,-7.3598742,-80.89122
1391000000,-7.3919268,-80.917107
1392000000,-7.3968301,-81.201286
1393000000,-7.4003882,-81.193268
1394000000,-7.3699555,-81.156555
1395000000,-7.3801265,-81.142632
1396000000,-7.3981104,-81.411949
1397000000,-7.3959002,-81.365257
1398000000,-7.3676624,-81.573685
1399000000,-7.3749757,-81.460487
1400000000,-7.4080281,-81.787666
1401000000,-7.3764772,-81.868759
1402000000,-7.4185076,-81.659966
1403000000,-7.4143782,-81.944229
1404000000,-7.4051194,-81.947403
1405000000,-7.4162812,-82.102226
1406000000,-7.4082022,-82.218765
1407000000,-7.4182234,-82.201088
1408000000,-7.4048853,-82.153366
1409000000,-7.3897705,-82.093529
1410000000,-7.4223213,-82.374451
1411000000,-7.4215431,-82.573822
1412000000,-7.4192948,-82.552094
1413000000,-7.4107919,-82.48011
1414000000,-7.4267049,-82.585373
1415000000,-7.4226022,-82.712715
1416000000,-7.4173884,-82.861458
1417000000,-7.42453,-82.841469
1418000000,-7.439404,-82.955193
1419000000,-7.4329824,-83.06768
1420000000,-7.4522696,-82.801476
1421000000,-7.4507213,-83.041351
1422000000,-7.4180965,-82.939972
1423000000,-7.4042645,-83.225792
1424000000,-7.4454741,-83.299576
1425000000,-7.4546642,-83.32869
1426000000,-7.4471889,-83.383766
1427000000,-7.4803033,-83.576492
1428000000,-7.4513979,-83.518059
1429000000,-7.4685431,-83.594368
1430000000,-7.4773097,-83.539772
1431000000,-7.4534955,-83.770477
1432000000,-7.4615679,-83.726112
1433000000,-7.4547362,-83.73671
1434000000,-7.4754314,-84.039604
1435000000,-7.456883,-84.137901
1436000000,-7.4858351,-84.085907
1437000000,-7.4976273,-84.156548
1438000000,-7.4787049,-84.266472
1439000000,-7.4858499,-84.303001
1440000000,-7.4970665,-84.255585
1441000000,-7.4862275,-84.376015
1442000000,-7.524919,-84.426498
1443000000,-7.4949331,-84.666794
1444000000,-7.4850683,-84.551186
1445000000,-7.5037751,-84.754745
1446000000,-7.506609,-84.83107
1447000000,-7.5009227,-84.847946
1448000000,-7.4820476,-85.071167
1449000000,-7.5186501,-85.10508
1450000000,-7.5211191,-85.118301
1451000000,-7.5103469,-85.180771
1452000000,-7.5031319,-85.170792
1453000000,-7.5312853,-85.351463
1454000000,-7.5412517,-85.53006
1455000000,-7.5203528,-85.550537
1456000000,-7.5118923,-85.420494
1457000000,-7.5193934,-85.390266
1458000000,-7.5229168,-85.86779
1459000000,-7.5426655,-85.808609
1460000000,-7.5138941,-85.694351
1461000000,-7.5474863,-86.000206
1462000000,-7.5491896,-85.948204
1463000000,-7.5500097,-85.974525
1464000000,-7.5397015,-85.912491
1465000000,-7.5667734,-86.320786
1466000000,-7.5375047,-86.263504
1467000000,-7.5517769,-86.39637
1468000000,-7.5274744,-86.4291
1469000000,-7.5355234,-86.456642
1470000000,-7.5550761,-86.46167
1471000000,-7.5698743,-86.629692
1472000000,-7.54913,-86.540688
1473000000,-7.5812025,-86.922188
1474000000,-7.552989,-86.844795
1475000000,-7.5888906,-86.952553
1476000000,-7.5472822,-86.956581
1477000000,-7.6004539,-86.852509
1478000000,-7.6007824,-87.032539
1479000000,-7.609272,-87.241432
1480000000,-7.6056132,-87.206909
1481000000,-7.5645409,-87.231003
1482000000,-7.5482607,-87.516449
1483000000,-7.6061654,-87.301926
1484000000,-7.5907259,-87.565857
1485000000,-7.6146455,-87.558037
1486000000,-7.5908875,-87.717888
1487000000,-7.6026182,-87.668297
1488000000,-7.6092534,-87.601654
1489000000,-7.6141348,-87.907356
1490000000,-7.5965018,-87.926323
1491000000,-7.6402369,-88.156448
1492000000,-7.6285844,-88.248642
1493000000,-7.63135,-88.073082
1494000000,-7.6203504,-88.16317
1495000000,-7.645216,-88.250092
1496000000,-7.620873,-88.455978
1497000000,-7.6292138,-88.574326
1498000000,-7.626483,-88.418221
1499000000,-7.6181598,-88.669655
1500000000,-7.6326509,-88.820641
1501000000,-7.6580014,-88.756104
1502000000,-7.6761785,-88.885002
1503000000,-7.6099815,-88.744873
1504000000,-7.6132817,-88.97274
1505000000,-7.6432071,-89.045609
1506000000,-7.693419,-89.001747
1507000000,-7.6361251,-89.137283
1508000000,-7.6510987,-89.354591
1509000000,-7.6545525,-89.179634
1510000000,-7.6602907,-89.377052
1511000000,-7.662343,-89.180389
1512000000,-7.6444459,-89.478981
1513000000,-7.6666379,-89.44809
1514000000,-7.6555672,-89.57547
1515000000,-7.680521,-89.738785
1516000000,-7.6729641,-89.797493
1517000000,-7.7028546,-89.989021
1518000000,-7.6473517,-89.872337
1519000000,-7.6897254,-89.906349
1520000000,-7.682332,-90.201492
1521000000,-7.7206225,-90.272873
1522000000,-7.6749506,-90.14328
1523000000,-7.6994538,-90.468224
1524000000,-7.7054291,-90.372932
1525000000,-7.7088861,-90.508835
1526000000,-7.6928473,-90.559517
1527000000,-7.7170205,-90.615082
1528000000,-7.729218,-90.546982
1529000000,-7.709136,-90.882576
1530000000,-7.7200494,-90.777847
1531000000,-7.7242222,-90.995567
1532000000,-7.7340426,-90.926422
1533000000,-7.7278371,-90.915367
1534000000,-7.7133803,-91.039032
1535000000,-7.7429709,-91.21611
1536000000,-7.7187891,-91.557556
1537000000,-7.7270203,-91.425217
1538000000,-7.7407117,-91.40419
1539000000,-7.7562575,-91.369858
1540000000,-7.7407699,-91.518623
1541000000,-7.7600384,-91.795998
1542000000,-7.74897,-91.659279
1543000000,-7.7456946,-91.893387
1544000000,-7.7460823,-92.014412
1545000000,-7.779923,-92.234665
1546000000,-7.7340541,-92.017548
1547000000,-7.7804408,-92.285622
1548000000,-7.7606406,-91.971397
1549000000,-7.7695494,-92.224236
1550000000,-7.8078074,-92.447662
1551000000,-7.7662625,-92.569839
1552000000,-7.779552,-92.598976
1553000000,-7.7722101,-92.39431
1554000000,-7.7695761,-92.434586
1555000000,-7.7642879,-92.744888
1556000000,-7.7810416,-92.769371
1557000000,-7.8067656,-93.108543
1558000000,-7.8041916,-93.03447
1559000000,-7.7873316,-92.839348
1560000000,-7.7957678,-93.079948
1561000000,-7.796906,-93.048744
1562000000,-7.8117104,-93.439621
1563000000,-7.8332958,-93.357033
1564000000,-7.7980342,-93.297394
1565000000,-7.8224974,-93.543205
1566000000,-7.8172035,-93.401131
1567000000,-7.803915,-93.586945
1568000000,-7.8201771,-93.646835
1569000000,-7.8459544,-93.840828
1570000000,-7.8141084,-93.86869
1571000000,-7.8208284,-93.935036
1572000000,-7.8073511,-93.908241
1573000000,-7.8470745,-94.231972
1574000000,-7.8348131,-94.008255
1575000000,-7.8287501,-94.291512
1576000000,-7.8326244,-94.227669
1577000000,-7.8386555,-94.529137
1578000000,-7.8597822,-94.398567
1579000000,-7.8793902,-94.420464
1580000000,-7.863718,-94.715614
1581000000,-7.8373342,-94.731171
1582000000,-7.8778048,-94.821899
1583000000,-7.8395576,-94.763435
1584000000,-7.8734264,-95.130318
1585000000,-7.8708377,-94.964081
1586000000,-7.8911014,-95.233246
1587000000,-7.869669,-95.130104
1588000000,-7.9001932,-95.228157
1589000000,-7.8815393,-95.44384
1590000000,-7.8942494,-95.521156
1591000000,-7.914145,-95.470261
1592000000,-7.8956537,-95.661613
1593000000,-7.8825741,-95.639725
1594000000,-7.8897157,-95.644585
1595000000,-7.918366,-96.020454
1596000000,-7.925983,-95.945267
1597000000,-7.9365492,-95.9366
1598000000,-7.9194989,-96.007889
1599000000,-7.9341044,-95.952019
1600000000,-7.912569,-96.298309
1601000000,-7.9030175,-96.472832
1602000000,-7.927227,-96.40136
1603000000,-7.9551907,-96.498955
1604000000,-7.94136,-96.679871
1605000000,-7.9261336,-96.46431
1606000000,-7.9606133,-96.838577
1607000000,-7.9649744,-96.645897
1608000000,-7.943821,-96.668152
1609000000,-7.9454479,-97.124359
1610000000,-7.9817595,-97.047737
1611000000,-7.9528956,-96.971588
1612000000,-7.9839764,-97.181213
1613000000,-7.9715052,-97.227669
1614000000,-7.9861469,-97.294495
1615000000,-7.9551535,-97.189972
1616000000,-7.9924293,-97.205406
1617000000,-7.9647665,-97.477158
1618000000,-8.0019379,-97.608177
1619000000,-7.9774451,-97.685638
1620000000,-7.9903092,-98.008644
1621000000,-7.9816151,-97.802063
1622000000,-7.9975653,-97.804382
1623000000,-7.9762011,-98.103683
1624000000,-7.9891338,-98.191467
1625000000,-8.0049162,-98.140495
1626000000,-8.0349941,-98.157639
1627000000,-8.0366611,-98.458221
1628000000,-8.0437546,-98.320694
1629000000,-8.0505686,-98.533104
1630000000,-8.0251818,-98.773796
1631000000,-8.06952,-98.71981
1632000000,-8.0515547,-98.689323
1633000000,-8.0365658,-98.821747
1634000000,-8.0421486,-98.963066
1635000000,-8.0354176,-99.104111
1636000000,-8.0681381,-99.166824
1637000000,-8.0086603,-99.075409
1638000000,-8.0482264,-99.350807
1639000000,-8.070981,-99.482536
1640000000,-8.1094236,-99.418083
1641000000,-8.0433855,-99.488998
1642000000,-8.0592718,-99.682228
1643000000,-8.1000051,-99.631104
1644000000,-8.0967064,-99.81765
1645000000,-8.1021061,-99.741409
1646000000,-8.116765,-99.982475
1647000000,-8.0614729,-99.962013
1648000000,-8.0913172,-100.03408
1649000000,-8.087451,-100.2562
1650000000,-8.1076794,-100.28428
1651000000,-8.1131001,-100.3114
1652000000,-8.1052809,-100.49034
1653000000,-8.1204491,-100.58517
1654000000,-8.1155767,-100.89384
1655000000,-8.1104507,-100.68943
1656000000,-8.1340742,-100.65647
1657000000,-8.1332197,-100.86803
1658000000,-8.1481323,-100.99731
1659000000,-8.1508884,-101.11609
1660000000,-8.1382761,-101.26576
1661000000,-8.1367216,-101.10279
1662000000,-8.1496563,-101.32766
1663000000,-8.1676397,-101.22382
1664000000,-8.1562176,-101.35085
1665000000,-8.1549349,-101.57528
1666000000,-8.1500483,-101.73741
1667000000,-8.1542978,-101.60793
1668000000,-8.2019281,-101.75418
1669000000,-8.18046,-101.95692
1670000000,-8.1588783,-101.94623
1671000000,-8.1883984,-102.32742
1672000000,-8.1933327,-102.27027
1673000000,-8.2090044,-102.25877
1674000000,-8.1983576,-102.47247
1675000000,-8.198822,-102.54436
1676000000,-8.2285995,-102.49631
1677000000,-8.2083549,-102.8334
1678000000,-8.1910324,-102.69292
1679000000,-8.2344875,-102.71505
1680000000,-8.2454987,-102.81229
1681000000,-8.261384,-102.66856
1682000000,-8.2490673,-102.94668
1683000000,-8.2458258,-103.10186
1684000000,-8.2371769,-103.13036
1685000000,-8.25597,-102.99667
1686000000,-8.2638721,-103.32642
1687000000,-8.2495499,-103.45649
1688000000,-8.2663593,-103.43681
1689000000,-8.2908678,-103.62919
1690000000,-8.2597637,-103.55706
1691000000,-8.2571011,-103.63216
1692000000,-8.2618074,-103.80132
1693000000,-8.3041153,-104.01408
1694000000,-8.2790575,-104.14977
1695000000,-8.2960052,-104.19646
1696000000,-8.2804804,-104.27444
1697000000,-8.2988005,-104.19186
1698000000,-8.3244209,-104.41497
1699000000,-8.303607,-104.56264
1700000000,-8.3085279,-104.57564
1701000000,-8.3218317,-104.54086
1702000000,-8.3510513,-104.75254
1703000000,-8.3267679,-104.84294
1704000000,-8.3327332,-104.82052
1705000000,-8.3668118,-104.85271
1706000000,-8.3368187,-105.23232
1707000000,-8.3646784,-105.39132
1708000000,-8.3112297,-105.45526
1709000000,-8.3656883,-105.50108
1710000000,-8.3562346,-105.55844
1711000000,-8.3616028,-105.43468
1712000000,-8.3338833,-105.6016
1713000000,-8.3817101,-105.61999
1714000000,-8.386981,-105.96132
1715000000,-8.3710604,-105.94365
1716000000,-8.4301634,-106.07575
1717000000,-8.3749456,-106.20074
1718000000,-8.4169846,-106.18976
1719000000,-8.4001198,-106.36169
1720000000,-8.3916435,-106.28957
1721000000,-8.4449253,-106.61339
1722000000,-8.4301558,-106.49887
1723000000,-8.4050922,-106.56221
1724000000,-8.4051504,-106.55949
1725000000,-8.4596891,-106.67966
1726000000,-8.4590158,-107.00484
1727000000,-8.4272041,-106.88763
1728000000,-8.4649839,-106.9712
1729000000,-8.4664106,-107.05973
1730000000,-8.4654474,-107.30798
1731000000,-8.4701576,-107.17593
1732000000,-8.464879,-107.47289
1733000000,-8.4797287,-107.58053
1734000000,-8.4874153,-107.65624
1735000000,-8.4941254,-107.4831
1736000000,-8.4683208,-107.70567
1737000000,-8.5241261,-107.73267
1738000000,-8.4921103,-108.00643
1739000000,-8.5006437,-107.96603
1740000000,-8.5403891,-107.9939
1741000000,-8.5478888,-108.312
1742000000,-8.5295992,-108.36021
1743000000,-8.5137997,-108.57591
1744000000,-8.537035,-108.39344
1745000000,-8.5187321,-108.46528
1746000000,-8.5289917,-108.82639
1747000000,-8.5598269,-108.78264
1748000000,-8.5783234,-108.85865
1749000000,-8.5710859,-108.80471
1750000000,-8.5811405,-108.90504
1751000000,-8.5754833,-109.11357
1752000000,-8.6020212,-109.36134
1753000000,-8.6136713,-109.29935
1754000000,-8.5842209,-109.48949
1755000000,-8.5970745,-109.43296
1756000000,-8.6268682,-109.4945
1757000000,-8.5960321,-109.7263
1758000000,-8.5857935,-109.79544
1759000000,-8.6413794,-109.97887
1760000000,-8.6236143,-110.1052
1761000000,-8.6253309,-110.03193
1762000000,-8.637063,-110.14326
1763000000,-8.6659689,-110.13394
1764000000,-8.6280403,-110.41194
1765000000,-8.6664495,-110.37012
1766000000,-8.6847448,-110.47112
1767000000,-8.6889973,-110.59563
1768000000,-8.6691055,-110.85072
1769000000,-8.6652784,-110.62237
1770000000,-8.6874657,-110.74967
1771000000,-8.7068501,-110.88869
1772000000,-8.6710148,-111.05425
1773000000,-8.6744957,-111.14529
1774000000,-8.7008848,-111.17846
1775000000,-8.702075,-111.28243
1776000000,-8.7221241,-111.45457
1777000000,-8.6989441,-111.51342
1778000000,-8.7246904,-111.69098
1779000000,-8.7375841,-111.68636
1780000000,-8.7228165,-111.92422
1781000000,-8.744195,-111.89965
1782000000,-8.7389708,-112.08491
1783000000,-8.7416468,-112.19434
1784000000,-8.7669353,-112.17387
1785000000,-8.7435503,-112.00101
1786000000,-8.7702713,-112.38921
1787000000,-8.7630663,-112.45679
1788000000,-8.7851362,-112.48637
1789000000,-8.7834015,-112.67305
1790000000,-8.7775784,-112.83392
1791000000,-8.7943487,-112.84114
1792000000,-8.7991629,-113.10891
1793000000,-8.8277521,-113.09865
1794000000,-8.7821655,-113.35368
1795000000,-8.8407736,-113.41454
1796000000,-8.8693094,-113.57372
1797000000,-8.8560839,-113.57436
1798000000,-8.8501434,-113.46089
1799000000,-8.8328466,-113.67484
1800000000,-8.8573408,-113.72552
1801000000,-8.8800135,-113.94491
1802000000,-8.8615017,-114.04484
1803000000,-8.8881826,-114.19223
1804000000,-8.8749647,-114.35674
1805000000,-8.9043884,-114.47261
1806000000,-8.8686066,-114.47925
1807000000,-8.9290848,-114.39816
1808000000,-8.8918982,-114.49151
1809000000,-8.9284983,-114.94762
1810000000,-8.9305878,-114.71957
1811000000,-8.9348364,-114.97057
1812000000,-8.9288836,-115.09653
1813000000,-8.959012,-114.87932
1814000000,-8.9439497,-115.22371
1815000000,-8.9775286,-115.45686
1816000000,-8.9696293,-115.37419
1817000000,-8.9755726,-115.55784
1818000000,-8.9979219,-115.57677
1819000000,-9.0118027,-115.56924
1820000000,-9.0085258,-115.62228
1821000000,-9.0039558,-115.78138
1822000000,-9.0059528,-116.04318
1823000000,-9.0569687,-116.07296
1824000000,-9.0181885,-116.14316
1825000000,-9.0380659,-116.30068
1826000000,-9.0642719,-116.30212
1827000000,-9.0313196,-116.48248
1828000000,-9.0424461,-116.35239
1829000000,-9.0872879,-116.48447
1830000000,-9.093545,-116.77721
1831000000,-9.0692101,-116.71669
1832000000,-9.0658627,-116.94004
1833000000,-9.1252775,-117.01316
1834000000,-9.091321,-116.86134
1835000000,-9.0909567,-117.23152
1836000000,-9.1047049,-117.22479
1837000000,-9.1166897,-117.41518
1838000000,-9.1204338,-117.50922
1839000000,-9.1444168,-117.53174
1840000000,-9.1557112,-117.50573
1841000000,-9.1319485,-117.80322
1842000000,-9.1591845,-118.10806
1843000000,-9.1761894,-118.10621
1844000000,-9.1810675,-118.09727
1845000000,-9.1648045,-118.37199
1846000000,-9.1944218,-118.33594
1847000000,-9.2120695,-118.58578
1848000000,-9.1833162,-118.61801
1849000000,-9.1951189,-118.59835
1850000000,-9.2354755,-118.69901
1851000000,-9.2137117,-118.65437
1852000000,-9.2288208,-118.83923
1853000000,-9.2670145,-118.94389
1854000000,-9.2880201,-118.95172
1855000000,-9.2801409,-119.35894
1856000000,-9.2717514,-119.22006
1857000000,-9.2436581,-119.43363
1858000000,-9.2766924,-119.57122
1859000000,-9.2822714,-119.80619
1860000000,-9.3121223,-119.59943
1861000000,-9.3315125,-119.89728
1862000000,-9.311553,-119.88978
1863000000,-9.2915411,-119.98643
1864000000,-9.3375807,-119.95074
1865000000,-9.3456993,-120.2802
1866000000,-9.3367901,-120.31575
1867000000,-9.3499355,-120.4585
1868000000,-9.3827791,-120.39703
1869000000,-9.3553305,-120.63042
1870000000,-9.3949671,-120.77388
1871000000,-9.3624077,-120.78661
1872000000,-9.3645725,-121.23798
1873000000,-9.4151773,-120.9832
1874000000,-9.4009476,-121.22119
1875000000,-9.4254227,-121.28819
1876000000,-9.4253597,-121.48115
1877000000,-9.4305248,-121.47561
1878000000,-9.4034872,-121.64
1879000000,-9.4673777,-121.91172
1880000000,-9.464427,-122.0005
1881000000,-9.4666271,-121.75924
1882000000,-9.484643,-122.08458
1883000000,-9.4960804,-122.09953
1884000000,-9.5150185,-122.218
1885000000,-9.5166054,-122.52037
1886000000,-9.5382938,-122.5462
1887000000,-9.520978,-122.46343
1888000000,-9.5211496,-122.53081
1889000000,-9.5336857,-122.75951
1890000000,-9.5530529,-122.90749
1891000000,-9.5599489,-122.93134
1892000000,-9.598424,-123.24709
1893000000,-9.5898438,-123.17279
1894000000,-9.6165972,-123.46525
1895000000,-9.6026039,-123.34394
1896000000,-9.6051741,-123.67079
1897000000,-9.604701,-123.54488
1898000000,-9.6447649,-123.76441
1899000000,-9.651475,-123.7935
1900000000,-9.6674194,-124.06436
1901000000,-9.6594152,-123.94493
1902000000,-9.6955881,-124.09899
1903000000,-9.6651278,-124.22291
1904000000,-9.6836748,-124.46136
1905000000,-9.7189732,-124.63508
1906000000,-9.6980724,-124.55917
1907000000,-9.7106113,-124.77092
1908000000,-9.7217741,-124.85741
1909000000,-9.7162762,-124.85641
1910000000,-9.7272329,-125.04128
1911000000,-9.7572689,-124.98925
1912000000,-9.7987165,-125.16077
1913000000,-9.793292,-125.37412
1914000000,-9.7988405,-125.51752
1915000000,-9.7868204,-125.54557
1916000000,-9.8053408,-125.72847
1917000000,-9.8022852,-125.69454
1918000000,-9.8330212,-125.84084
1919000000,-9.8171072,-126.15085
1920000000,-9.8928022,-126.17582
1921000000,-9.8880148,-126.13055
1922000000,-9.8614073,-126.68497
1923000000,-9.8764791,-126.45298
1924000000,-9.9116907,-126.55756
1925000000,-9.9362936,-126.78296
1926000000,-9.9016781,-126.78355
1927000000,-9.9408712,-126.89137
1928000000,-9.9503765,-126.89356
1929000000,-9.95473,-127.02629
1930000000,-9.9445572,-127.23928
1931000000,-9.9751329,-127.2283
1932000000,-9.9557247,-127.46177
1933000000,-10.00651,-127.41121
1934000000,-9.9809704,-127.39948
1935000000,-10.019711,-127.75513
1936000000,-10.019668,-128.03374
1937000000,-10.030572,-127.88251
1938000000,-10.049785,-128.12738
1939000000,-10.061408,-128.33989
1940000000,-10.072614,-128.15822
1941000000,-10.073755,-128.479
1942000000,-10.103609,-128.41011
1943000000,-10.081148,-128.85916
1944000000,-10.132031,-128.78169
1945000000,-10.086231,-128.94466
1946000000,-10.08709,-129.10301
1947000000,-10.128801,-129.1689
1948000000,-10.173509,-129.27589
1949000000,-10.171502,-129.2679
1950000000,-10.129317,-129.50232
1951000000,-10.205091,-129.67336
1952000000,-10.194869,-129.65089
1953000000,-10.226112,-129.60892
1954000000,-10.217969,-129.9321
1955000000,-10.238073,-130.06078
1956000000,-10.243567,-130.25566
1957000000,-10.245336,-130.45198
1958000000,-10.279427,-130.50125
1959000000,-10.295172,-130.59778
1960000000,-10.297875,-130.80507
1961000000,-10.311155,-130.78049
1962000000,-10.325946,-130.81926
1963000000,-10.353197,-131.17638
1964000000,-10.325527,-131.10228
1965000000,-10.378345,-131.09973
1966000000,-10.373401,-131.24129
1967000000,-10.391397,-131.53561
1968000000,-10.426771,-131.47826
1969000000,-10.388884,-131.45525
1970000000,-10.433406,-131.72578
1971000000,-10.440404,-131.90372
1972000000,-10.448744,-131.94382
1973000000,-10.460188,-132.12909
1974000000,-10.479797,-132.21248
1975000000,-10.476647,-132.23929
1976000000,-10.496892,-132.43353
1977000000,-10.495516,-132.53568
1978000000,-10.525415,-132.62451
1979000000,-10.539913,-132.69868
1980000000,-10.537192,-132.86763
1981000000,-10.578633,-132.88519
1982000000,-10.58831,-133.04688
1983000000,-10.582504,-133.23814
1984000000,-10.590286,-133.39445
1985000000,-10.620493,-133.48651
1986000000,-10.620592,-133.50078
1987000000,-10.678239,-133.72246
1988000000,-10.645113,-134.0401
1989000000,-10.68765,-133.93628
1990000000,-10.719818,-134.15538
1991000000,-10.69788,-134.24571
1992000000,-10.755118,-134.36777
1993000000,-10.742382,-134.20477
1994000000,-10.773845,-134.5591
1995000000,-10.756941,-134.4895
1996000000,-10.772653,-134.66731
1997000000,-10.785817,-134.86589
1998000000,-10.833447,-135.02063
1999000000,-10.827183,-135.17871
2000000000,-10.813877,-135.27094
2001000000,-10.840044,-135.16559
2002000000,-10.876494,-135.42021
2003000000,-10.940454,-135.66411
2004000000,-10.905842,-135.65102
2005000000,-10.928497,-135.7475
2006000000,-10.937432,-135.90578
2007000000,-10.970312,-135.79483
2008000000,-10.977751,-135.94843
2009000000,-10.973155,-136.06641
2010000000,-10.987075,-136.44388
2011000000,-10.989697,-136.23212
2012000000,-10.987818,-136.34642
2013000000,-11.062376,-136.68277
2014000000,-11.032459,-136.65761
2015000000,-11.071528,-136.88736
2016000000,-11.088843,-137.24583
2017000000,-11.069758,-137.18674
2018000000,-11.058923,-137.12923
2019000000,-11.113337,-137.43774
2020000000,-11.136273,-137.44202
2021000000,-11.164245,-137.68253
2022000000,-11.199588,-137.68681
2023000000,-11.175817,-137.9084
2024000000,-11.23033,-138.0688
2025000000,-11.212841,-138.3425
2026000000,-11.201002,-138.24277
2027000000,-11.238932,-138.40169
2028000000,-11.279004,-138.41685
2029000000,-11.256143,-138.5146
2030000000,-11.290088,-138.76709
2031000000,-11.270003,-138.70863
2032000000,-11.330132,-138.86328
2033000000,-11.35655,-139.12616
2034000000,-11.393348,-138.95135
2035000000,-11.380226,-139.41916
2036000000,-11.394099,-139.52803
2037000000,-11.436217,-139.66338
2038000000,-11.420998,-139.72292
2039000000,-11.460373,-139.7988
2040000000,-11.473454,-139.75308
2041000000,-11.450061,-139.92975
2042000000,-11.48649,-140.40384
2043000000,-11.540731,-140.33717
2044000000,-11.54833,-140.50827
2045000000,-11.553292,-140.34306
2046000000,-11.555882,-140.47043
2047000000,-11.56643,-140.85468
2048000000,-11.614788,-140.7618
2049000000,-11.620277,-141.07866
2050000000,-11.638284,-141.19133
2051000000,-11.679235,-141.44949
2052000000,-11.668776,-141.5589
2053000000,-11.63983,-141.23798
2054000000,-11.707867,-141.74689
2055000000,-11.691846,-141.57451
2056000000,-11.697943,-141.71848
2057000000,-11.779464,-142.13751
2058000000,-11.778221,-142.11632
2059000000,-11.796648,-142.51134
2060000000,-11.822162,-142.43539
2061000000,-11.832413,-142.45378
2062000000,-11.847449,-142.79579
2063000000,-11.8758,-142.63837
2064000000,-11.893542,-142.84251
2065000000,-11.94606,-142.92517
2066000000,-11.922486,-143.11769
2067000000,-11.951179,-142.99731
2068000000,-11.949533,-143.54462
2069000000,-11.987494,-143.37074
2070000000,-12.015847,-143.35065
2071000000,-12.042957,-143.87805
2072000000,-12.038711,-143.62077
2073000000,-12.065355,-143.9597
2074000000,-12.079406,-143.91125
2075000000,-12.14866,-144.29575
2076000000,-12.154545,-144.16988
2077000000,-12.12829,-144.53023
2078000000,-12.126119,-144.49471
2079000000,-12.200864,-144.67493
2080000000,-12.231676,-144.98126
2081000000,-12.235828,-144.96436
2082000000,-12.247458,-144.82245
2083000000,-12.292876,-145.24849
2084000000,-12.301211,-145.33029
2085000000,-12.328192,-145.51488
2086000000,-12.341482,-145.29111
2087000000,-12.295618,-145.5972
2088000000,-12.374432,-145.66927
2089000000,-12.412008,-145.9048
2090000000,-12.382537,-146.03581
2091000000,-12.419413,-146.13438
2092000000,-12.455517,-146.22382
2093000000,-12.510646,-146.3082
2094000000,-12.480671,-146.27472
2095000000,-12.55233,-146.74594
2096000000,-12.52336,-146.73682
2097000000,-12.559863,-146.67958
2098000000,-12.557137,-146.98254
2099000000,-12.590094,-147.14601
2100000000,-12.599061,-147.03217
2101000000,-12.665209,-147.44405
2102000000,-12.648551,-147.5455
2103000000,-12.69208,-147.6418
2104000000,-12.712871,-147.67389
2105000000,-12.774197,-147.86421
2106000000,-12.792584,-147.99319
2107000000,-12.816469,-148.03371
2108000000,-12.814178,-148.26547
2109000000,-12.80442,-148.21516
2110000000,-12.876691,-148.36336
2111000000,-12.902987,-148.59404
2112000000,-12.924603,-148.85197
2113000000,-12.944252,-148.94009
2114000000,-12.934817,-149.30806
2115000000,-12.997419,-149.31781
2116000000,-13.003012,-149.37836
2117000000,-13.024975,-149.35843
2118000000,-13.076219,-149.58636
2119000000,-13.092215,-149.51683
2120000000,-13.094646,-149.55846
2121000000,-13.153185,-149.80539
2122000000,-13.169465,-149.90355
2123000000,-13.174582,-149.97319
2124000000,-13.20493,-150.28177
2125000000,-13.254384,-150.29387
2126000000,-13.216033,-150.79407
2127000000,-13.297995,-150.56366
2128000000,-13.342925,-150.42662
2129000000,-13.341963,-150.76048
2130000000,-13.366118,-150.99542
2131000000,-13.375968,-151.15677
2132000000,-13.446139,-151.33179
2133000000,-13.442743,-151.4975
2134000000,-13.468177,-151.601
2135000000,-13.482413,-151.42558
2136000000,-13.508217,-151.60234
2137000000,-13.549479,-151.79874
2138000000,-13.565701,-151.71368
2139000000,-13.590384,-152.18422
2140000000,-13.643826,-152.3429
2141000000,-13.684617,-152.11014
2142000000,-13.673502,-152.24879
2143000000,-13.682981,-152.63011
2144000000,-13.727729,-152.65541
2145000000,-13.760285,-152.7634
2146000000,-13.773653,-152.83745
2147000000,-13.836508,-153.31728
2148000000,-13.804521,-152.94704
2149000000,-13.851082,-152.98611
2150000000,-13.898538,-153.42201
2151000000,-13.937031,-153.51401
2152000000,-13.967597,-153.62755
2153000000,-13.982581,-153.72185
2154000000,-14.022781,-153.93828
2155000000,-14.062832,-154.07436
2156000000,-14.068901,-153.96997
2157000000,-14.09881,-154.31616
2158000000,-14.103723,-154.25569
2159000000,-14.144532,-154.29765
2160000000,-14.173509,-154.64488
2161000000,-14.221086,-154.74646
2162000000,-14.231527,-154.83153
2163000000,-14.276919,-155.05992
2164000000,-14.329961,-154.90395
2165000000,-14.349924,-155.20523
2166000000,-14.387167,-155.52484
2167000000,-14.40355,-155.37968
2168000000,-14.446167,-155.56439
2169000000,-14.47655,-155.75342
2170000000,-14.475206,-155.79387
2171000000,-14.521804,-155.91144
2172000000,-14.558355,-155.9503
2173000000,-14.60902,-156.3345
2174000000,-14.629275,-156.36877
2175000000,-14.642717,-156.30933
2176000000,-14.728429,-156.53403
2177000000,-14.721779,-156.59821
2178000000,-14.710422,-156.83929
2179000000,-14.793675,-156.77597
2180000000,-14.800467,-156.91951
2181000000,-14.830276,-157.02501
2182000000,-14.906439,-157.25911
2183000000,-14.927768,-157.22379
2184000000,-14.951107,-157.4222
2185000000,-14.97997,-157.47566
2186000000,-15.015285,-157.51982
2187000000,-15.069112,-157.67546
2188000000,-15.106187,-157.95412
2189000000,-15.11171,-157.99509
2190000000,-15.180525,-157.894
2191000000,-15.180835,-158.13603
2192000000,-15.23672,-158.33607
2193000000,-15.268362,-158.55516
2194000000,-15.312609,-158.49364
2195000000,-15.341917,-158.6954
2196000000,-15.359474,-158.67448
2197000000,-15.392678,-158.96741
2198000000,-15.398596,-159.10463
2199000000,-15.465441,-159.12123
2200000000,-15.499007,-159.36168
2201000000,-15.526361,-159.60789
2202000000,-15.58039,-159.55412
2203000000,-15.600191,-159.66902
2204000000,-15.629216,-159.79863
2205000000,-15.683792,-159.84253
2206000000,-15.743424,-159.755
2207000000,-15.734235,-160.16216
2208000000,-15.777403,-160.22614
2209000000,-15.838997,-160.34703
2210000000,-15.875302,-160.61559
2211000000,-15.903497,-160.41876
2212000000,-15.963359,-160.7025
2213000000,-15.977251,-160.75002
2214000000,-16.025883,-160.92009
2215000000,-16.050161,-161.01096
2216000000,-16.112122,-161.12732
2217000000,-16.122402,-161.28688
2218000000,-16.148405,-161.28584
2219000000,-16.213802,-161.52237
2220000000,-16.266703,-161.43149
2221000000,-16.282658,-161.58005
2222000000,-16.32571,-161.64317
2223000000,-16.374956,-161.95981
2224000000,-16.399914,-162.07729
2225000000,-16.466337,-161.99477
2226000000,-16.49658,-162.28859
2227000000,-16.562094,-162.35023
2228000000,-16.586214,-162.54588
2229000000,-16.632063,-162.52147
2230000000,-16.64633,-162.80392
2231000000,-16.68404,-162.86208
2232000000,-16.775295,-163.04779
2233000000,-16.794743,-162.99928
2234000000,-16.826281,-163.09981
2235000000,-16.839157,-163.28444
2236000000,-16.934671,-163.41591
2237000000,-16.963013,-163.5451
2238000000,-16.986706,-163.59747
2239000000,-17.042854,-163.79253
2240000000,-17.093697,-163.88405
2241000000,-17.130747,-163.92294
2242000000,-17.181189,-164.10628
2243000000,-17.230719,-164.08005
2244000000,-17.285597,-164.47906
2245000000,-17.291988,-164.33223
2246000000,-17.351675,-164.34422
2247000000,-17.410484,-164.8262
2248000000,-17.421392,-164.68329
2249000000,-17.48148,-164.97748
2250000000,-17.524839,-164.91412
2251000000,-17.58161,-165.03111
2252000000,-17.636505,-165.17491
2253000000,-17.696728,-165.14935
2254000000,-17.707104,-165.32556
2255000000,-17.786055,-165.58678
2256000000,-17.855101,-165.41786
2257000000,-17.878357,-165.58052
2258000000,-17.96306,-165.59045
2259000000,-17.977062,-165.97797
2260000000,-18.035938,-165.77083
2261000000,-18.111544,-166.08514
2262000000,-18.138721,-166.22992
2263000000,-18.197927,-166.28215
2264000000,-18.254604,-166.27597
2265000000,-18.25878,-166.29657
2266000000,-18.343958,-166.44688
2267000000,-18.382559,-166.47911
2268000000,-18.43671,-166.77673
2269000000,-18.511934,-166.70801
2270000000,-18.544523,-166.89223
2271000000,-18.582867,-167.03957
2272000000,-18.655954,-167.19708
2273000000,-18.708387,-167.27631
2274000000,-18.755724,-167.3318
2275000000,-18.80995,-167.40263
2276000000,-18.874786,-167.68137
2277000000,-18.947895,-167.57259
2278000000,-19.01613,-167.67619
2279000000,-19.041309,-167.77083
2280000000,-19.111269,-168.05397
2281000000,-19.149164,-168.15227
2282000000,-19.235155,-168.30806
2283000000,-19.273642,-168.04379
2284000000,-19.328268,-168.31738
2285000000,-19.388718,-168.62276
2286000000,-19.462154,-168.52553
2287000000,-19.520788,-168.78206
2288000000,-19.563005,-168.68129
2289000000,-19.629673,-168.78401
2290000000,-19.702894,-168.85835
2291000000,-19.775349,-169.06999
2292000000,-19.824844,-168.85442
2293000000,-19.895924,-169.31619
2294000000,-19.929417,-169.31926
2295000000,-20.016092,-169.11459
2296000000,-20.099813,-169.62173
2297000000,-20.133114,-169.4561
2298000000,-20.203548,-169.61118
2299000000,-20.272507,-169.60001
2300000000,-20.316526,-169.81511
2301000000,-20.410252,-169.89258
2302000000,-20.484892,-169.92378
2303000000,-20.543758,-169.82097
2304000000,-20.60874,-169.86586
2305000000,-20.656088,-170.10783
2306000000,-20.745075,-170.00031
2307000000,-20.871788,-170.36935
2308000000,-20.897844,-170.29008
2309000000,-20.979813,-170.38992
2310000000,-21.022076,-170.37062
2311000000,-21.096634,-170.47508
2312000000,-21.19982,-170.51773
2313000000,-21.251669,-170.65921
2314000000,-21.331625,-170.65546
2315000000,-21.39052,-170.75735
2316000000,-21.461035,-170.946
2317000000,-21.547941,-170.72441
2318000000,-21.592733,-171.0761
2319000000,-21.702709,-171.269
2320000000,-21.758394,-171.15906
2321000000,-21.86405,-170.98389
2322000000,-21.905546,-171.30563
2323000000,-22.008751,-171.3445
2324000000,-22.096521,-171.36166
2325000000,-22.235546,-171.31638
2326000000,-22.268318,-171.60602
2327000000,-22.348135,-171.4391
2328000000,-22.428627,-171.67009
2329000000,-22.519606,-171.65173
2330000000,-22.627489,-171.73929
2331000000,-22.698563,-171.802
2332000000,-22.812817,-171.89687
2333000000,-22.913759,-171.88907
2334000000,-22.956263,-171.52773
2335000000,-23.05987,-171.95116
2336000000,-23.133696,-171.87108
2337000000,-23.22818,-171.89705
2338000000,-23.323124,-171.86267
2339000000,-23.439968,-171.90817
2340000000,-23.454264,-171.7957
2341000000,-23.624136,-171.82123
2342000000,-23.720131,-172.01596
2343000000,-23.805029,-172.00816
2344000000,-23.918716,-172.11272
2345000000,-23.990286,-171.7644
2346000000,-24.114676,-172.27972
2347000000,-24.216536,-171.88893
2348000000,-24.265373,-172.18867
2349000000,-24.426796,-172.01968
2350000000,-24.515175,-171.92445
2351000000,-24.662159,-171.93494
2352000000,-24.742401,-172.11784
2353000000,-24.837803,-171.99873
2354000000,-24.940399,-171.85333
2355000000,-25.074472,-171.78667
2356000000,-25.200964,-171.97739
2357000000,-25.323818,-171.84476
2358000000,-25.429949,-171.73155
2359000000,-25.548969,-171.91815
2360000000,-25.667925,-171.7621
2361000000,-25.767002,-171.61031
2362000000,-25.876797,-171.48022
2363000000,-26.002048,-171.53593
2364000000,-26.124582,-171.39865
2365000000,-26.278362,-171.62727
2366000000,-26.372032,-171.25021
2367000000,-26.532015,-171.39627
2368000000,-26.653934,-171.30574
2369000000,-26.777462,-171.22296
2370000000,-26.947172,-171.10158
2371000000,-27.035841,-170.77342
2372000000,-27.235109,-171.06392
2373000000,-27.35343,-170.89996
2374000000,-27.522964,-170.7574
2375000000,-27.630812,-170.81245
2376000000,-27.791861,-170.32944
2377000000,-27.923237,-170.20573
2378000000,-28.103941,-170.15404
2379000000,-28.260469,-170.30998
2380000000,-28.430824,-169.80087
2381000000,-28.5776,-169.54977
2382000000,-28.790989,-169.44797
2383000000,-28.92576,-169.4328
2384000000,-29.140665,-168.91763
2385000000,-29.305557,-168.90202
2386000000,-29.410135,-168.28963
2387000000,-29.640726,-167.93091
2388000000,-29.831055,-167.83812
2389000000,-29.993649,-167.30325
2390000000,-30.199924,-167.13005
2391000000,-30.434736,-167.21826
2392000000,-30.579988,-166.8911
2393000000,-30.81583,-165.90945
2394000000,-31.024878,-165.78049
2395000000,-31.283163,-165.11501
2396000000,-31.48772,-164.53925
2397000000,-31.683247,-163.97952
2398000000,-31.930248,-163.47018
2399000000,-32.185268,-162.59314
2400000000,-32.411385,-162.24194
2401000000,-32.595932,-161.28079
2402000000,-32.851978,-160.34261
2403000000,-33.137333,-160.15031
2404000000,-33.355083,-158.94041
2405000000,-33.659489,-158.13506
2406000000,-33.909229,-157.18034
2407000000,-34.20636,-156.04858
2408000000,-34.465351,-155.06961
2409000000,-34.756355,-154.25713
2410000000,-35.029503,-153.09435
2411000000,-35.354282,-151.37401
2412000000,-35.635044,-150.30013
2413000000,-35.892803,-148.61392
2414000000,-36.257397,-146.12592
2415000000,-36.539227,-144.92482
2416000000,-36.7547,-142.31044
2417000000,-37.183327,-139.88103
2418000000,-37.362415,-138.46945
2419000000,-37.629623,-135.47684
2420000000,-37.916157,-133.02802
2421000000,-38.218872,-130.38501
2422000000,-38.456188,-126.86631
2423000000,-38.66621,-123.82032
2424000000,-38.799877,-120.77533
2425000000,-39.019016,-117.0106
2426000000,-39.089207,-113.16196
2427000000,-39.138805,-109.5239
2428000000,-39.180122,-106.0183
2429000000,-39.255756,-102.69592
2430000000,-39.232567,-99.297035
2431000000,-39.185772,-95.47036
2432000000,-39.096012,-91.244492
2433000000,-38.922028,-87.917969
2434000000,-38.781136,-84.903549
2435000000,-38.638805,-81.000488
2436000000,-38.306259,-78.019028
2437000000,-38.096256,-75.908432
2438000000,-37.812,-72.725517
2439000000,-37.564434,-69.883705
2440000000,-37.356277,-68.130486
2441000000,-37.065845,-65.020798
2442000000,-36.723682,-63.820782
2443000000,-36.381973,-61.001682
2444000000,-36.170292,-59.743092
2445000000,-35.964478,-58.012699
2446000000,-35.558472,-56.382011
2447000000,-35.316181,-54.968742
2448000000,-35.012623,-53.799896
2449000000,-34.747959,-52.415222
2450000000,-34.454372,-51.147755
2451000000,-34.151802,-49.458744
2452000000,-33.946831,-48.951973
2453000000,-33.692101,-47.330681
2454000000,-33.393677,-46.315517
2455000000,-33.21209,-45.975128
2456000000,-32.961998,-44.720989
2457000000,-32.708714,-44.339409
2458000000,-32.453125,-43.552765
2459000000,-32.203243,-42.812332
2460000000,-31.938364,-42.418743
2461000000,-31.781553,-42.111568
2462000000,-31.537256,-41.324436
2463000000,-31.332212,-40.611092
2464000000,-31.118397,-40.636517
2465000000,-30.8619,-39.908062
2466000000,-30.685595,-39.387115
2467000000,-30.481873,-39.395741
2468000000,-30.282654,-38.803043
2469000000,-30.09252,-38.64603
2470000000,-29.94795,-38.119907
2471000000,-29.740265,-37.974461
2472000000,-29.574682,-37.744232
2473000000,-29.370493,-37.34005
2474000000,-29.227619,-37.297363
2475000000,-29.053617,-37.070751
2476000000,-28.869097,-36.991238
2477000000,-28.701992,-36.606102
2478000000,-28.574131,-36.104752
2479000000,-28.367392,-36.021469
2480000000,-28.249216,-35.980957
2481000000,-28.065794,-35.891132
2482000000,-27.892342,-35.166786
2483000000,-27.789103,-35.325085
2484000000,-27.654324,-35.188648
2485000000,-27.513975,-35.227135
2486000000,-27.353468,-35.053791
2487000000,-27.220991,-34.752483
2488000000,-27.078806,-34.896641
2489000000,-26.973978,-34.964169
2490000000,-26.806269,-34.551319
2491000000,-26.700159,-34.81078
2492000000,-26.590584,-34.546299
2493000000,-26.43627,-34.020874
2494000000,-26.349087,-34.202263
2495000000,-26.250042,-34.157162
2496000000,-26.069494,-34.289131
2497000000,-25.976749,-33.904369
2498000000,-25.840668,-33.876396
2499000000,-25.706947,-33.916515
2500000000,-25.627789,-33.867237
2501000000,-25.458746,-33.838768
2502000000,-25.390966,-33.820206
2503000000,-25.280886,-33.779205
2504000000,-25.135843,-33.640182
2505000000,-25.04862,-33.518982
2506000000,-24.930925,-33.630569
2507000000,-24.840849,-33.62294
2508000000,-24.754328,-33.427414
2509000000,-24.624945,-33.531754
2510000000,-24.531799,-33.519104
2511000000,-24.425653,-33.300545
2512000000,-24.330149,-33.771019
2513000000,-24.225548,-33.579453
2514000000,-24.125696,-33.748562
2515000000,-24.052664,-33.558971
2516000000,-23.943399,-33.801605
2517000000,-23.788431,-33.810379
2518000000,-23.748503,-33.821026
2519000000,-23.635515,-33.826435
2520000000,-23.522249,-33.847153
2521000000,-23.397522,-33.800415
2522000000,-23.410883,-33.731899
2523000000,-23.270044,-33.721497
2524000000,-23.209711,-33.825676
2525000000,-23.089861,-33.730324
2526000000,-23.017544,-33.939648
2527000000,-22.951223,-33.895836
2528000000,-22.826424,-34.025013
2529000000,-22.760328,-34.104
2530000000,-22.694927,-34.167362
2531000000,-22.638554,-34.361057
2532000000,-22.586811,-34.259045
2533000000,-22.462217,-34.144463
2534000000,-22.366838,-34.388824
2535000000,-22.293858,-34.60141
2536000000,-22.236298,-34.305294
2537000000,-22.145746,-34.453289
2538000000,-22.035128,-34.533348
2539000000,-21.970394,-34.703465
2540000000,-21.894405,-34.416294
2541000000,-21.84679,-34.690945
2542000000,-21.753164,-34.753101
2543000000,-21.654383,-34.781998
2544000000,-21.608202,-35.026756
2545000000,-21.568783,-34.91711
2546000000,-21.467283,-35.039021
2547000000,-21.407679,-35.002483
2548000000,-21.315531,-35.204731
2549000000,-21.264643,-35.410057
2550000000,-21.181858,-34.953747
2551000000,-21.143755,-35.650307
2552000000,-21.05818,-35.536308
2553000000,-21.011606,-35.233833
2554000000,-20.915604,-35.573742
2555000000,-20.838278,-35.821125
2556000000,-20.793362,-35.889164
2557000000,-20.736111,-35.90395
2558000000,-20.690701,-35.712143
2559000000,-20.637154,-35.911861
2560000000,-20.536388,-36.077637
2561000000,-20.486237,-35.927959
2562000000,-20.414145,-36.092903
2563000000,-20.356438,-36.476509
2564000000,-20.311567,-36.18224
2565000000,-20.268593,-36.37624
2566000000,-20.198868,-36.448772
2567000000,-20.164951,-36.806835
2568000000,-20.051624,-36.659218
2569000000,-19.999187,-36.81813
2570000000,-19.944056,-37.083084
2571000000,-19.876328,-36.860657
2572000000,-19.8601,-37.21093
2573000000,-19.786482,-37.16922
2574000000,-19.689564,-37.039585
2575000000,-19.67292,-37.095028
2576000000,-19.597208,-37.493336
2577000000,-19.559513,-37.387627
2578000000,-19.485006,-37.45826
2579000000,-19.433157,-37.716759
2580000000,-19.374195,-37.743969
2581000000,-19.337851,-37.937752
2582000000,-19.310089,-37.815975
2583000000,-19.232914,-37.86739
2584000000,-19.183558,-38.096184
2585000000,-19.11681,-38.155182
2586000000,-19.058399,-38.246662
2587000000,-19.021196,-38.299484
2588000000,-18.980543,-38.410511
2589000000,-18.927778,-38.62759
2590000000,-18.887123,-38.714291
2591000000,-18.849701,-38.696114
2592000000,-18.810602,-38.68322
2593000000,-18.703049,-38.978237
2594000000,-18.706203,-39.02224
2595000000,-18.626316,-39.295731
2596000000,-18.546249,-39.033447
2597000000,-18.52961,-39.43692
2598000000,-18.456364,-39.555687
2599000000,-18.440447,-39.904236
2600000000,-18.397352,-39.609283
2601000000,-18.334572,-39.583202
2602000000,-18.296059,-39.736782
2603000000,-18.245653,-39.746479
2604000000,-18.200768,-40.097202
2605000000,-18.202429,-40.123753
2606000000,-18.087132,-40.187721
2607000000,-18.090755,-40.197613
2608000000,-18.001637,-40.322021
2609000000,-18.011086,-40.413506
2610000000,-17.917004,-40.635525
2611000000,-17.895832,-40.704674
2612000000,-17.830618,-40.75758
2613000000,-17.825268,-40.963684
2614000000,-17.782274,-41.081017
2615000000,-17.73082,-41.028519
2616000000,-17.664495,-41.106892
2617000000,-17.630108,-40.760628
2618000000,-17.625143,-41.339531
2619000000,-17.576056,-41.350601
2620000000,-17.496445,-41.367897
2621000000,-17.460817,-41.674202
2622000000,-17.405977,-41.7966
2623000000,-17.375454,-41.572403
2624000000,-17.311197,-42.088757
2625000000,-17.324694,-42.089424
2626000000,-17.232016,-42.041142
2627000000,-17.22187,-42.273094
2628000000,-17.166611,-42.331978
2629000000,-17.14994,-42.286846
2630000000,-17.116854,-42.386349
2631000000,-17.079363,-42.714268
2632000000,-17.021378,-42.622215
2633000000,-17.010361,-42.803242
2634000000,-16.950184,-43.046993
2635000000,-16.905041,-43.030258
2636000000,-16.856081,-43.441628
2637000000,-16.835541,-43.301464
2638000000,-16.779718,-43.364124
2639000000,-16.787115,-43.414654
2640000000,-16.721189,-43.427021
2641000000,-16.708187,-43.578457
2642000000,-16.646866,-43.851326
2643000000,-16.627348,-43.679585
2644000000,-16.549334,-43.989868
2645000000,-16.540756,-44.0196
2646000000,-16.531879,-44.286896
2647000000,-16.449295,-44.24966
2648000000,-16.412571,-44.188202
2649000000,-16.41345,-44.380917
2650000000,-16.342979,-44.464081
2651000000,-16.33942,-44.613972
2652000000,-16.257595,-44.806896
2653000000,-16.279861,-45.00024
2654000000,-16.240536,-44.929699
2655000000,-16.168875,-44.986866
2656000000,-16.135319,-45.256672
2657000000,-16.129322,-45.201778
2658000000,-16.103979,-45.401077
2659000000,-16.018847,-45.483608
2660000000,-16.025673,-45.595951
2661000000,-16.001049,-45.659294
2662000000,-15.946514,-45.797478
2663000000,-15.917217,-45.902248
2664000000,-15.881297,-46.117771
2665000000,-15.838447,-46.095116
2666000000,-15.819897,-46.179482
2667000000,-15.771811,-46.445076
2668000000,-15.756459,-46.543549
2669000000,-15.737659,-46.629078
2670000000,-15.713763,-46.701591
2671000000,-15.67044,-46.996731
2672000000,-15.59808,-46.820602
2673000000,-15.603866,-47.050873
2674000000,-15.574881,-47.063183
2675000000,-15.513205,-47.001522
2676000000,-15.485194,-47.249062
2677000000,-15.469611,-47.424614
2678000000,-15.447863,-47.518982
2679000000,-15.432929,-47.779209
2680000000,-15.40212,-47.543179
2681000000,-15.35879,-48.072819
2682000000,-15.326757,-47.762215
2683000000,-15.306998,-47.95739
2684000000,-15.255869,-48.267483
2685000000,-15.228436,-48.414806
2686000000,-15.210027,-48.353436
2687000000,-15.155228,-48.711693
2688000000,-15.146596,-48.68063
2689000000,-15.15254,-48.703362
2690000000,-15.124909,-48.780342
2691000000,-15.041817,-49.07486
2692000000,-15.029891,-48.984516
2693000000,-15.008198,-48.964336
2694000000,-14.945899,-49.275101
2695000000,-14.947036,-49.357647
2696000000,-14.945783,-49.530098
2697000000,-14.886766,-49.759182
2698000000,-14.868329,-49.823971
2699000000,-14.846457,-49.695213
2700000000,-14.835179,-49.93882
2701000000,-14.771753,-50.095448
2702000000,-14.710846,-50.296261
2703000000,-14.705801,-50.02383
2704000000,-14.717073,-50.114452
2705000000,-14.670799,-50.232338
2706000000,-14.620582,-50.393089
2707000000,-14.614676,-50.534489
2708000000,-14.556775,-50.858734
2709000000,-14.512993,-50.991619
2710000000,-14.561351,-50.826294
2711000000,-14.52199,-51.217213
2712000000,-14.484148,-51.11565
2713000000,-14.446905,-51.336365
2714000000,-14.421577,-51.582649
2715000000,-14.399953,-51.410271
2716000000,-14.391692,-51.78014
2717000000,-14.381198,-51.67062
2718000000,-14.322182,-51.779278
2719000000,-14.299813,-52.088581
2720000000,-14.287411,-51.94986
2721000000,-14.225057,-52.147842
2722000000,-14.194263,-52.309723
2723000000,-14.189352,-52.25848
2724000000,-14.179413,-52.465443
2725000000,-14.170691,-52.632004
2726000000,-14.143597,-52.730476
2727000000,-14.12019,-52.742153
2728000000,-14.115725,-53.004295
2729000000,-14.041197,-53.086781
2730000000,-14.031,-53.157772
2731000000,-14.01196,-53.309731
2732000000,-13.961076,-53.688343
2733000000,-13.998462,-53.543636
2734000000,-13.920714,-53.465744
2735000000,-13.90216,-53.988724
2736000000,-13.912019,-53.80772
2737000000,-13.863139,-53.85313
2738000000,-13.84799,-53.915859
2739000000,-13.793492,-54.250893
2740000000,-13.775588,-54.328526
2741000000,-13.763882,-54.275444
2742000000,-13.737141,-54.45314
2743000000,-13.708254,-54.508877
2744000000,-13.68285,-54.505531
2745000000,-13.675895,-54.646988
2746000000,-13.665705,-54.915417
2747000000,-13.642865,-54.751057
2748000000,-13.608007,-54.979641
2749000000,-13.593418,-55.212032
2750000000,-13.566128,-55.423775
2751000000,-13.559027,-55.61277
2752000000,-13.496396,-55.646961
2753000000,-13.509274,-55.564537
2754000000,-13.479589,-55.714226
2755000000,-13.445881,-55.626152
2756000000,-13.439989,-55.677891
2757000000,-13.404332,-55.943375
2758000000,-13.402752,-56.183815
2759000000,-13.368175,-56.325294
2760000000,-13.348812,-56.398724
2761000000,-13.363148,-56.585537
2762000000,-13.292157,-56.754333
2763000000,-13.29491,-56.713367
2764000000,-13.292555,-56.733665
2765000000,-13.25355,-57.01656
2766000000,-13.223221,-57.110374
2767000000,-13.182405,-57.071728
2768000000,-13.220539,-57.300213
2769000000,-13.161107,-57.394524
2770000000,-13.147536,-57.44482
2771000000,-13.117929,-57.706875
2772000000,-13.114188,-57.586014
2773000000,-13.078165,-57.67511
2774000000,-13.055241,-58.020805
2775000000,-13.024881,-57.856136
2776000000,-13.078884,-58.004433
2777000000,-12.985755,-58.335861
2778000000,-12.992163,-58.441154
2779000000,-12.946898,-58.450321
2780000000,-12.942627,-58.661648
2781000000,-12.921956,-58.792492
2782000000,-12.915216,-58.775513
2783000000,-12.892617,-58.557461
2784000000,-12.835629,-59.052353
2785000000,-12.858975,-59.078133
2786000000,-12.795988,-59.043968
2787000000,-12.846189,-59.424366
2788000000,-12.768161,-59.516125
2789000000,-12.766072,-59.525597
2790000000,-12.775253,-59.712185
2791000000,-12.721453,-59.983788
2792000000,-12.676182,-59.783268
2793000000,-12.71004,-60.031517
2794000000,-12.705936,-60.138504
2795000000,-12.645583,-60.179657
2796000000,-12.643436,-60.258183
2797000000,-12.617265,-60.479843
2798000000,-12.642179,-60.470181
2799000000,-12.578783,-60.680912
2800000000,-12.582908,-60.720104
2801000000,-12.580595,-60.566254
2802000000,-12.54638,-60.936634
2803000000,-12.494053,-60.978794
2804000000,-12.49122,-61.309513
2805000000,-12.490756,-61.277267
2806000000,-12.471493,-61.618141
2807000000,-12.445815,-61.386177
2808000000,-12.420053,-61.680763
2809000000,-12.40605,-61.679867
2810000000,-12.368971,-61.718143
2811000000,-12.39494,-62.006077
2812000000,-12.375356,-61.899887
2813000000,-12.350771,-62.322678
2814000000,-12.292701,-61.936237
2815000000,-12.303061,-62.386738
2816000000,-12.314523,-62.28841
2817000000,-12.249074,-62.636837
2818000000,-12.268619,-62.541828
2819000000,-12.212799,-62.476978
2820000000,-12.242473,-62.871727
2821000000,-12.221987,-62.951881
2822000000,-12.17601,-63.242882
2823000000,-12.168361,-62.955467
2824000000,-12.129354,-63.083717
2825000000,-12.134558,-63.272606
2826000000,-12.108077,-63.427105
2827000000,-12.128138,-63.737114
2828000000,-12.060725,-63.645145
2829000000,-12.04928,-63.735828
2830000000,-12.046011,-63.95525
2831000000,-12.031432,-64.096252
2832000000,-12.036567,-64.337372
2833000000,-11.988756,-64.286919
2834000000,-12.008926,-64.472511
2835000000,-11.946313,-64.525604
2836000000,-11.95746,-64.614563
2837000000,-11.955769,-64.584274
2838000000,-11.923513,-64.802742
2839000000,-11.94782,-64.99839
2840000000,-11.871184,-65.079926
2841000000,-11.920532,-65.05777
2842000000,-11.836183,-65.303726
2843000000,-11.815552,-65.45369
2844000000,-11.863317,-65.401917
2845000000,-11.801996,-65.532104
2846000000,-11.805408,-65.794296
2847000000,-11.760042,-66.026955
2848000000,-11.764502,-65.705353
2849000000,-11.757821,-65.825394
2850000000,-11.711054,-66.028862
2851000000,-11.702661,-66.159996
2852000000,-11.714808,-66.358025
2853000000,-11.681214,-66.335686
2854000000,-11.692603,-66.611595
2855000000,-11.67117,-66.597702
2856000000,-11.626082,-66.58831
2857000000,-11.620773,-66.888443
2858000000,-11.669637,-67.034012
2859000000,-11.59397,-67.013832
2860000000,-11.609648,-67.220551
2861000000,-11.579022,-67.489441
2862000000,-11.569797,-67.212502
2863000000,-11.553971,-67.587013
2864000000,-11.540765,-67.747734
2865000000,-11.502457,-67.576027
2866000000,-11.486074,-67.706131
2867000000,-11.511338,-68.005661
2868000000,-11.468561,-68.133919
2869000000,-11.471814,-68.08432
2870000000,-11.404652,-68.323486
2871000000,-11.424743,-68.41716
2872000000,-11.401499,-68.405075
2873000000,-11.38777,-68.879028
2874000000,-11.377449,-68.695152
2875000000,-11.403891,-68.766602
2876000000,-11.38604,-68.750542
2877000000,-11.401534,-69.104576
2878000000,-11.359421,-69.173157
2879000000,-11.372771,-69.341133
2880000000,-11.315628,-69.328796
2881000000,-11.309258,-69.459999
2882000000,-11.303391,-69.418556
2883000000,-11.256259,-69.431618
2884000000,-11.249999,-69.667274
2885000000,-11.263051,-69.894196
2886000000,-11.231521,-70.010582
2887000000,-11.214392,-70.183533
2888000000,-11.222746,-70.298302
2889000000,-11.198636,-70.145721
2890000000,-11.201431,-70.270958
2891000000,-11.177869,-70.250664
2892000000,-11.130354,-70.601242
2893000000,-11.163961,-71.004936
2894000000,-11.149933,-70.810814
2895000000,-11.105705,-70.975197
2896000000,-11.117496,-71.220436
2897000000,-11.084455,-71.164925
2898000000,-11.087136,-71.246086
2899000000,-11.051904,-71.207809
2900000000,-11.074714,-71.382339
2901000000,-11.019951,-71.781448
2902000000,-11.006014,-71.431419
2903000000,-11.031054,-71.780655
2904000000,-11.018267,-71.800789
2905000000,-11.026176,-71.87616
2906000000,-10.995164,-71.957985
2907000000,-10.993956,-72.296173
2908000000,-10.952538,-72.324051
2909000000,-10.970733,-72.072762
2910000000,-10.950139,-72.476555
2911000000,-10.983356,-72.635529
2912000000,-10.932646,-72.644966
2913000000,-10.914346,-72.714767
2914000000,-10.876058,-72.93689
2915000000,-10.89663,-72.916389
2916000000,-10.860915,-73.179642
2917000000,-10.817363,-73.111458
2918000000,-10.890388,-73.327766
2919000000,-10.8092,-73.52449
2920000000,-10.798941,-73.519073
2921000000,-10.810544,-73.729935
2922000000,-10.812142,-73.885239
2923000000,-10.792177,-73.647408
2924000000,-10.768391,-73.996368
2925000000,-10.798833,-74.032455
2926000000,-10.733446,-74.133072
2927000000,-10.751701,-74.366333
2928000000,-10.760692,-74.263756
2929000000,-10.726074,-74.439545
2930000000,-10.742443,-74.576866
2931000000,-10.732944,-74.647934
2932000000,-10.686962,-74.797142
2933000000,-10.707699,-74.885986
2934000000,-10.617868,-74.927933
2935000000,-10.659877,-75.268578
2936000000,-10.643349,-75.079979
2937000000,-10.633791,-75.420113
2938000000,-10.629665,-75.352921
2939000000,-10.604995,-75.416878
2940000000,-10.565168,-75.640541
2941000000,-10.585384,-75.50193
2942000000,-10.58927,-75.844803
2943000000,-10.573835,-76.014488
2944000000,-10.551672,-75.959045
2945000000,-10.55932,-76.169754
2946000000,-10.540353,-76.180367
2947000000,-10.51592,-76.455833
2948000000,-10.536349,-76.50518
2949000000,-10.535336,-76.720444
2950000000,-10.510169,-76.606979
2951000000,-10.536984,-76.532677
2952000000,-10.490345,-76.785797
2953000000,-10.483134,-76.952911
2954000000,-10.476388,-77.169357
2955000000,-10.456045,-77.254837
2956000000,-10.416146,-77.159798
2957000000,-10.415427,-77.62249
2958000000,-10.444063,-77.452515
2959000000,-10.405858,-77.589645
2960000000,-10.408128,-77.596199
2961000000,-10.380649,-77.597801
2962000000,-10.409645,-77.903694
2963000000,-10.425687,-78.056839
2964000000,-10.351933,-78.175209
2965000000,-10.342101,-78.235641
2966000000,-10.338408,-78.128876
2967000000,-10.331223,-78.168747
2968000000,-10.342107,-78.437553
2969000000,-10.296887,-78.508446
2970000000,-10.337751,-78.74482
2971000000,-10.325034,-78.715431
2972000000,-10.27066,-78.897194
2973000000,-10.248127,-78.910896
2974000000,-10.267036,-79.274208
2975000000,-10.27009,-79.138351
2976000000,-10.263916,-79.093102
2977000000,-10.257866,-79.232643
2978000000,-10.23966,-79.381355
2979000000,-10.204452,-79.641296
2980000000,-10.197472,-79.656662
2981000000,-10.194349,-79.606216
2982000000,-10.180285,-79.803055
2983000000,-10.172043,-79.950531
2984000000,-10.160141,-80.044556
2985000000,-10.172775,-80.301132
2986000000,-10.145597,-80.268845
2987000000,-10.148033,-80.372353
2988000000,-10.143434,-80.594078
2989000000,-10.131964,-80.88446
2990000000,-10.134111,-80.526512
2991000000,-10.106011,-80.771965
2992000000,-10.067718,-80.950493
2993000000,-10.102789,-81.032005
2994000000,-10.119211,-80.815331
2995000000,-10.076342,-81.046196
2996000000,-10.06995,-81.29892
2997000000,-10.038571,-81.600204
2998000000,-10.060777,-81.553612
2999000000,-10.044244,-81.6521
3000000000,-10.039391,-81.695831
3001000000,-10.004041,-81.765572
3002000000,-10.016827,-81.877945
3003000000,-10.02327,-81.896584
3004000000,-10.002403,-82.154121
3005000000,-9.9935656,-82.150917
3006000000,-9.9711905,-82.283676
3007000000,-9.9568949,-82.327988
3008000000,-9.9680805,-82.514511
3009000000,-9.9305115,-82.668747
3010000000,-9.9445839,-82.827545
3011000000,-9.9362154,-82.778618
3012000000,-9.8911352,-82.844887
3013000000,-9.94172,-83.059746
3014000000,-9.9272327,-82.964928
3015000000,-9.8776207,-83.136353
3016000000,-9.9049311,-83.407852
3017000000,-9.8704987,-83.613304
3018000000,-9.8570366,-83.688484
3019000000,-9.8991899,-83.640404
3020000000,-9.8485165,-83.691689
3021000000,-9.8488722,-83.823181
3022000000,-9.8272486,-83.768906
3023000000,-9.8475552,-84.038795
3024000000,-9.8425255,-84.246864
3025000000,-9.8250656,-84.251434
3026000000,-9.82446,-84.471298
3027000000,-9.8273611,-84.426933
3028000000,-9.7935181,-84.502724
3029000000,-9.7885494,-84.612007
3030000000,-9.7798223,-84.812218
3031000000,-9.7506895,-84.894203
3032000000,-9.7816057,-84.921364
3033000000,-9.7786026,-84.87294
3034000000,-9.7405176,-85.218719
3035000000,-9.7512922,-85.379211
3036000000,-9.7397261,-85.108246
3037000000,-9.7366724,-85.615257
3038000000,-9.743372,-85.411812
3039000000,-9.7628279,-85.740776
3040000000,-9.7094431,-85.755692
3041000000,-9.7137489,-85.850189
3042000000,-9.7045383,-85.687653
3043000000,-9.7206078,-85.941795
3044000000,-9.687397,-86.257561
3045000000,-9.6914339,-86.078453
3046000000,-9.6499662,-86.462074
3047000000,-9.6993904,-86.441772
3048000000,-9.6616316,-86.619652
3049000000,-9.6340208,-86.700043
3050000000,-9.6548672,-86.395287
3051000000,-9.6296091,-86.800499
3052000000,-9.6622725,-86.927643
3053000000,-9.6352806,-86.851631
3054000000,-9.6041794,-87.139633
3055000000,-9.6136189,-87.148605
3056000000,-9.5796614,-87.096809
3057000000,-9.6136646,-87.223381
3058000000,-9.5993853,-87.373398
3059000000,-9.5986385,-87.362595
3060000000,-9.5731792,-87.577202
3061000000,-9.5549908,-87.835213
3062000000,-9.6046963,-87.72319
3063000000,-9.5911903,-87.925781
3064000000,-9.5503988,-87.786095
3065000000,-9.5376186,-88.229904
3066000000,-9.5022011,-88.255737
3067000000,-9.51478,-88.056297
3068000000,-9.4888086,-88.578346
3069000000,-9.5495348,-88.59523
3070000000,-9.5129166,-88.671692
3071000000,-9.5197191,-88.766762
3072000000,-9.4952879,-88.893852
3073000000,-9.4890823,-88.964058
3074000000,-9.4971771,-88.842804
3075000000,-9.4833622,-88.988602
3076000000,-9.4766483,-89.148064
3077000000,-9.4578075,-89.097015
3078000000,-9.4362326,-89.290382
3079000000,-9.4759617,-89.43737
3080000000,-9.4376907,-89.43129
3081000000,-9.4622927,-89.781631
3082000000,-9.4148884,-90.04319
3083000000,-9.4375353,-89.816528
3084000000,-9.4018507,-89.889214
3085000000,-9.4269581,-89.961731
3086000000,-9.3723078,-90.271202
3087000000,-9.4175348,-90.318512
3088000000,-9.3967152,-90.255035
3089000000,-9.3666897,-90.54351
3090000000,-9.3900661,-90.696686
3091000000,-9.3849373,-90.557648
3092000000,-9.3652487,-90.767868
3093000000,-9.3948851,-90.639702
3094000000,-9.3876934,-90.853447
3095000000,-9.3735294,-91.027901
3096000000,-9.3305693,-91.057693
3097000000,-9.3681393,-91.460152
3098000000,-9.3603477,-91.175049
3099000000,-9.3634882,-91.278297
3100000000,-9.3415136,-91.308937
3101000000,-9.3656034,-91.550568
3102000000,-9.3389845,-91.65715
3103000000,-9.3437786,-91.83252
3104000000,-9.3229723,-91.964775
3105000000,-9.3048906,-91.944084
3106000000,-9.3519812,-92.266388
3107000000,-9.2891159,-92.225777
3108000000,-9.2661991,-92.351372
3109000000,-9.2940903,-92.235451
3110000000,-9.2995396,-92.630661
3111000000,-9.2855959,-92.558563
3112000000,-9.2626705,-92.680801
3113000000,-9.2215881,-92.687325
3114000000,-9.2444611,-92.927849
3115000000,-9.2692337,-92.905029
3116000000,-9.2187548,-92.795456
3117000000,-9.2387695,-92.996284
3118000000,-9.2595882,-93.125572
3119000000,-9.2040062,-93.052193
3120000000,-9.2313166,-93.280495
3121000000,-9.2299976,-93.42495
3122000000,-9.205205,-93.611206
3123000000,-9.209322,-93.722153
3124000000,-9.1953316,-93.650444
3125000000,-9.1937962,-93.761681
3126000000,-9.1977453,-93.931236
3127000000,-9.2021656,-94.028877
3128000000,-9.1714172,-94.018196
3129000000,-9.1980991,-93.958397
3130000000,-9.1781063,-94.500053
3131000000,-9.1670485,-94.560806
3132000000,-9.152319,-94.479027
3133000000,-9.1506586,-94.676826
3134000000,-9.1441069,-94.907608
3135000000,-9.1609764,-95.001427
3136000000,-9.1559372,-94.993469
3137000000,-9.1208086,-94.989006
3138000000,-9.1122513,-94.861565
3139000000,-9.1379566,-95.227173
3140000000,-9.119936,-95.331612
3141000000,-9.1403646,-95.255905
3142000000,-9.0909567,-95.370773
3143000000,-9.1210222,-95.585381
3144000000,-9.1151533,-95.683708
3145000000,-9.1451349,-95.69297
3146000000,-9.0827227,-95.971184
3147000000,-9.0734959,-95.819542
3148000000,-9.1003628,-95.800766
3149000000,-9.0879593,-95.873878
3150000000,-9.0723028,-96.317329
3151000000,-9.0614986,-96.485565
3152000000,-9.0697927,-96.389313
3153000000,-9.0737448,-96.47715
3154000000,-9.0264225,-96.466301
3155000000,-9.0498705,-96.436501
3156000000,-9.0514507,-96.316887
3157000000,-9.0394459,-97.122475
3158000000,-9.0564718,-96.8526
3159000000,-9.0309792,-96.91729
3160000000,-9.0206547,-96.951111
3161000000,-8.9880629,-97.150414
3162000000,-9.025547,-97.172424
3163000000,-8.9833708,-97.312798
3164000000,-9.0079985,-97.413567
3165000000,-9.0181608,-97.599434
3166000000,-9.0056982,-97.598801
3167000000,-9.0126266,-97.804459
3168000000,-8.9823074,-97.843803
3169000000,-8.9937572,-97.953499
3170000000,-8.9784803,-97.812225
3171000000,-8.9846163,-98.064079
3172000000,-8.9817057,-98.020241
3173000000,-8.9605303,-98.351425
3174000000,-8.9819355,-98.423958
3175000000,-8.9431257,-98.421432
3176000000,-8.9827948,-98.451164
3177000000,-8.9425764,-98.668678
3178000000,-8.9423313,-98.71077
3179000000,-8.9138384,-98.648888
3180000000,-8.9645805,-98.752472
3181000000,-8.9472818,-98.973991
3182000000,-8.9138527,-99.166222
3183000000,-8.9702387,-99.059441
3184000000,-8.9461546,-99.23542
3185000000,-8.9317675,-99.473175
3186000000,-8.9149323,-99.37812
3187000000,-8.9205999,-99.586884
3188000000,-8.9489775,-99.662834
3189000000,-8.8840208,-99.525345
3190000000,-8.9304953,-99.925003
3191000000,-8.9276133,-99.972153
3192000000,-8.9218674,-100.02299
3193000000,-8.896225,-99.99839
3194000000,-8.9371243,-100.15699
3195000000,-8.9079657,-100.19718
3196000000,-8.9178572,-100.44537
3197000000,-8.8981752,-100.52932
3198000000,-8.8600092,-100.62891
3199000000,-8.9114809,-100.58849
3200000000,-8.8606892,-100.86386
3201000000,-8.8947315,-100.67997
3202000000,-8.8418312,-100.89277
3203000000,-8.8598862,-100.80671
3204000000,-8.8524179,-101.05472
3205000000,-8.8438616,-101.06245
3206000000,-8.8541803,-101.12363
3207000000,-8.8461847,-101.11394
3208000000,-8.8294773,-101.39075
3209000000,-8.8449554,-101.59798
3210000000,-8.7850599,-101.42742
3211000000,-8.8472433,-101.51994
3212000000,-8.8184071,-101.67482
3213000000,-8.8680372,-101.97832
3214000000,-8.8302307,-102.01686
3215000000,-8.7969313,-101.99734
3216000000,-8.8207264,-102.10892
3217000000,-8.8148022,-102.10948
3218000000,-8.839673,-102.22139
3219000000,-8.8171263,-102.29267
3220000000,-8.7888231,-102.50957
3221000000,-8.8065453,-102.42376
3222000000,-8.8301296,-102.46719
3223000000,-8.803978,-102.78667
3224000000,-8.820632,-102.69543
3225000000,-8.757885,-102.91851
3226000000,-8.7633991,-103.02528
3227000000,-8.7637672,-102.92803
3228000000,-8.7809086,-103.08685
3229000000,-8.7689962,-103.48834
3230000000,-8.7554941,-103.24696
3231000000,-8.7693977,-103.3139
3232000000,-8.7943344,-103.2197
3233000000,-8.7837467,-103.54111
3234000000,-8.7321348,-103.75926
3235000000,-8.7737074,-103.64125
3236000000,-8.7728939,-103.59538
3237000000,-8.7422514,-103.63959
3238000000,-8.7792416,-104.00929
3239000000,-8.7535124,-103.85681
3240000000,-8.7527246,-104.10793
3241000000,-8.7506618,-104.38052
3242000000,-8.725605,-104.56312
3243000000,-8.7051344,-104.54639
3244000000,-8.7551804,-104.26683
3245000000,-8.7667217,-104.47021
3246000000,-8.7629757,-104.46467
3247000000,-8.7350483,-104.82323
3248000000,-8.7050695,-104.78687
3249000000,-8.7013731,-104.81903
3250000000,-8.7184544,-105.08297
3251000000,-8.7089081,-105.11382
3252000000,-8.7163849,-105.20881
3253000000,-8.7322426,-105.28061
3254000000,-8.7337112,-105.24402
3255000000,-8.6995687,-105.27792
3256000000,-8.7483368,-105.27484
3257000000,-8.7230749,-105.46694
3258000000,-8.716795,-105.51306
3259000000,-8.7050018,-105.59588
3260000000,-8.6881704,-106.06633
3261000000,-8.7028294,-105.87778
3262000000,-8.6528397,-105.96693
3263000000,-8.7293243,-105.96732
3264000000,-8.6791067,-106.20341
3265000000,-8.6633244,-106.15166
3266000000,-8.6873808,-106.25558
3267000000,-8.6590147,-106.2999
3268000000,-8.6629286,-106.40265
3269000000,-8.6545563,-106.33146
3270000000,-8.6441526,-106.57397
3271000000,-8.658186,-106.73398
3272000000,-8.6822691,-106.57623
3273000000,-8.6631775,-106.88748
3274000000,-8.6441164,-106.86868
3275000000,-8.6404963,-106.96182
3276000000,-8.6235447,-107.29135
3277000000,-8.625205,-107.08035
3278000000,-8.6375217,-107.21928
3279000000,-8.6875858,-107.3447
3280000000,-8.6405888,-107.37977
3281000000,-8.644681,-107.47353
3282000000,-8.6134586,-107.65926
3283000000,-8.5916309,-107.56923
3284000000,-8.6138039,-107.46088
3285000000,-8.6037178,-107.63353
3286000000,-8.6249361,-107.8476
3287000000,-8.6404734,-107.90611
3288000000,-8.6354485,-107.94125
3289000000,-8.6405764,-108.16729
3290000000,-8.6545238,-108.28873
3291000000,-8.6114588,-108.41693
3292000000,-8.6120653,-108.38251
3293000000,-8.6094427,-108.41026
3294000000,-8.6159983,-108.48725
3295000000,-8.6162376,-108.79314
3296000000,-8.5997534,-108.58786
3297000000,-8.5849648,-108.80769
3298000000,-8.5992126,-109.02205
3299000000,-8.6246815,-109.01652
3300000000,-8.6034231,-109.12847
3301000000,-8.6005287,-109.04124
3302000000,-8.5857534,-109.1241
3303000000,-8.5845175,-109.10857
3304000000,-8.5642309,-109.4533
3305000000,-8.5724764,-109.40971
3306000000,-8.5566959,-109.48154
3307000000,-8.5865631,-109.59614
3308000000,-8.5841694,-109.74001
3309000000,-8.5622234,-109.67662
3310000000,-8.557086,-109.77147
3311000000,-8.5872622,-109.89478
3312000000,-8.5884733,-110.15559
3313000000,-8.5575743,-110.11446
3314000000,-8.5709677,-109.89854
3315000000,-8.5763912,-110.26456
3316000000,-8.5466805,-110.22189
3317000000,-8.5690527,-110.44646
3318000000,-8.5415821,-110.59019
3319000000,-8.5431118,-110.62598
3320000000,-8.5494299,-110.49684
3321000000,-8.556675,-110.91937
3322000000,-8.5058222,-110.70681
3323000000,-8.5464239,-110.6474
3324000000,-8.5466146,-110.98533
3325000000,-8.546648,-111.16881
3326000000,-8.549099,-111.02691
3327000000,-8.5027466,-111.27195
3328000000,-8.5236664,-111.03051
3329000000,-8.5301781,-111.26965
3330000000,-8.5266705,-111.36747
3331000000,-8.5129404,-111.48501
3332000000,-8.5008154,-111.60643
3333000000,-8.5373554,-111.74303
3334000000,-8.526329,-111.74438
3335000000,-8.5615311,-111.89638
3336000000,-8.52876,-111.85551
3337000000,-8.5083942,-111.87876
3338000000,-8.5245352,-112.1125
3339000000,-8.5566158,-112.10477
3340000000,-8.5234556,-112.09893
3341000000,-8.5074263,-112.1638
3342000000,-8.5142584,-112.19257
3343000000,-8.4936762,-112.33318
3344000000,-8.5097694,-112.48634
3345000000,-8.4791708,-112.38393
3346000000,-8.4872665,-112.65327
3347000000,-8.5034409,-112.6402
3348000000,-8.4898176,-112.84897
3349000000,-8.5046043,-112.98675
3350000000,-8.4886599,-113.04412
3351000000,-8.4746103,-113.0286
3352000000,-8.4758482,-113.11807
3353000000,-8.4999189,-113.10754
3354000000,-8.4628105,-113.20139
3355000000,-8.4904089,-113.28208
3356000000,-8.4538822,-113.31118
3357000000,-8.4699812,-113.48698
3358000000,-8.4683809,-113.60593
3359000000,-8.4751158,-113.43565
3360000000,-8.4564505,-113.87273
3361000000,-8.4416037,-113.94479
3362000000,-8.4562769,-113.80283
3363000000,-8.4577179,-113.98734
3364000000,-8.4610672,-113.76759
3365000000,-8.4879169,-114.2079
3366000000,-8.4583731,-114.15051
3367000000,-8.4814138,-114.35291
3368000000,-8.445302,-114.05755
3369000000,-8.4666634,-114.31554
3370000000,-8.4643297,-114.4735
3371000000,-8.4640312,-114.35451
3372000000,-8.4490108,-114.58788
3373000000,-8.4489307,-114.66747
3374000000,-8.4630308,-114.79214
3375000000,-8.4472761,-114.66914
3376000000,-8.4586182,-115.05322
3377000000,-8.4817486,-114.87094
3378000000,-8.4511347,-115.02133
3379000000,-8.4346352,-115.20994
3380000000,-8.4582224,-115.38387
3381000000,-8.4342394,-115.17197
3382000000,-8.4293575,-115.35055
3383000000,-8.4369783,-115.56235
3384000000,-8.4471483,-115.62844
3385000000,-8.4494324,-115.6792
3386000000,-8.4554596,-115.82973
3387000000,-8.4242058,-115.72309
3388000000,-8.4444675,-115.93528
3389000000,-8.4131546,-116.11932
3390000000,-8.4422989,-115.84206
3391000000,-8.4065323,-116.15705
3392000000,-8.4207201,-116.01851
3393000000,-8.3790512,-116.12047
3394000000,-8.4308891,-116.16003
3395000000,-8.4225368,-116.3187
3396000000,-8.3972063,-116.21271
3397000000,-8.4069777,-116.48646
3398000000,-8.4395065,-116.6489
3399000000,-8.4208927,-116.68738
3400000000,-8.3902426,-116.85809
3401000000,-8.3993607,-116.84428
3402000000,-8.4108934,-116.91075
3403000000,-8.4180317,-116.92591
3404000000,-8.4271517,-117.06761
3405000000,-8.4135799,-117.0807
3406000000,-8.4020262,-117.21967
3407000000,-8.4142847,-117.24077
3408000000,-8.3624477,-117.26316
3409000000,-8.4197273,-117.46076
3410000000,-8.4118023,-117.3754
3411000000,-8.4021091,-117.5947
3412000000,-8.3935966,-117.60178
3413000000,-8.4052896,-117.65356
3414000000,-8.4053831,-117.70346
3415000000,-8.4212456,-117.82903
3416000000,-8.3781815,-117.87454
3417000000,-8.3853855,-117.91964
3418000000,-8.4059057,-118.29393
3419000000,-8.3838768,-118.31117
3420000000,-8.3904123,-118.2869
3421000000,-8.3871584,-118.31474
3422000000,-8.3741598,-118.41814
3423000000,-8.3671293,-118.44064
3424000000,-8.381319,-118.54195
3425000000,-8.381917,-118.50772
3426000000,-8.3803625,-118.65332
3427000000,-8.3654537,-118.78345
3428000000,-8.3679409,-118.6204
3429000000,-8.398159,-119.03424
3430000000,-8.3644056,-119.1756
3431000000,-8.3785229,-118.91432
3432000000,-8.3867731,-119.07394
3433000000,-8.3139801,-119.21066
3434000000,-8.3626471,-119.01495
3435000000,-8.3673687,-119.26102
3436000000,-8.3747044,-119.60037
3437000000,-8.3651333,-119.38182
3438000000,-8.3496513,-119.65408
3439000000,-8.3596134,-119.48151
3440000000,-8.3670845,-119.72139
3441000000,-8.3715534,-119.74487
3442000000,-8.347126,-119.90614
3443000000,-8.353056,-119.81758
3444000000,-8.3799648,-119.9777
3445000000,-8.3815737,-119.92133
3446000000,-8.377883,-120.11423
3447000000,-8.3547258,-120.13922
3448000000,-8.3780527,-120.07847
3449000000,-8.3900537,-120.11668
3450000000,-8.3541613,-120.63645
3451000000,-8.3749514,-120.49163
3452000000,-8.3490438,-120.52032
3453000000,-8.3452959,-120.66447
3454000000,-8.3751307,-120.66132
3455000000,-8.3275757,-120.69529
3456000000,-8.3521442,-120.79009
3457000000,-8.3386354,-121.14827
3458000000,-8.3658323,-120.85555
3459000000,-8.3489685,-120.86816
3460000000,-8.3417511,-121.07569
3461000000,-8.3623676,-121.3816
3462000000,-8.3585205,-121.31617
3463000000,-8.3352737,-121.24029
3464000000,-8.3395824,-121.46784
3465000000,-8.3155937,-121.31932
3466000000,-8.3561487,-121.48478
3467000000,-8.3412085,-121.55954
3468000000,-8.3195677,-121.60492
3469000000,-8.3301563,-121.63884
3470000000,-8.3321333,-121.76283
3471000000,-8.332943,-121.90306
3472000000,-8.3291979,-121.87799
3473000000,-8.3388624,-122.07494
3474000000,-8.3501844,-121.86729
3475000000,-8.3377619,-121.96008
3476000000,-8.3434563,-122.38983
3477000000,-8.3090286,-122.1715
3478000000,-8.3388929,-122.32278
3479000000,-8.3308611,-122.26834
3480000000,-8.3403225,-122.51014
3481000000,-8.323144,-122.69962
3482000000,-8.34867,-122.56074
3483000000,-8.3311577,-122.57458
3484000000,-8.3516827,-122.74039
3485000000,-8.3259726,-122.83542
3486000000,-8.3140821,-122.96806
3487000000,-8.3506479,-123.03899
3488000000,-8.3136902,-123.00529
3489000000,-8.3501139,-123.05839
3490000000,-8.3079767,-123.12523
3491000000,-8.308321,-123.21162
3492000000,-8.3384733,-123.32308
3493000000,-8.3238764,-123.39663
3494000000,-8.2944355,-123.27794
3495000000,-8.3410053,-123.60578
3496000000,-8.3111343,-123.69881
3497000000,-8.3425026,-123.81185
3498000000,-8.3141899,-123.91372
3499000000,-8.3007994,-123.87664
3500000000,-8.3032436,-123.6777
3501000000,-8.3124313,-123.80428
3502000000,-8.3417969,-124.03201
3503000000,-8.3312368,-124.14336
3504000000,-8.3061056,-124.05898
3505000000,-8.305192,-124.18693
3506000000,-8.3198195,-124.44898
3507000000,-8.2848482,-124.28077
3508000000,-8.3037882,-124.51205
3509000000,-8.2774868,-124.25726
3510000000,-8.2937469,-124.6241
3511000000,-8.3000746,-124.69473
3512000000,-8.3248615,-124.52493
3513000000,-8.3112345,-124.5672
3514000000,-8.3142977,-125.00801
3515000000,-8.2956085,-124.72126
3516000000,-8.309741,-125.11616
3517000000,-8.2746468,-124.93278
3518000000,-8.2985554,-125.09836
3519000000,-8.3001547,-125.20158
3520000000,-8.288744,-125.36797
3521000000,-8.2975416,-125.4444
3522000000,-8.302783,-125.33549
3523000000,-8.2895899,-125.37618
3524000000,-8.2737255,-125.50798
3525000000,-8.3433828,-125.38424
3526000000,-8.3020697,-125.5942
3527000000,-8.2931728,-125.62981
3528000000,-8.297204,-125.70827
3529000000,-8.3396692,-125.7057
3530000000,-8.3135538,-125.76791
3531000000,-8.2853155,-125.92052
3532000000,-8.3166132,-125.84202
3533000000,-8.2873411,-126.08813
3534000000,-8.3061504,-126.15218
3535000000,-8.273243,-126.15469
3536000000,-8.3142185,-126.22208
3537000000,-8.2920628,-126.27007
3538000000,-8.2642069,-126.51054
3539000000,-8.2990122,-126.49364
3540000000,-8.3159533,-126.66866
3541000000,-8.298152,-126.63936
3542000000,-8.2759933,-126.52819
3543000000,-8.2810841,-126.4698
3544000000,-8.2790623,-126.74261
3545000000,-8.2638235,-126.66306
3546000000,-8.2544241,-126.83432
3547000000,-8.2886553,-127.17471
3548000000,-8.3088913,-127.15685
3549000000,-8.2975702,-127.28725
3550000000,-8.304492,-127.20918
3551000000,-8.2754393,-127.21495
3552000000,-8.2797956,-127.42028
3553000000,-8.2550402,-127.19466
3554000000,-8.2915277,-127.36768
3555000000,-8.2984276,-127.54242
3556000000,-8.2987452,-127.5032
3557000000,-8.2773857,-127.68094
3558000000,-8.2970304,-127.73177
3559000000,-8.2415066,-127.77421
3560000000,-8.2852535,-127.61828
3561000000,-8.2514048,-127.87487
3562000000,-8.2896242,-127.75155
3563000000,-8.2766962,-128.03726
3564000000,-8.2809849,-127.84824
3565000000,-8.2640123,-127.99857
3566000000,-8.2722864,-127.92854
3567000000,-8.2619572,-128.27916
3568000000,-8.3010225,-128.38518
3569000000,-8.2966385,-128.47864
3570000000,-8.3072214,-128.42915
3571000000,-8.2708387,-128.49225
3572000000,-8.2833414,-128.34196
3573000000,-8.2704773,-128.78821
3574000000,-8.2571306,-128.63007
3575000000,-8.2396889,-128.75378
3576000000,-8.282486,-128.84093
3577000000,-8.2938185,-128.87238
3578000000,-8.2926226,-129.01007
3579000000,-8.2629318,-129.15192
3580000000,-8.2484751,-129.1058
3581000000,-8.2561626,-129.00652
3582000000,-8.2484703,-129.13042
3583000000,-8.266818,-129.16956
3584000000,-8.2682695,-129.14539
3585000000,-8.2707376,-129.36072
3586000000,-8.261466,-129.57306
3587000000,-8.2339058,-129.46442
3588000000,-8.2523108,-129.49008
3589000000,-8.2310305,-129.53175
3590000000,-8.2633715,-129.84021
3591000000,-8.2778578,-129.89119
3592000000,-8.2737989,-129.81075
3593000000,-8.2745609,-129.76437
3594000000,-8.2513037,-129.83752
3595000000,-8.2466221,-130.16769
3596000000,-8.255044,-130.13002
3597000000,-8.2783442,-130.16167
3598000000,-8.2644663,-130.09886
3599000000,-8.2378864,-130.25215
3600000000,-8.2351751,-130.24847
3601000000,-8.257226,-130.35825
3602000000,-8.243475,-130.50581
3603000000,-8.247488,-130.75702
3604000000,-8.2464523,-130.73639
3605000000,-8.2559185,-130.64873
3606000000,-8.2621536,-130.76355
3607000000,-8.2479935,-130.84174
3608000000,-8.2104473,-130.72845
3609000000,-8.2302618,-130.9068
3610000000,-8.2566223,-130.89133
3611000000,-8.234086,-130.86313
3612000000,-8.2791595,-131.006
3613000000,-8.2328434,-131.28798
3614000000,-8.2635622,-131.24777
3615000000,-8.24403,-131.47289
3616000000,-8.2335253,-131.15807
3617000000,-8.2381363,-131.32938
3618000000,-8.2396049,-131.50121
3619000000,-8.2259369,-131.55743
3620000000,-8.2314005,-131.64417
3621000000,-8.2303505,-131.64464
3622000000,-8.2422209,-131.79333
3623000000,-8.2389107,-131.94066
3624000000,-8.2414513,-131.74843
3625000000,-8.2549067,-131.85072
3626000000,-8.2071266,-132.05931
3627000000,-8.2219477,-132.1104
3628000000,-8.244132,-131.96814
3629000000,-8.2178898,-132.03397
3630000000,-8.2327576,-132.21216
3631000000,-8.2237825,-132.25652
3632000000,-8.2598553,-132.22234
3633000000,-8.1997547,-132.4949
3634000000,-8.2335835,-132.44032
3635000000,-8.2427759,-132.42233
3636000000,-8.2267437,-132.68849
3637000000,-8.2637854,-132.81847
3638000000,-8.2335482,-132.71559
3639000000,-8.233778,-132.70131
3640000000,-8.2353363,-132.77946
3641000000,-8.2425003,-132.81134
3642000000,-8.253336,-132.80029
3643000000,-8.2350597,-133.16197
3644000000,-8.2460842,-132.92584
3645000000,-8.2270536,-133.23959
3646000000,-8.2347136,-133.24934
3647000000,-8.2346392,-133.22481
3648000000,-8.2228889,-133.27711
3649000000,-8.2267075,-133.49033
3650000000,-8.2126513,-133.40709
3651000000,-8.2477942,-133.55881
3652000000,-8.2130194,-133.64174
3653000000,-8.1975689,-133.68037
3654000000,-8.2381687,-133.67462
3655000000,-8.2129602,-133.81674
3656000000,-8.238307,-133.78366
3657000000,-8.21066,-133.68445
3658000000,-8.2125111,-133.83409
3659000000,-8.2207117,-134.08131
3660000000,-8.2097702,-134.02907
3661000000,-8.2546215,-134.08835
3662000000,-8.2237825,-134.01674
3663000000,-8.2325029,-134.19385
3664000000,-8.2526865,-134.09061
3665000000,-8.2402983,-134.15536
3666000000,-8.2293196,-134.31871
3667000000,-8.2501869,-134.53894
3668000000,-8.2242994,-134.41795
3669000000,-8.2101259,-134.51292
3670000000,-8.248127,-134.48564
3671000000,-8.2167912,-134.75471
3672000000,-8.2154303,-134.58772
3673000000,-8.2317162,-134.83144
3674000000,-8.2178354,-134.78752
3675000000,-8.212327,-134.84264
3676000000,-8.2049503,-134.93672
3677000000,-8.237319,-134.86787
3678000000,-8.2219572,-135.03242
3679000000,-8.1989431,-135.22659
3680000000,-8.2338219,-135.2
3681000000,-8.2237797,-135.21152
3682000000,-8.2084913,-135.41475
3683000000,-8.2212801,-135.29547
3684000000,-8.2260208,-135.37558
3685000000,-8.231348,-135.49716
3686000000,-8.2203865,-135.66716
3687000000,-8.2501183,-135.73445
3688000000,-8.2084789,-135.75507
3689000000,-8.1841345,-135.72252
3690000000,-8.2120838,-135.86743
3691000000,-8.2040653,-135.92686
3692000000,-8.2308626,-135.98073
3693000000,-8.1963034,-136.01035
3694000000,-8.2092857,-136.17996
3695000000,-8.2032633,-136.32385
3696000000,-8.2009258,-136.34312
3697000000,-8.2107038,-136.10597
3698000000,-8.2211418,-136.11868
3699000000,-8.2147417,-136.28725
3700000000,-8.2146845,-136.30356
3701000000,-8.2111092,-136.48318
3702000000,-8.245698,-136.67529
3703000000,-8.2244177,-136.34796
3704000000,-8.2468357,-136.62126
3705000000,-8.2020874,-136.64827
3706000000,-8.2019024,-136.60609
3707000000,-8.2088356,-136.64716
3708000000,-8.2061462,-136.9899
3709000000,-8.1864491,-136.9391
3710000000,-8.203434,-136.7894
3711000000,-8.2275114,-136.87987
3712000000,-8.1997261,-137.10309
3713000000,-8.2289295,-137.19919
3714000000,-8.2068787,-136.98605
3715000000,-8.219636,-137.39656
3716000000,-8.2108593,-137.24495
3717000000,-8.1655569,-137.31828
3718000000,-8.2032261,-137.41902
3719000000,-8.2046356,-137.52411
3720000000,-8.2036676,-137.6237
3721000000,-8.2082605,-137.65514
3722000000,-8.1689787,-137.72371
3723000000,-8.2106314,-137.75124
3724000000,-8.2042074,-137.56401
3725000000,-8.196044,-137.80403
3726000000,-8.1990995,-137.83804
3727000000,-8.2230034,-137.95854
3728000000,-8.1961498,-138.14854
3729000000,-8.1927938,-138.10764
3730000000,-8.1854668,-138.22995
3731000000,-8.1923037,-138.10374
3732000000,-8.2101078,-138.24466
3733000000,-8.2132301,-138.1264
3734000000,-8.1957083,-138.22749
3735000000,-8.1895533,-138.39018
3736000000,-8.2070379,-138.40918
3737000000,-8.2008953,-138.61844
3738000000,-8.2059126,-138.55164
3739000000,-8.1830463,-138.4688
3740000000,-8.2241468,-138.59846
3741000000,-8.1825342,-138.76463
3742000000,-8.2103395,-138.72177
3743000000,-8.1975222,-138.92307
3744000000,-8.200491,-138.84526
3745000000,-8.2006922,-139.00417
3746000000,-8.1766825,-138.89978
3747000000,-8.1852446,-139.08794
3748000000,-8.1722364,-139.21648
3749000000,-8.2057629,-139.28568
3750000000,-8.196353,-139.25067
3751000000,-8.1965904,-139.3385
3752000000,-8.1864004,-139.51967
3753000000,-8.1622295,-139.34262
3754000000,-8.2148952,-139.39687
3755000000,-8.1888494,-139.35556
3756000000,-8.1718197,-139.66963
3757000000,-8.1719542,-139.51331
3758000000,-8.2151194,-139.87131
3759000000,-8.1866283,-139.83403
3760000000,-8.1966095,-139.81473
3761000000,-8.2247686,-139.95734
3762000000,-8.1994963,-140.05379
3763000000,-8.1804781,-140.02617
3764000000,-8.1890583,-140.28296
3765000000,-8.1611204,-140.13161
3766000000,-8.1804075,-140.01547
3767000000,-8.1668129,-140.05045
3768000000,-8.1781816,-140.38194
3769000000,-8.1829414,-140.32751
3770000000,-8.1816521,-140.452
3771000000,-8.192297,-140.37343
3772000000,-8.1961775,-140.43106
3773000000,-8.1849251,-140.59995
3774000000,-8.1712999,-140.64758
3775000000,-8.1964378,-140.74458
3776000000,-8.1751251,-140.77075
3777000000,-8.1624508,-140.63847
3778000000,-8.1972561,-140.88466
3779000000,-8.1735983,-140.98555
3780000000,-8.1738529,-140.9935
3781000000,-8.198967,-141.13409
3782000000,-8.1937704,-140.90932
3783000000,-8.2033873,-141.10284
3784000000,-8.1707916,-141.19147
3785000000,-8.1836758,-141.29721
3786000000,-8.1728611,-141.29964
3787000000,-8.1665792,-141.4005
3788000000,-8.1931372,-141.46471
3789000000,-8.1751976,-141.47855
3790000000,-8.1899614,-141.60471
3791000000,-8.1663837,-141.45709
3792000000,-8.1869049,-141.76341
3793000000,-8.1814156,-141.47063
3794000000,-8.1605339,-141.68793
3795000000,-8.2033396,-141.75734
3796000000,-8.1785021,-141.9465
3797000000,-8.2003679,-141.66296
3798000000,-8.1568336,-141.90549
3799000000,-8.1731024,-142.09438
3800000000,-8.1801786,-141.87109
3801000000,-8.1562319,-141.98665
3802000000,-8.1900806,-141.8869
3803000000,-8.2015972,-142.19882
3804000000,-8.1670065,-142.4537
3805000000,-8.1739397,-142.24429
3806000000,-8.1724539,-142.29494
3807000000,-8.1859484,-142.32167
3808000000,-8.1558924,-142.49315
3809000000,-8.177249,-142.56488
3810000000,-8.166482,-142.65839
3811000000,-8.1359291,-142.63158
3812000000,-8.1641846,-142.71762
3813000000,-8.1793337,-142.70309
3814000000,-8.1630402,-142.91216
3815000000,-8.1575041,-142.6812
3816000000,-8.1511946,-143.04106
3817000000,-8.1673174,-143.08368
3818000000,-8.1685495,-142.97142
3819000000,-8.1579046,-142.89557
3820000000,-8.171608,-143.22986
3821000000,-8.1550198,-143.36552
3822000000,-8.1633339,-143.05815
3823000000,-8.1710911,-143.05637
3824000000,-8.1524439,-143.43828
3825000000,-8.1424618,-143.32597
3826000000,-8.1706543,-143.47144
3827000000,-8.1400852,-143.38658
3828000000,-8.1657791,-143.44502
3829000000,-8.1589613,-143.51753
3830000000,-8.1525831,-143.73199
3831000000,-8.1871119,-143.84988
3832000000,-8.1539774,-143.75235
3833000000,-8.1524286,-143.71298
3834000000,-8.1623402,-143.83067
3835000000,-8.1430855,-143.87946
3836000000,-8.1540489,-143.93454
3837000000,-8.1378403,-143.98784
3838000000,-8.1186724,-143.94531
3839000000,-8.1484632,-144.22916
3840000000,-8.1404209,-144.14986
3841000000,-8.168314,-144.26094
3842000000,-8.1658249,-144.15126
3843000000,-8.1350918,-144.34482
3844000000,-8.135891,-144.22815
3845000000,-8.1664047,-144.44127
3846000000,-8.1460161,-144.53458
3847000000,-8.1443329,-144.51108
3848000000,-8.1388884,-144.49449
3849000000,-8.1208992,-144.73334
3850000000,-8.154047,-144.6122
3851000000,-8.1352654,-144.71043
3852000000,-8.1278896,-144.86211
3853000000,-8.170476,-144.95508
3854000000,-8.1568975,-144.85779
3855000000,-8.1345568,-144.85986
3856000000,-8.1687346,-144.85579
3857000000,-8.1499767,-145.04965
3858000000,-8.1553049,-145.08987
3859000000,-8.1399984,-145.27258
3860000000,-8.1436863,-145.24692
3861000000,-8.1444225,-145.27536
3862000000,-8.1519184,-145.22647
3863000000,-8.1165285,-145.33136
3864000000,-8.138732,-145.42288
3865000000,-8.1439342,-145.5228
3866000000,-8.1455183,-145.6026
3867000000,-8.1280613,-145.6004
3868000000,-8.1329517,-145.71732
3869000000,-8.1365509,-145.89748
3870000000,-8.1429548,-145.78915
3871000000,-8.1642866,-145.83136
3872000000,-8.1499739,-145.61841
3873000000,-8.1524725,-145.79524
3874000000,-8.1468239,-145.7876
3875000000,-8.159914,-146.11218
3876000000,-8.1213503,-146.04091
3877000000,-8.1179314,-145.96155
3878000000,-8.1490755,-146.21338
3879000000,-8.1189289,-146.26271
3880000000,-8.1369152,-146.29068
3881000000,-8.1492996,-146.38922
3882000000,-8.1459551,-146.32985
3883000000,-8.1436911,-146.61644
3884000000,-8.1487265,-146.42784
3885000000,-8.1361494,-146.59789
3886000000,-8.1584435,-146.56099
3887000000,-8.1184063,-146.51271
3888000000,-8.1359348,-146.71397
3889000000,-8.1262608,-146.86562
3890000000,-8.1197729,-146.7917
3891000000,-8.1554909,-146.80818
3892000000,-8.1060171,-146.90068
3893000000,-8.1198311,-147.05197
3894000000,-8.1125221,-146.98404
3895000000,-8.1306276,-146.96887
3896000000,-8.1373386,-147.15248
3897000000,-8.1068611,-147.23235
3898000000,-8.1281948,-147.09174
3899000000,-8.120451,-147.37737
3900000000,-8.144393,-147.2961
3901000000,-8.1225157,-147.48236
3902000000,-8.1388769,-147.43474
3903000000,-8.1339235,-147.70541
3904000000,-8.1229601,-147.5488
3905000000,-8.1272364,-147.78146
3906000000,-8.1240129,-147.48793
3907000000,-8.1563044,-147.60164
3908000000,-8.1415749,-147.81647
3909000000,-8.1048107,-147.78302
3910000000,-8.1215544,-147.84344
3911000000,-8.1160879,-147.92406
3912000000,-8.1083984,-148.09285
3913000000,-8.1189213,-147.97447
3914000000,-8.1228743,-148.05513
3915000000,-8.1378021,-148.1644
3916000000,-8.1276178,-148.06828
3917000000,-8.1022148,-148.14514
3918000000,-8.0878134,-148.00516
3919000000,-8.1448698,-148.12314
3920000000,-8.1300735,-148.28391
3921000000,-8.0809879,-148.39716
3922000000,-8.1203947,-148.43254
3923000000,-8.1111841,-148.37726
3924000000,-8.1111689,-148.39647
3925000000,-8.1136894,-148.63687
3926000000,-8.0932264,-148.61598
3927000000,-8.1129446,-148.66708
3928000000,-8.1032152,-148.51152
3929000000,-8.1210184,-148.85674
3930000000,-8.1309385,-148.61697
3931000000,-8.0953989,-148.81953
3932000000,-8.0901527,-148.89467
3933000000,-8.0890045,-148.88489
3934000000,-8.112874,-149.08206
3935000000,-8.096406,-149.04649
3936000000,-8.0857143,-149.03871
3937000000,-8.1026716,-149.21533
3938000000,-8.1080379,-149.38159
3939000000,-8.1359682,-149.33382
3940000000,-8.1197052,-149.4687
3941000000,-8.0977058,-149.23048
3942000000,-8.0844755,-149.44112
3943000000,-8.0892544,-149.45485
3944000000,-8.0908794,-149.68813
3945000000,-8.1142302,-149.66028
3946000000,-8.1037788,-149.78944
3947000000,-8.1037703,-149.65216
3948000000,-8.0879345,-149.84775
3949000000,-8.0667229,-149.6722
3950000000,-8.1025133,-149.72253
3951000000,-8.0794296,-150.05301
3952000000,-8.0920811,-149.71486
3953000000,-8.0774298,-150.00452
3954000000,-8.0938892,-149.9604
3955000000,-8.0986471,-150.07114
3956000000,-8.0735102,-150.1628
3957000000,-8.1030226,-150.24397
3958000000,-8.0794525,-150.30037
3959000000,-8.0745087,-150.21593
3960000000,-8.1052494,-150.36609
3961000000,-8.1005831,-150.50647
3962000000,-8.0811968,-150.50354
3963000000,-8.0800695,-150.38405
3964000000,-8.0834026,-150.53729
3965000000,-8.0530214,-150.61789
3966000000,-8.0482693,-150.72444
3967000000,-8.0689392,-150.74974
3968000000,-8.0846319,-150.9021
3969000000,-8.1040764,-150.54854
3970000000,-8.1167812,-150.73978
3971000000,-8.0722008,-151.01956
3972000000,-8.0836458,-150.88251
3973000000,-8.0629616,-151.05722
3974000000,-8.0627003,-151.00714
3975000000,-8.0708742,-151.20724
3976000000,-8.0887089,-151.03783
3977000000,-8.0635195,-151.27669
3978000000,-8.0599318,-151.20474
3979000000,-8.0618315,-151.2598
3980000000,-8.0507421,-151.37337
3981000000,-8.0870066,-151.60818
3982000000,-8.0678215,-151.39967
3983000000,-8.051609,-151.41037
3984000000,-8.0777416,-151.32872
3985000000,-8.043519,-151.67343
3986000000,-8.0786753,-151.68976
3987000000,-8.0554047,-151.67787
3988000000,-8.0600662,-151.6683
3989000000,-8.0393457,-151.84668
3990000000,-8.0557432,-151.71735
3991000000,-8.0719252,-151.79591
3992000000,-8.0418005,-151.96378
3993000000,-8.0934906,-152.07545
3994000000,-8.0723419,-152.1953
3995000000,-8.0842886,-151.98756
3996000000,-8.0473852,-152.15941
3997000000,-8.0653944,-152.08392
3998000000,-8.0592299,-152.20848
3999000000,-8.0834084,-152.26897
4000000000,-8.0451412,-152.57855
4001000000,-8.0422516,-152.34515
4002000000,-8.0549879,-152.37366
4003000000,-8.0748444,-152.38922
4004000000,-8.062726,-152.35689
4005000000,-8.047307,-152.45921
4006000000,-8.0447254,-152.604
4007000000,-8.0638828,-152.61583
4008000000,-8.0460424,-152.53842
4009000000,-8.0685844,-152.67914
4010000000,-8.0529232,-152.66658
4011000000,-8.0511761,-152.85953
4012000000,-8.0517092,-152.83008
4013000000,-8.0550737,-152.86511
4014000000,-8.056695,-152.89311
4015000000,-8.0416794,-153.10992
4016000000,-8.0320463,-153.11485
4017000000,-8.0476627,-152.99847
4018000000,-8.0561838,-153.13751
4019000000,-8.0394115,-153.43883
4020000000,-8.0444899,-153.13127
4021000000,-8.0275869,-153.3246
4022000000,-8.0374289,-153.35434
4023000000,-8.0470676,-153.32697
4024000000,-8.014883,-153.37262
4025000000,-8.016654,-153.52632
4026000000,-8.014225,-153.49886
4027000000,-8.0351267,-153.62134
4028000000,-8.0493765,-153.62611
4029000000,-8.0487194,-153.64243
4030000000,-8.0290728,-153.90001
4031000000,-8.0464439,-153.88931
4032000000,-8.0127373,-153.82628
4033000000,-8.0406389,-153.90558
4034000000,-8.0373583,-153.99475
4035000000,-8.043088,-153.9122
4036000000,-8.028286,-154.16612
4037000000,-8.0470619,-153.95168
4038000000,-8.0458422,-154.14784
4039000000,-8.0088434,-154.30161
4040000000,-8.0386763,-154.23875
4041000000,-8.0617685,-154.37111
4042000000,-8.0314503,-154.29388
4043000000,-8.0418692,-154.49115
4044000000,-8.038187,-154.56708
4045000000,-8.0117502,-154.57649
4046000000,-8.0125189,-154.46135
4047000000,-8.0178976,-154.49486
4048000000,-8.0291252,-154.82449
4049000000,-8.0450716,-154.60138
4050000000,-8.0188437,-154.89725
4051000000,-8.0090904,-154.69855
4052000000,-8.0174475,-154.94147
4053000000,-8.0075598,-154.77354
4054000000,-8.0190725,-155.09132
4055000000,-8.0159454,-155.00082
4056000000,-7.987205,-155.20563
4057000000,-7.9879074,-155.08755
4058000000,-8.0086069,-155.21115
4059000000,-8.0142622,-155.19426
4060000000,-8.0071468,-155.16423
4061000000,-8.0176487,-155.17516
4062000000,-7.9993472,-155.33456
4063000000,-7.993659,-155.44025
4064000000,-8.002223,-155.37108
4065000000,-8.0031052,-155.58752
4066000000,-8.0073557,-155.49146
4067000000,-7.9549308,-155.59975
4068000000,-7.9785476,-155.45189
4069000000,-8.0092878,-155.81963
4070000000,-7.9654093,-155.67747
4071000000,-7.9929824,-155.7534
4072000000,-8.0036993,-155.80139
4073000000,-8.0097742,-155.89673
4074000000,-8.0010262,-156.01836
4075000000,-7.9970584,-155.88965
4076000000,-8.0145235,-155.95428
4077000000,-7.9989219,-156.02211
4078000000,-8.0229139,-156.08984
4079000000,-8.0077496,-156.17746
4080000000,-8.0079718,-156.19008
4081000000,-7.9734416,-156.06709
4082000000,-8.003521,-156.20831
4083000000,-7.9788971,-156.37915
4084000000,-7.9602695,-156.25233
4085000000,-7.9805079,-156.56725
4086000000,-7.9782639,-156.58272
4087000000,-7.9838877,-156.56908
4088000000,-8.0054827,-156.74947
4089000000,-7.9967108,-156.6011
4090000000,-7.9634724,-156.73717
4091000000,-7.9681549,-156.77632
4092000000,-7.9699402,-156.86134
4093000000,-7.9710026,-156.74232
4094000000,-8.0024605,-156.94972
4095000000,-8.0020952,-157.02014
4096000000,-7.9823785,-156.99144
4097000000,-7.9899378,-157.0697
4098000000,-7.964798,-157.20671
4099000000,-7.9835005,-157.16852
4100000000,-7.982338,-157.10349
4101000000,-7.9622803,-157.1351
4102000000,-7.9709425,-157.27547
4103000000,-7.9950399,-157.34607
4104000000,-7.9490767,-157.33101
4105000000,-7.9736814,-157.41304
4106000000,-7.9705901,-157.49132
4107000000,-7.9606867,-157.47253
4108000000,-7.9733057,-157.45523
4109000000,-7.9634743,-157.6593
4110000000,-7.9499984,-157.46443
4111000000,-7.9644098,-157.72052
4112000000,-7.9462204,-157.65746
4113000000,-7.9702115,-157.75468
4114000000,-7.9420123,-157.84778
4115000000,-7.9307351,-157.87442
4116000000,-7.9494829,-157.82098
4117000000,-7.9539146,-158.04901
4118000000,-7.9576616,-157.9393
4119000000,-7.963141,-158.07362
4120000000,-7.9387569,-157.97276
4121000000,-7.9419265,-158.37471
4122000000,-7.9165978,-158.28204
4123000000,-7.9529691,-158.4263
4124000000,-7.9092669,-158.27548
4125000000,-7.9393125,-158.32201
4126000000,-7.9194508,-158.42628
4127000000,-7.9262819,-158.3728
4128000000,-7.9245543,-158.36145
4129000000,-7.9188676,-158.54921
4130000000,-7.9239116,-158.77145
4131000000,-7.9184141,-158.64827
4132000000,-7.9166932,-158.79596
4133000000,-7.9323769,-158.80865
4134000000,-7.9049821,-159.01102
4135000000,-7.9227571,-158.75481
4136000000,-7.9484806,-158.84184
4137000000,-7.935565,-159.04532
4138000000,-7.9280868,-159.02429
4139000000,-7.9217525,-159.02795
4140000000,-7.9430637,-159.209
4141000000,-7.8986926,-159.1618
4142000000,-7.9272389,-159.15921
4143000000,-7.9177785,-159.18871
4144000000,-7.9068422,-159.22328
4145000000,-7.8975906,-159.34367
4146000000,-7.912313,-159.40176
4147000000,-7.9047623,-159.48898
4148000000,-7.8913145,-159.55658
4149000000,-7.9107361,-159.46983
4150000000,-7.9150414,-159.58287
4151000000,-7.9346318,-159.53975
4152000000,-7.9300318,-159.62933
4153000000,-7.9167247,-159.76566
4154000000,-7.9118409,-159.88451
4155000000,-7.9214845,-159.74275
4156000000,-7.9062643,-159.77829
4157000000,-7.9149132,-159.88512
4158000000,-7.9111032,-160.13266
4159000000,-7.8924413,-159.85007
4160000000,-7.9121933,-160.14827
4161000000,-7.8980799,-160.11356
4162000000,-7.9021773,-160.0696
4163000000,-7.8804717,-159.98801
4164000000,-7.8785539,-160.10239
4165000000,-7.8719301,-160.2569
4166000000,-7.875844,-160.32201
4167000000,-7.8607445,-160.30179
4168000000,-7.8693318,-160.31067
4169000000,-7.8763862,-160.48627
4170000000,-7.8843188,-160.60855
4171000000,-7.8850775,-160.4131
4172000000,-7.829771,-160.66898
4173000000,-7.840394,-160.6292
4174000000,-7.8623776,-160.67067
4175000000,-7.8667402,-160.59001
4176000000,-7.8670607,-160.82628
4177000000,-7.8499885,-160.81781
4178000000,-7.8718596,-160.6328
4179000000,-7.8280797,-160.93283
4180000000,-7.8608866,-160.98868
4181000000,-7.8462582,-160.9111
4182000000,-7.8338132,-160.92134
4183000000,-7.8672447,-160.87791
4184000000,-7.885066,-161.14691
4185000000,-7.8343678,-161.04315
4186000000,-7.8786907,-161.09901
4187000000,-7.8698235,-161.3273
4188000000,-7.8483124,-161.24261
4189000000,-7.8184528,-161.2621
4190000000,-7.8261485,-161.52467
4191000000,-7.8264318,-161.58917
4192000000,-7.8483195,-161.45085
4193000000,-7.8520455,-161.51355
4194000000,-7.8490038,-161.55988
4195000000,-7.8314829,-161.65575
4196000000,-7.8329,-161.58322
4197000000,-7.8355641,-161.7023
4198000000,-7.8380027,-161.72047
4199000000,-7.8318105,-161.80556
4200000000,-7.819109,-161.79477
4201000000,-7.8153811,-162.02158
4202000000,-7.8310833,-161.88174
4203000000,-7.8336277,-161.79585
4204000000,-7.8310385,-162.13023
4205000000,-7.8216043,-162.18614
4206000000,-7.8351126,-162.07542
4207000000,-7.8328056,-162.17451
4208000000,-7.841476,-162.01585
4209000000,-7.8010421,-162.41054
4210000000,-7.7889147,-162.35089
4211000000,-7.7906036,-162.33374
4212000000,-7.8149862,-162.49028
4213000000,-7.8005176,-162.42949
4214000000,-7.8028979,-162.52226
4215000000,-7.7913027,-162.57407
4216000000,-7.790607,-162.64934
4217000000,-7.7834406,-162.73619
4218000000,-7.7893867,-162.763
4219000000,-7.784265,-162.77794
4220000000,-7.8036213,-162.66577
4221000000,-7.8087473,-162.9039
4222000000,-7.7769675,-162.9751
4223000000,-7.7840362,-163.10857
4224000000,-7.7983313,-163.07608
4225000000,-7.779902,-163.03233
4226000000,-7.7636428,-163.00313
4227000000,-7.7670507,-163.28784
4228000000,-7.7665091,-163.29112
4229000000,-7.7741804,-163.12544
4230000000,-7.7847934,-163.27509
4231000000,-7.7734766,-163.3226
4232000000,-7.7579765,-163.3701
4233000000,-7.7989001,-163.61554
4234000000,-7.7726994,-163.55176
4235000000,-7.7529354,-163.63655
4236000000,-7.7692924,-163.59372
4237000000,-7.767571,-163.68047
4238000000,-7.7716641,-163.53795
4239000000,-7.798728,-163.7415
4240000000,-7.7528734,-163.69299
4241000000,-7.7384996,-163.79402
4242000000,-7.7565069,-163.82231
4243000000,-7.7547603,-163.97922
4244000000,-7.7443781,-164.11295
4245000000,-7.7503467,-164.00902
4246000000,-7.7334085,-164.04829
4247000000,-7.7431002,-164.16209
4248000000,-7.7700777,-164.05696
4249000000,-7.7245274,-164.17715
4250000000,-7.7424598,-164.11723
4251000000,-7.71032,-164.29555
4252000000,-7.7656584,-164.40805
4253000000,-7.7503495,-164.34149
4254000000,-7.7148852,-164.44171
4255000000,-7.7574935,-164.45778
4256000000,-7.6935925,-164.46426
4257000000,-7.7132416,-164.57147
4258000000,-7.7179689,-164.56815
4259000000,-7.7134681,-164.86455
4260000000,-7.7243743,-164.71738
4261000000,-7.7093143,-164.68652
4262000000,-7.6978455,-164.83868
4263000000,-7.6784825,-164.83871
4264000000,-7.7039642,-164.88184
4265000000,-7.7096677,-165.02582
4266000000,-7.7227688,-165.02144
4267000000,-7.7145481,-165.07793
4268000000,-7.7194309,-165.02846
4269000000,-7.6912475,-165.08829
4270000000,-7.6944389,-165.29674
4271000000,-7.701962,-165.23882
4272000000,-7.6937709,-165.42679
4273000000,-7.699182,-165.61179
4274000000,-7.6823554,-165.12122
4275000000,-7.6806021,-165.34853
4276000000,-7.671988,-165.40865
4277000000,-7.6856365,-165.52188
4278000000,-7.6877928,-165.51782
4279000000,-7.6513257,-165.75116
4280000000,-7.6628432,-165.64957
4281000000,-7.6653719,-165.75755
4282000000,-7.6794348,-165.83632
4283000000,-7.695291,-165.87299
4284000000,-7.6703506,-165.87881
4285000000,-7.6650887,-166.06149
4286000000,-7.6525393,-165.9072
4287000000,-7.69734,-165.8672
4288000000,-7.6580658,-165.96968
4289000000,-7.657527,-166.09859
4290000000,-7.6746526,-165.99379
4291000000,-7.6612968,-166.22621
4292000000,-7.6615725,-166.27866
4293000000,-7.6597157,-166.30595
4294000000,-7.6595764,-166.18997
4295000000,-7.6282845,-166.35168
4296000000,-7.6574349,-166.43188
4297000000,-7.6508627,-166.60716
4298000000,-7.6496377,-166.61209
4299000000,-7.6339202,-166.62842
4300000000,-7.6580892,-166.49901
4301000000,-7.6438713,-166.71202
4302000000,-7.6334524,-166.85724
4303000000,-7.6484303,-166.78235
4304000000,-7.6307216,-166.85643
4305000000,-7.6186457,-166.86931
4306000000,-7.6146827,-166.92198
4307000000,-7.6285934,-166.9359
4308000000,-7.6326098,-167.07497
4309000000,-7.6082411,-167.1524
4310000000,-7.6179547,-166.9978
4311000000,-7.6158738,-167.17003
4312000000,-7.618217,-167.0159
4313000000,-7.6152186,-167.20563
4314000000,-7.608994,-167.30844
4315000000,-7.6032953,-167.37535
4316000000,-7.6033597,-167.21692
4317000000,-7.5967755,-167.46744
4318000000,-7.5900936,-167.48561
4319000000,-7.5785313,-167.66656
4320000000,-7.5857925,-167.32579
4321000000,-7.5873117,-167.75089
4322000000,-7.5838566,-167.88116
4323000000,-7.5926747,-167.81575
4324000000,-7.5746436,-167.80608
4325000000,-7.5911794,-167.80713
4326000000,-7.5788507,-167.93341
4327000000,-7.574275,-168.0661
4328000000,-7.583518,-167.94923
4329000000,-7.5867572,-168.12247
4330000000,-7.5872388,-168.11298
4331000000,-7.5557113,-167.95421
4332000000,-7.5751028,-168.26418
4333000000,-7.5447593,-168.1741
4334000000,-7.568861,-168.30229
4335000000,-7.5688004,-168.37714
4336000000,-7.5600386,-168.33879
4337000000,-7.526413,-168.53447
4338000000,-7.5481305,-168.64421
4339000000,-7.5569763,-168.5517
4340000000,-7.5551796,-168.48289
4341000000,-7.5307841,-168.59103
4342000000,-7.537601,-168.67114
4343000000,-7.5407701,-168.66928
4344000000,-7.5363994,-169.04538
4345000000,-7.5434628,-168.68198
4346000000,-7.5405478,-168.73636
4347000000,-7.5239854,-168.88698
4348000000,-7.5253725,-169.06828
4349000000,-7.5025687,-169.02328
4350000000,-7.5338302,-168.7655
4351000000,-7.5192342,-169.11583
4352000000,-7.5376687,-169.18179
4353000000,-7.5250468,-169.03268
4354000000,-7.4930782,-169.40565
4355000000,-7.5329571,-169.45297
4356000000,-7.5110731,-169.52827
4357000000,-7.5205946,-169.35074
4358000000,-7.5299635,-169.48949
4359000000,-7.5020962,-169.55058
4360000000,-7.5083208,-169.45132
4361000000,-7.5012574,-169.60797
4362000000,-7.528831,-169.43323
4363000000,-7.5034108,-169.72246
4364000000,-7.4938807,-169.72366
4365000000,-7.5015497,-169.84082
4366000000,-7.4381328,-169.92152
4367000000,-7.4887447,-169.98209
4368000000,-7.4733105,-170.03874
4369000000,-7.4859705,-170.21167
4370000000,-7.4753122,-170.13786
4371000000,-7.4653134,-170.09206
4372000000,-7.4739995,-170.06407
4373000000,-7.470284,-170.25027
4374000000,-7.4750781,-170.06976
4375000000,-7.4895849,-170.46342
4376000000,-7.4715996,-170.33151
4377000000,-7.4615936,-170.56264
4378000000,-7.4693365,-170.30202
4379000000,-7.4657445,-170.46721
4380000000,-7.4567113,-170.65315
4381000000,-7.4504657,-170.71289
4382000000,-7.4327855,-170.68695
4383000000,-7.4174485,-170.71367
4384000000,-7.410533,-170.78001
4385000000,-7.4489269,-170.99879
4386000000,-7.4161358,-170.73381
4387000000,-7.4413939,-170.98103
4388000000,-7.4392333,-170.84689
4389000000,-7.4127722,-170.83931
4390000000,-7.431983,-171.06683
4391000000,-7.409215,-171.12569
4392000000,-7.3946409,-171.27122
4393000000,-7.3880949,-171.26495
4394000000,-7.3972373,-171.23053
4395000000,-7.4544554,-171.26785
4396000000,-7.4073029,-171.17592
4397000000,-7.3988886,-171.3147
4398000000,-7.3924184,-171.43593
4399000000,-7.3902831,-171.51462
4400000000,-7.3937421,-171.38194
4401000000,-7.382071,-171.41275
4402000000,-7.3623953,-171.55159
4403000000,-7.3857546,-171.72264
4404000000,-7.3791132,-171.72194
4405000000,-7.3831663,-171.89157
4406000000,-7.3795581,-171.823
4407000000,-7.3579345,-171.97133
4408000000,-7.3786664,-172.05055
4409000000,-7.3771129,-172.08153
4410000000,-7.3539095,-172.00841
4411000000,-7.3731017,-172.1684
4412000000,-7.3499103,-172.29074
4413000000,-7.3737698,-172.37035
4414000000,-7.34448,-172.38185
4415000000,-7.3274784,-172.31491
4416000000,-7.3584442,-172.36198
4417000000,-7.3468266,-172.60529
4418000000,-7.3508515,-172.60017
4419000000,-7.3372822,-172.70619
4420000000,-7.3415775,-172.71854
4421000000,-7.350307,-172.70322
4422000000,-7.3597898,-172.6048
4423000000,-7.3157697,-172.72852
4424000000,-7.3285403,-172.87543
4425000000,-7.3079958,-172.99467
4426000000,-7.331943,-172.85246
4427000000,-7.3181734,-172.98013
4428000000,-7.3091369,-172.92397
4429000000,-7.3126678,-173.09906
4430000000,-7.3131719,-173.22821
4431000000,-7.3277969,-173.20029
4432000000,-7.3306093,-173.25224
4433000000,-7.2752757,-173.2774
4434000000,-7.2959771,-173.34781
4435000000,-7.283349,-173.42784
4436000000,-7.3033996,-173.33971
4437000000,-7.2854805,-173.43445
4438000000,-7.2909503,-173.69534
4439000000,-7.2815914,-173.61055
4440000000,-7.2847571,-173.66911
4441000000,-7.2598019,-173.7314
4442000000,-7.2919326,-173.73959
4443000000,-7.285151,-173.76917
4444000000,-7.2740583,-173.89835
4445000000,-7.2425013,-174.06087
4446000000,-7.2690048,-173.93765
4447000000,-7.2864885,-173.97202
4448000000,-7.268558,-174.14207
4449000000,-7.2752743,-174.11534
4450000000,-7.2358665,-174.29396
4451000000,-7.2389841,-174.34244
4452000000,-7.243681,-174.12538
4453000000,-7.2449327,-174.37726
4454000000,-7.2258234,-174.44469
4455000000,-7.229969,-174.47699
4456000000,-7.2266679,-174.24249
4457000000,-7.231101,-174.46559
4458000000,-7.2176104,-174.45354
4459000000,-7.234304,-174.62288
4460000000,-7.216619,-174.4214
4461000000,-7.2272139,-174.7435
4462000000,-7.2076554,-174.90991
4463000000,-7.1781745,-174.8015
4464000000,-7.2071853,-174.99901
4465000000,-7.2021651,-174.89508
4466000000,-7.1831074,-175.00667
4467000000,-7.2145972,-175.06967
4468000000,-7.1813631,-175.14999
4469000000,-7.1868401,-175.14093
4470000000,-7.2077074,-175.10435
4471000000,-7.1923375,-175.29996
4472000000,-7.1918211,-175.3743
4473000000,-7.1890817,-175.33063
4474000000,-7.1683569,-175.61794
4475000000,-7.1748648,-175.63835
4476000000,-7.1725001,-175.57735
4477000000,-7.1815076,-175.58971
4478000000,-7.1656685,-175.90144
4479000000,-7.1590219,-175.68544
4480000000,-7.1660566,-175.70215
4481000000,-7.1648135,-175.88161
4482000000,-7.1527286,-175.86356
4483000000,-7.163115,-175.8551
4484000000,-7.1285887,-175.97176
4485000000,-7.1647,-175.99506
4486000000,-7.145782,-176.0817
4487000000,-7.1447225,-176.16652
4488000000,-7.1464357,-176.28304
4489000000,-7.1204619,-176.38489
4490000000,-7.1208487,-176.29079
4491000000,-7.1235075,-176.47041
4492000000,-7.1148324,-176.51465
4493000000,-7.1050663,-176.61559
4494000000,-7.1311541,-176.63631
4495000000,-7.111125,-176.50581
4496000000,-7.0990481,-176.80569
4497000000,-7.1323977,-176.89255
4498000000,-7.11131,-176.92476
4499000000,-7.1155205,-176.91623
4500000000,-7.1048169,-177.04741
4501000000,-7.0807323,-177.15012
4502000000,-7.0882549,-177.0278
4503000000,-7.0975738,-177.23193
4504000000,-7.1066027,-177.10548
4505000000,-7.0845532,-177.09718
4506000000,-7.0811501,-177.36395
4507000000,-7.0917425,-177.39264
4508000000,-7.0743308,-177.30501
4509000000,-7.0662808,-177.59015
4510000000,-7.0619779,-177.39136
4511000000,-7.0942879,-177.61545
4512000000,-7.079165,-177.59373
4513000000,-7.0717149,-177.80396
4514000000,-7.0657725,-177.98518
4515000000,-7.0652051,-177.83092
4516000000,-7.0482297,-178.04271
4517000000,-7.0445962,-178.03731
4518000000,-7.0530291,-177.9229
4519000000,-7.0383615,-178.05945
4520000000,-7.0532265,-178.11769
4521000000,-7.060945,-178.08337
4522000000,-7.0264235,-178.08168
4523000000,-7.0208631,-178.26021
4524000000,-7.0349512,-178.26685
4525000000,-7.0336046,-178.25314
4526000000,-7.0447087,-178.30881
4527000000,-7.0261512,-178.54135
4528000000,-7.0422645,-178.60741
4529000000,-7.0182877,-178.54308
4530000000,-7.0008512,-178.75655
4531000000,-7.0062494,-178.73889
4532000000,-7.0106521,-178.77229
4533000000,-7.0084119,-178.77446
4534000000,-6.9960322,-178.99898
4535000000,-7.0195122,-178.88989
4536000000,-6.9868631,-178.79236
4537000000,-7.0078683,-179.21767
4538000000,-6.9906487,-179.13112
4539000000,-6.9767985,-179.11548
4540000000,-6.978828,-179.27892
4541000000,-6.9642735,-179.26869
4542000000,-7.0035415,-179.35165
4543000000,-6.9804678,-179.57231
4544000000,-6.9555969,-179.56683
4545000000,-6.9631186,-179.45926
4546000000,-6.9503126,-179.57144
4547000000,-6.9482741,-179.75273
4548000000,-6.9381738,-179.72157
4549000000,-6.9425335,-179.82112
4550000000,-6.9365067,-179.7433
4551000000,-6.9445949,-179.85387
4552000000,-6.9507999,-179.89758
4553000000,-6.948997,-179.98396
4554000000,-6.9380007,-180.0826
4555000000,-6.9318399,-180.05908
4556000000,-6.9264297,-180.21565
4557000000,-6.9315071,-180.20055
4558000000,-6.9333925,-180.23801
4559000000,-6.9126549,-180.37888
4560000000,-6.928844,-180.30511
4561000000,-6.9293132,-180.42062
4562000000,-6.9188814,-180.52185
4563000000,-6.9185319,-180.55455
4564000000,-6.927546,-180.61633
4565000000,-6.9006348,-180.60838
4566000000,-6.911406,-180.62473
4567000000,-6.8884096,-180.82745
4568000000,-6.8837385,-180.7542
4569000000,-6.904788,-180.96481
4570000000,-6.9016557,-180.97504
4571000000,-6.8725333,-180.98897
4572000000,-6.9096212,-181.20064
4573000000,-6.8650103,-181.22334
4574000000,-6.8601255,-181.27731
4575000000,-6.8713169,-181.33331
4576000000,-6.8639698,-181.32713
4577000000,-6.8747835,-181.47536
4578000000,-6.8822408,-181.48608
4579000000,-6.8519678,-181.64972
4580000000,-6.8755994,-181.50996
4581000000,-6.8603754,-181.7662
4582000000,-6.8724937,-181.68996
4583000000,-6.849297,-181.69008
4584000000,-6.8466706,-181.80699
4585000000,-6.8469691,-181.75073
4586000000,-6.8490357,-182.02899
4587000000,-6.8412013,-181.83688
4588000000,-6.8296542,-182.08284
4589000000,-6.8368158,-182.13364
4590000000,-6.8115644,-182.28818
4591000000,-6.8135352,-182.26434
4592000000,-6.8128905,-182.38939
4593000000,-6.834209,-182.36967
4594000000,-6.80755,-182.41132
4595000000,-6.795733,-182.41902
4596000000,-6.8155594,-182.67213
4597000000,-6.81007,-182.63454
4598000000,-6.7689114,-182.48796
4599000000,-6.7912841,-182.60953
4600000000,-6.7977552,-182.79362
4601000000,-6.7946324,-182.82263
4602000000,-6.7885261,-182.9171
4603000000,-6.7803888,-182.96609
4604000000,-6.792665,-183.14642
4605000000,-6.7576184,-183.02585
4606000000,-6.7843781,-183.0966
4607000000,-6.7673159,-183.12109
4608000000,-6.7665248,-183.28764
4609000000,-6.7743015,-183.27841
4610000000,-6.7473226,-183.31264
4611000000,-6.7626562,-183.42215
4612000000,-6.7714128,-183.48917
4613000000,-6.7631679,-183.6385
4614000000,-6.7339649,-183.66829
4615000000,-6.7552199,-183.71115
4616000000,-6.7405176,-183.55783
4617000000,-6.7649136,-183.86578
4618000000,-6.7642202,-183.84167
4619000000,-6.7430444,-183.96571
4620000000,-6.7433481,-184.04773
4621000000,-6.731626,-184.2052
4622000000,-6.7294984,-184.1785
4623000000,-6.7166934,-184.20844
4624000000,-6.7180409,-184.12144
4625000000,-6.7317801,-184.21284
4626000000,-6.7446618,-184.37538
4627000000,-6.7093406,-184.58182
4628000000,-6.6973224,-184.34393
4629000000,-6.6840482,-184.63243
4630000000,-6.700871,-184.70117
4631000000,-6.7085595,-184.72395
4632000000,-6.701139,-184.95856
4633000000,-6.7199812,-184.90819
4634000000,-6.6875687,-184.93509
4635000000,-6.6955786,-184.88547
4636000000,-6.6974101,-184.92226
4637000000,-6.6716371,-185.14134
4638000000,-6.7162018,-185.14661
4639000000,-6.6795006,-185.08521
4640000000,-6.6820374,-185.36288
4641000000,-6.6648135,-185.32355
4642000000,-6.6417131,-185.36201
4643000000,-6.6861782,-185.60168
4644000000,-6.6453195,-185.60416
4645000000,-6.6713309,-185.57062
4646000000,-6.6689405,-185.70769
4647000000,-6.6513152,-185.71849
4648000000,-6.64674,-185.86148
4649000000,-6.656816,-185.83302
4650000000,-6.647192,-185.86685
4651000000,-6.6522431,-185.87045
4652000000,-6.6450248,-186.27531
4653000000,-6.6360469,-186.17546
4654000000,-6.6583962,-185.9604
4655000000,-6.6435623,-186.25768
4656000000,-6.6457548,-186.38335
4657000000,-6.6596503,-186.42798
4658000000,-6.6507206,-186.3989
4659000000,-6.6253757,-186.48663
4660000000,-6.6259246,-186.59442
4661000000,-6.628931,-186.65321
4662000000,-6.6164021,-186.71468
4663000000,-6.5960474,-186.72542
4664000000,-6.6222544,-187.00595
4665000000,-6.5908899,-186.89893
4666000000,-6.6138611,-186.81834
4667000000,-6.6138029,-187.10812
4668000000,-6.597981,-187.01057
4669000000,-6.5921602,-186.97733
4670000000,-6.6127429,-187.06497
4671000000,-6.6030631,-187.341
4672000000,-6.6005292,-187.42998
4673000000,-6.5868111,-187.59705
4674000000,-6.5612988,-187.53807
4675000000,-6.5708761,-187.52423
4676000000,-6.6037979,-187.6776
4677000000,-6.5829864,-187.59987
4678000000,-6.5607767,-187.61879
4679000000,-6.563921,-187.79913
4680000000,-6.5730925,-187.89961
4681000000,-6.5593729,-187.81973
4682000000,-6.5597467,-188.13426
4683000000,-6.5643516,-187.97247
4684000000,-6.5458541,-188.03838
4685000000,-6.5671768,-188.27486
4686000000,-6.5297904,-188.13551
4687000000,-6.5357256,-188.16096
4688000000,-6.5578938,-188.33392
4689000000,-6.5491457,-188.3374
4690000000,-6.544323,-188.53177
4691000000,-6.5498533,-188.60883
4692000000,-6.5375786,-188.6418
4693000000,-6.5271411,-188.66331
4694000000,-6.5308447,-188.76309
4695000000,-6.5316796,-188.90392
4696000000,-6.5447655,-189.0985
4697000000,-6.5559082,-188.98227
4698000000,-6.5241427,-188.90544
4699000000,-6.5099969,-189.27544
4700000000,-6.5080032,-189.4538
4701000000,-6.5337663,-189.19591
4702000000,-6.5138826,-189.33984
4703000000,-6.4993529,-189.54118
4704000000,-6.4971032,-189.54469
4705000000,-6.4975247,-189.42842
4706000000,-6.5217423,-189.63092
4707000000,-6.4869843,-189.6311
4708000000,-6.4887495,-189.73709
4709000000,-6.4760275,-189.69469
4710000000,-6.4837971,-190.03448
4711000000,-6.4624333,-189.94646
4712000000,-6.4936261,-189.92699
4713000000,-6.4845543,-190.04967
4714000000,-6.4908109,-190.11612
4715000000,-6.4797673,-190.24539
4716000000,-6.4578018,-190.11258
4717000000,-6.4730611,-190.26196
4718000000,-6.4732985,-190.2379
4719000000,-6.4814243,-190.37202
4720000000,-6.4700098,-190.61681
4721000000,-6.4745884,-190.39766
4722000000,-6.4764481,-190.67676
4723000000,-6.4400959,-190.66235
4724000000,-6.450079,-190.68686
4725000000,-6.4433432,-190.8298
4726000000,-6.442925,-190.60814
4727000000,-6.4503779,-190.9695
4728000000,-6.4448671,-191.02431
4729000000,-6.4237466,-190.90367
4730000000,-6.4297509,-190.99451
4731000000,-6.4364061,-191.25543
4732000000,-6.4269629,-191.06467
4733000000,-6.448082,-191.19594
4734000000,-6.4293084,-191.47122
4735000000,-6.4147263,-191.5625
4736000000,-6.4112601,-191.50526
4737000000,-6.4157887,-191.51497
4738000000,-6.4107561,-191.52983
4739000000,-6.4190526,-191.71863
4740000000,-6.4282656,-191.92314
4741000000,-6.4190593,-191.81247
4742000000,-6.3828444,-191.90402
4743000000,-6.4058433,-192.06239
4744000000,-6.4281678,-192.08034
4745000000,-6.3780351,-192.1162
4746000000,-6.3859282,-192.30746
4747000000,-6.3945975,-192.32785
4748000000,-6.3737597,-192.53806
4749000000,-6.3852868,-192.5097
4750000000,-6.3767028,-192.39154
4751000000,-6.4237576,-192.63141
4752000000,-6.3783207,-192.59023
4753000000,-6.3540015,-192.65005
4754000000,-6.3561478,-192.61574
4755000000,-6.3605752,-192.70602
4756000000,-6.367445,-192.97351
4757000000,-6.3361459,-192.89496
4758000000,-6.373045,-192.94734
4759000000,-6.3492794,-193.06346
4760000000,-6.3546367,-192.97554
4761000000,-6.3560176,-193.29942
4762000000,-6.3639188,-193.24326
4763000000,-6.3366518,-193.37361
4764000000,-6.342205,-193.53824
4765000000,-6.3247843,-193.57967
4766000000,-6.3324976,-193.57909
4767000000,-6.3308926,-193.64348
4768000000,-6.3420634,-193.76317
4769000000,-6.3352327,-193.77882
4770000000,-6.3421664,-193.76277
4771000000,-6.3404756,-193.82693
4772000000,-6.3179293,-193.96638
4773000000,-6.3304143,-193.88934
4774000000,-6.3364778,-194.1423
4775000000,-6.2766728,-194.20618
4776000000,-6.3167391,-194.24442
4777000000,-6.3131347,-194.26433
4778000000,-6.2930331,-194.31274
4779000000,-6.3090239,-194.54851
4780000000,-6.3092318,-194.70412
4781000000,-6.282908,-194.66019
4782000000,-6.2982988,-194.76672
4783000000,-6.3126984,-194.79199
4784000000,-6.292058,-195.00244
4785000000,-6.2812691,-194.89958
4786000000,-6.2931662,-195.16322
4787000000,-6.2674837,-195.05492
4788000000,-6.2823906,-195.00204
4789000000,-6.2769446,-195.19638
4790000000,-6.2826891,-195.19406
4791000000,-6.2924647,-195.09879
4792000000,-6.2700791,-195.21251
4793000000,-6.2731323,-195.45073
4794000000,-6.2627983,-195.29846
4795000000,-6.2993546,-195.591
4796000000,-6.3016958,-195.64104
4797000000,-6.2608094,-195.58339
4798000000,-6.2489238,-195.62109
4799000000,-6.2563796,-195.77641
4800000000,-6.2671828,-195.87697
4801000000,-6.2659054,-195.95125
4802000000,-6.25351,-196.00764
4803000000,-6.2300348,-196.19333
4804000000,-6.2321181,-196.1889
4805000000,-6.2471914,-196.24951
4806000000,-6.2519579,-196.49158
4807000000,-6.2347722,-196.42126
4808000000,-6.2400651,-196.47781
4809000000,-6.2397532,-196.51283
4810000000,-6.2409716,-196.54105
4811000000,-6.2327003,-196.77014
4812000000,-6.2191048,-196.67287
4813000000,-6.239419,-196.74944
4814000000,-6.2158971,-196.90775
4815000000,-6.2273207,-196.88631
4816000000,-6.1972308,-197.07735
4817000000,-6.2252564,-197.12122
4818000000,-6.2281923,-196.99283
4819000000,-6.2169991,-197.38889
4820000000,-6.2194409,-197.3671
4821000000,-6.1903224,-197.41995
4822000000,-6.196053,-197.33765
4823000000,-6.1920094,-197.42592
4824000000,-6.1959038,-197.63573
4825000000,-6.2152843,-197.60214
4826000000,-6.1556859,-197.58595
4827000000,-6.1980929,-197.75848
4828000000,-6.1853561,-197.80537
4829000000,-6.194119,-198.13278
4830000000,-6.1584458,-197.85864
4831000000,-6.1779041,-198.15495
4832000000,-6.1536121,-198.03267
4833000000,-6.196106,-198.05258
4834000000,-6.1841102,-198.36003
4835000000,-6.1636314,-198.15056
4836000000,-6.1559319,-198.33502
4837000000,-6.1666689,-198.4212
4838000000,-6.1454482,-198.76027
4839000000,-6.1800466,-198.70978
4840000000,-6.1626272,-198.6514
4841000000,-6.1514215,-198.80646
4842000000,-6.1552253,-199.08672
4843000000,-6.1658511,-198.8633
4844000000,-6.124393,-199.06647
4845000000,-6.1417952,-199.19157
4846000000,-6.1461902,-199.29916
4847000000,-6.1619468,-199.23051
4848000000,-6.1495414,-199.33119
4849000000,-6.1296329,-199.52161
4850000000,-6.1263852,-199.36006
4851000000,-6.1359138,-199.66675
4852000000,-6.1343312,-199.51547
4853000000,-6.1471233,-199.65857
4854000000,-6.1316357,-199.57614
4855000000,-6.1091523,-199.74644
4856000000,-6.1221075,-199.9677
4857000000,-6.1109614,-199.95786
4858000000,-6.1188974,-199.96176
4859000000,-6.12748,-200.12372
4860000000,-6.1206388,-200.119
4861000000,-6.1000557,-200.25569
4862000000,-6.1055288,-200.34146
4863000000,-6.1289635,-200.40822
4864000000,-6.1268926,-200.37267
4865000000,-6.1259093,-200.51315
4866000000,-6.1087942,-200.74571
4867000000,-6.0902281,-200.74951
4868000000,-6.101378,-200.758
4869000000,-6.0923066,-200.73402
4870000000,-6.1162882,-200.90469
4871000000,-6.1019897,-201.05113
4872000000,-6.139359,-200.9794
4873000000,-6.0863886,-201.04369
4874000000,-6.0782886,-201.21555
4875000000,-6.1041718,-201.21753
4876000000,-6.0811157,-201.31807
4877000000,-6.0933609,-201.41382
4878000000,-6.1098256,-201.50992
4879000000,-6.0611382,-201.65015
4880000000,-6.0901947,-201.59851
4881000000,-6.087359,-201.70204
4882000000,-6.1075864,-201.74231
4883000000,-6.0840831,-201.86922
4884000000,-6.0667667,-201.97182
4885000000,-6.0970311,-202.0603
4886000000,-6.0658193,-202.02135
4887000000,-6.0772214,-202.15091
4888000000,-6.0709095,-202.37685
4889000000,-6.0888486,-202.35664
4890000000,-6.0585771,-202.33377
4891000000,-6.0583844,-202.41856
4892000000,-6.0688739,-202.47
4893000000,-6.0629539,-202.66388
4894000000,-6.0638804,-202.67014
4895000000,-6.062665,-202.65254
4896000000,-6.0633602,-202.83406
4897000000,-6.0567598,-202.75691
4898000000,-6.0533819,-202.95355
4899000000,-6.0594926,-202.90266
4900000000,-6.0699344,-203.14256
4901000000,-6.0743074,-203.2314
4902000000,-6.0474377,-203.32693
4903000000,-6.0754333,-203.19334
4904000000,-6.0333123,-203.19958
4905000000,-6.062417,-203.55405
4906000000,-6.0385604,-203.40367
4907000000,-6.0539827,-203.57306
4908000000,-6.0613866,-203.632
4909000000,-6.0650187,-203.8399
4910000000,-6.0560703,-203.92775
4911000000,-6.0733762,-203.80472
4912000000,-6.0387411,-203.93513
4913000000,-6.0565715,-204.04294
4914000000,-6.0574751,-204.05618
4915000000,-6.0563707,-204.23471
4916000000,-6.0762167,-204.32733
4917000000,-6.0577793,-204.17305
4918000000,-6.0446072,-204.30942
4919000000,-6.0328074,-204.41324
4920000000,-6.0378594,-204.58862
4921000000,-6.0398436,-204.59453
4922000000,-6.0428066,-204.58249
4923000000,-6.0308595,-204.75401
4924000000,-6.0539899,-204.83418
4925000000,-6.0463495,-204.75398
4926000000,-6.0618663,-205.01825
4927000000,-6.0473895,-204.82361
4928000000,-6.0234203,-204.92142
4929000000,-6.0167799,-205.03264
4930000000,-6.0353732,-205.15709
4931000000,-6.0253572,-205.34251
4932000000,-6.0478668,-205.26282
4933000000,-6.0113478,-205.26648
4934000000,-6.0109844,-205.20653
4935000000,-6.0367427,-205.5173
4936000000,-6.0122957,-205.49174
4937000000,-6.0295887,-205.54581
4938000000,-6.0536833,-205.75098
4939000000,-6.0289397,-205.60989
4940000000,-6.0190592,-205.74326
4941000000,-6.0081635,-205.77968
4942000000,-6.0292583,-205.93243
4943000000,-6.0409999,-205.87578
4944000000,-6.0202465,-205.73911
4945000000,-5.9948316,-206.17039
4946000000,-6.0146184,-206.14351
4947000000,-6.0112157,-206.11494
4948000000,-6.0235872,-206.14052
4949000000,-6.0186224,-206.27397
4950000000,-6.015316,-206.41328
4951000000,-6.0064855,-206.41013
4952000000,-6.0275192,-206.46056
4953000000,-5.9922347,-206.57457
4954000000,-5.9765477,-206.54787
4955000000,-5.9879189,-206.63785
4956000000,-5.9900837,-206.62112
4957000000,-5.9633994,-206.79504
4958000000,-5.9761705,-206.79858
4959000000,-5.9730711,-207.06198
4960000000,-5.983705,-207.04451
4961000000,-5.9670258,-207.03584
4962000000,-5.9753337,-207.27475
4963000000,-5.9896088,-207.1575
4964000000,-5.9408879,-207.2876
4965000000,-5.9808931,-207.29178
4966000000,-5.9783592,-207.38762
4967000000,-5.9675293,-207.36847
4968000000,-5.9696946,-207.57077
4969000000,-5.959641,-207.57707
4970000000,-5.9620366,-207.73164
4971000000,-5.9410591,-207.69731
4972000000,-5.9363589,-207.7341
4973000000,-5.9580202,-207.90724
4974000000,-5.9415121,-207.92848
4975000000,-5.9385104,-207.88551
4976000000,-5.929811,-207.9053
4977000000,-5.9288912,-208.18753
4978000000,-5.916265,-208.18912
4979000000,-5.9452095,-208.18204
4980000000,-5.9346814,-208.38223
4981000000,-5.8937716,-208.37228
4982000000,-5.8756142,-208.42674
4983000000,-5.9026203,-208.48541
4984000000,-5.8896441,-208.60228
4985000000,-5.9036517,-208.71828
4986000000,-5.9094391,-208.76904
4987000000,-5.921525,-208.7235
4988000000,-5.8961716,-208.83426
4989000000,-5.9033804,-208.88171
4990000000,-5.920382,-209.15619
4991000000,-5.9204907,-209.05026
4992000000,-5.9108529,-209.3219
4993000000,-5.876205,-209.40021
4994000000,-5.9132752,-209.27956
4995000000,-5.8793068,-209.20369
4996000000,-5.8790832,-209.39101
4997000000,-5.8933301,-209.41022
4998000000,-5.8760905,-209.40318
4999000000,-5.8745174,-209.54991
5000000000,-5.8445859,-209.81979
END,,
