!CSV A.01.01
!Agilent Technologies,E8362C,MY49020225,A.09.42.22
!Agilent E8362C: A.09.42.22
!Date: Tuesday, March 08, 2016 14:54:13
!Source: Standard

BEGIN CH1_DATA
Freq(Hz),S21 Log Mag(dB),S21 Phase(°)
1000000000,-5.6389937,-70.923004
1001000000,-5.6614752,-70.930199
1002000000,-5.6732559,-70.835045
1003000000,-5.6563005,-71.054657
1004000000,-5.6390166,-71.082954
1005000000,-5.6894259,-70.936028
1006000000,-5.6485128,-71.220581
1007000000,-5.638515,-71.379089
1008000000,-5.6395531,-71.287064
1009000000,-5.6543937,-71.316284
1010000000,-5.6289697,-71.518326
1011000000,-5.6334295,-71.441399
1012000000,-5.6272759,-71.384941
1013000000,-5.6159348,-71.465797
1014000000,-5.6451292,-71.603821
1015000000,-5.6263132,-71.803513
1016000000,-5.6255426,-71.938576
1017000000,-5.6229601,-71.978058
1018000000,-5.6261792,-72.155609
1019000000,-5.6254787,-71.828705
1020000000,-5.6494193,-72.047844
1021000000,-5.5823817,-72.238693
1022000000,-5.6135769,-72.104256
1023000000,-5.6214948,-72.399361
1024000000,-5.6555624,-72.278214
1025000000,-5.6333666,-72.486122
1026000000,-5.6261716,-72.488762
1027000000,-5.581573,-72.56736
1028000000,-5.6192226,-72.715004
1029000000,-5.6030331,-72.713943
1030000000,-5.6247897,-72.825233
1031000000,-5.6229835,-72.792862
1032000000,-5.6088095,-73.126038
1033000000,-5.630734,-72.905533
1034000000,-5.6573911,-73.11467
1035000000,-5.608603,-73.258965
1036000000,-5.6100278,-73.374245
1037000000,-5.6148543,-73.458252
1038000000,-5.5861907,-73.41333
1039000000,-5.6087584,-73.477211
1040000000,-5.5982585,-73.554565
1041000000,-5.6202083,-73.620651
1042000000,-5.619915,-73.684685
1043000000,-5.5698099,-73.761353
1044000000,-5.5919571,-73.642708
1045000000,-5.6164699,-74.040253
1046000000,-5.6177974,-74.241913
1047000000,-5.6033468,-73.872208
1048000000,-5.6066327,-73.834167
1049000000,-5.5853944,-74.057968
1050000000,-5.6063156,-73.997894
1051000000,-5.6019869,-74.248573
1052000000,-5.5987334,-74.49189
1053000000,-5.5886464,-74.420853
1054000000,-5.5785642,-74.462242
1055000000,-5.6095133,-74.456146
1056000000,-5.5899978,-74.621704
1057000000,-5.5655599,-74.741112
1058000000,-5.6169305,-74.728516
1059000000,-5.5900512,-74.952202
1060000000,-5.5696363,-74.885231
1061000000,-5.592031,-74.982933
1062000000,-5.5824003,-75.061623
1063000000,-5.5669384,-75.109886
1064000000,-5.5936556,-75.277924
1065000000,-5.5553541,-75.167824
1066000000,-5.5713391,-75.396935
1067000000,-5.5916924,-75.563927
1068000000,-5.5573025,-75.538536
1069000000,-5.5860167,-75.42588
1070000000,-5.553966,-75.654427
1071000000,-5.5842209,-75.590767
1072000000,-5.5513577,-75.744843
1073000000,-5.5746565,-75.703896
1074000000,-5.5671506,-75.605843
1075000000,-5.5972776,-76.159302
1076000000,-5.5768824,-76.113014
1077000000,-5.5773139,-76.137154
1078000000,-5.547164,-76.069778
1079000000,-5.5776792,-76.3433
1080000000,-5.5657244,-76.311768
1081000000,-5.5501676,-76.358795
1082000000,-5.593111,-76.464661
1083000000,-5.5636978,-76.635078
1084000000,-5.5500059,-76.542915
1085000000,-5.5621362,-76.566727
1086000000,-5.5610871,-76.896774
1087000000,-5.5542474,-76.827187
1088000000,-5.5809054,-76.890083
1089000000,-5.531776,-76.986969
1090000000,-5.5591683,-77.023849
1091000000,-5.5535522,-76.991615
1092000000,-5.5664649,-77.128555
1093000000,-5.5511613,-77.367714
1094000000,-5.5659828,-77.246712
1095000000,-5.5474563,-77.471664
1096000000,-5.5499635,-77.248466
1097000000,-5.5446005,-77.632492
1098000000,-5.5461726,-77.382919
1099000000,-5.5495796,-77.714844
1100000000,-5.5367832,-77.587074
1101000000,-5.558496,-77.947433
1102000000,-5.5422254,-77.9048
1103000000,-5.5288386,-78.079445
1104000000,-5.5218439,-78.122154
1105000000,-5.5644708,-77.99453
1106000000,-5.5099268,-78.23246
1107000000,-5.559041,-78.122711
1108000000,-5.5353065,-78.321732
1109000000,-5.5075707,-78.34269
1110000000,-5.5271163,-78.439049
1111000000,-5.5342078,-78.304359
1112000000,-5.5176816,-78.651009
1113000000,-5.526473,-78.477394
1114000000,-5.5398707,-78.854263
1115000000,-5.5266819,-78.633163
1116000000,-5.5345407,-78.805473
1117000000,-5.5105362,-78.974632
1118000000,-5.5514445,-78.934433
1119000000,-5.5094233,-79.127617
1120000000,-5.5168667,-79.142708
1121000000,-5.538631,-79.446388
1122000000,-5.5377235,-79.299911
1123000000,-5.4981475,-79.130447
1124000000,-5.4712105,-79.418762
1125000000,-5.5019851,-79.60627
1126000000,-5.5182824,-79.431511
1127000000,-5.5197639,-79.548759
1128000000,-5.5073524,-79.79483
1129000000,-5.5170488,-79.847809
1130000000,-5.5320935,-79.735222
1131000000,-5.4897203,-79.791931
1132000000,-5.5021796,-79.828285
1133000000,-5.4809875,-80.143265
1134000000,-5.4921103,-80.162178
1135000000,-5.5159435,-80.076126
1136000000,-5.507843,-80.266609
1137000000,-5.5246511,-80.269234
1138000000,-5.4471064,-80.339134
1139000000,-5.5073595,-80.422256
1140000000,-5.495172,-80.611572
1141000000,-5.5164046,-80.465088
1142000000,-5.4791102,-80.607193
1143000000,-5.4789801,-80.517403
1144000000,-5.4734888,-80.981087
1145000000,-5.4882431,-81.002609
1146000000,-5.4767914,-80.646065
1147000000,-5.4710088,-80.75988
1148000000,-5.5093436,-81.070099
1149000000,-5.469986,-81.183945
1150000000,-5.5020728,-81.131607
1151000000,-5.4922137,-81.183479
1152000000,-5.451961,-81.298752
1153000000,-5.4849877,-81.28257
1154000000,-5.495348,-81.466301
1155000000,-5.4749079,-81.552971
1156000000,-5.4509602,-81.626785
1157000000,-5.4627523,-81.570793
1158000000,-5.4719453,-81.787819
1159000000,-5.4804764,-81.92498
1160000000,-5.4421816,-81.979942
1161000000,-5.4536686,-81.888191
1162000000,-5.452405,-82.140099
1163000000,-5.4723363,-82.100937
1164000000,-5.496985,-82.169044
1165000000,-5.4500842,-82.102089
1166000000,-5.4387555,-82.378532
1167000000,-5.4322176,-82.520096
1168000000,-5.464211,-82.43824
1169000000,-5.463151,-82.496735
1170000000,-5.4575949,-82.686363
1171000000,-5.4285302,-82.681412
1172000000,-5.4324813,-82.595177
1173000000,-5.4512606,-82.747536
1174000000,-5.4449401,-82.914421
1175000000,-5.4408813,-82.956886
1176000000,-5.4052553,-82.99527
1177000000,-5.4794092,-83.277122
1178000000,-5.4029274,-83.104202
1179000000,-5.4216251,-83.191376
1180000000,-5.3888493,-83.263275
1181000000,-5.4426017,-83.541885
1182000000,-5.4171529,-83.552078
1183000000,-5.4302649,-83.60154
1184000000,-5.4417596,-83.577797
1185000000,-5.4271684,-83.657227
1186000000,-5.3934422,-83.584404
1187000000,-5.4313111,-83.882797
1188000000,-5.4048867,-83.808548
1189000000,-5.4244051,-83.963509
1190000000,-5.3905368,-84.200172
1191000000,-5.4043646,-84.029495
1192000000,-5.4164195,-84.263451
1193000000,-5.3978863,-84.264275
1194000000,-5.4020581,-84.144218
1195000000,-5.4054923,-84.472633
1196000000,-5.4150276,-84.321991
1197000000,-5.3833818,-84.605667
1198000000,-5.4010839,-84.706078
1199000000,-5.3906498,-84.61087
1200000000,-5.3916888,-84.832397
1201000000,-5.381568,-84.777061
1202000000,-5.3951263,-84.908661
1203000000,-5.4130044,-84.926323
1204000000,-5.403317,-85.063087
1205000000,-5.3878098,-85.117836
1206000000,-5.4050517,-85.100792
1207000000,-5.3973675,-85.094551
1208000000,-5.3861618,-85.260941
1209000000,-5.3874264,-85.299721
1210000000,-5.4076767,-85.460922
1211000000,-5.3880095,-85.490646
1212000000,-5.3772221,-85.641052
1213000000,-5.3677363,-85.757782
1214000000,-5.3579311,-85.715508
1215000000,-5.3634715,-85.785217
1216000000,-5.3710189,-85.831367
1217000000,-5.3509116,-85.870544
1218000000,-5.344758,-86.214066
1219000000,-5.3648028,-85.900017
1220000000,-5.3488379,-86.128532
1221000000,-5.3486743,-86.303902
1222000000,-5.3587594,-86.379128
1223000000,-5.3498092,-86.360794
1224000000,-5.3406806,-86.364349
1225000000,-5.367559,-86.512451
1226000000,-5.3343072,-86.521523
1227000000,-5.3819461,-86.742455
1228000000,-5.3879147,-86.705147
1229000000,-5.3476286,-86.730522
1230000000,-5.3635588,-86.925781
1231000000,-5.3578877,-87.074364
1232000000,-5.3682394,-87.092171
1233000000,-5.333847,-87.021179
1234000000,-5.3605933,-87.130325
1235000000,-5.3068166,-87.233231
1236000000,-5.3132129,-87.219048
1237000000,-5.3159952,-87.328613
1238000000,-5.3461719,-87.400528
1239000000,-5.3465309,-87.498184
1240000000,-5.3423176,-87.577087
1241000000,-5.3338375,-87.563927
1242000000,-5.3276167,-87.658531
1243000000,-5.3424163,-87.669662
1244000000,-5.321279,-87.842674
1245000000,-5.3231649,-87.82856
1246000000,-5.2880411,-88.071899
1247000000,-5.314641,-88.189316
1248000000,-5.3283839,-88.187889
1249000000,-5.3131537,-88.239792
1250000000,-5.3501039,-88.311859
1251000000,-5.2941628,-88.419167
1252000000,-5.2896285,-88.548653
1253000000,-5.3027039,-88.41217
1254000000,-5.3258862,-88.625534
1255000000,-5.2921634,-88.622864
1256000000,-5.2935491,-88.673393
1257000000,-5.3116665,-88.770477
1258000000,-5.2831907,-88.979141
1259000000,-5.2916241,-89.138939
1260000000,-5.3043036,-88.908447
1261000000,-5.30406,-88.807892
1262000000,-5.2792664,-89.258392
1263000000,-5.2718148,-89.258659
1264000000,-5.3087077,-89.291748
1265000000,-5.2571282,-89.287903
1266000000,-5.2768669,-89.379723
1267000000,-5.2562995,-89.475151
1268000000,-5.2541018,-89.601715
1269000000,-5.2560792,-89.658546
1270000000,-5.3049722,-89.859192
1271000000,-5.2987466,-89.748672
1272000000,-5.2918682,-89.866394
1273000000,-5.2679009,-90.021294
1274000000,-5.2613626,-90.031067
1275000000,-5.244051,-90.143654
1276000000,-5.2798395,-90.231567
1277000000,-5.2599864,-90.209297
1278000000,-5.2559195,-90.136818
1279000000,-5.2663283,-90.426682
1280000000,-5.2725663,-90.518913
1281000000,-5.2794824,-90.456375
1282000000,-5.2723532,-90.609695
1283000000,-5.264709,-90.788734
1284000000,-5.2348633,-90.773956
1285000000,-5.2527633,-90.837646
1286000000,-5.240449,-90.833679
1287000000,-5.2529526,-90.900818
1288000000,-5.2559805,-90.936142
1289000000,-5.2657475,-91.119873
1290000000,-5.2595334,-91.13298
1291000000,-5.2475414,-91.253197
1292000000,-5.2306423,-91.361755
1293000000,-5.2529025,-91.286911
1294000000,-5.2290888,-91.415741
1295000000,-5.2044559,-91.63665
1296000000,-5.2469587,-91.363243
1297000000,-5.2522979,-91.611931
1298000000,-5.2335968,-91.911209
1299000000,-5.2122364,-91.803253
1300000000,-5.2195401,-92.006859
1301000000,-5.2498569,-91.979805
1302000000,-5.1755795,-91.984222
1303000000,-5.1918054,-92.143654
1304000000,-5.2080569,-92.106155
1305000000,-5.2132301,-92.070686
1306000000,-5.1921172,-92.349258
1307000000,-5.2152705,-92.326347
1308000000,-5.234086,-92.212212
1309000000,-5.206388,-92.554207
1310000000,-5.2147431,-92.714134
1311000000,-5.1909323,-92.740944
1312000000,-5.1838369,-92.8339
1313000000,-5.2139382,-92.761589
1314000000,-5.2082438,-93.039566
1315000000,-5.195971,-92.924561
1316000000,-5.203167,-93.063934
1317000000,-5.1912336,-93.053467
1318000000,-5.1551247,-93.031853
1319000000,-5.2057786,-93.437614
1320000000,-5.1914706,-93.349586
1321000000,-5.2042918,-93.579254
1322000000,-5.1868043,-93.485687
1323000000,-5.196424,-93.671211
1324000000,-5.1886659,-93.463249
1325000000,-5.1707745,-93.694801
1326000000,-5.1794758,-93.741516
1327000000,-5.1554999,-93.860298
1328000000,-5.1560555,-93.895271
1329000000,-5.1795173,-93.959015
1330000000,-5.1835036,-93.985962
1331000000,-5.1874676,-94.066879
1332000000,-5.1674752,-94.125191
1333000000,-5.1680193,-94.301804
1334000000,-5.1413498,-94.37262
1335000000,-5.1389914,-94.502098
1336000000,-5.1518512,-94.566895
1337000000,-5.1432323,-94.598801
1338000000,-5.1479874,-94.631752
1339000000,-5.1495028,-94.758896
1340000000,-5.1529298,-94.62104
1341000000,-5.145124,-94.72242
1342000000,-5.1020689,-94.965248
1343000000,-5.1304641,-94.972786
1344000000,-5.1618624,-95.007751
1345000000,-5.1348238,-95.090302
1346000000,-5.1414104,-95.052338
1347000000,-5.1432209,-95.269676
1348000000,-5.1270442,-95.267227
1349000000,-5.1318364,-95.479271
1350000000,-5.1126604,-95.61615
1351000000,-5.1077809,-95.540939
1352000000,-5.132154,-95.713776
1353000000,-5.09554,-95.735916
1354000000,-5.1160092,-95.741638
1355000000,-5.1484742,-95.606583
1356000000,-5.116467,-95.851242
1357000000,-5.0971088,-96.166664
1358000000,-5.101409,-95.947777
1359000000,-5.1012068,-96.201218
1360000000,-5.0876613,-96.412735
1361000000,-5.0873585,-96.428627
1362000000,-5.1006327,-96.513161
1363000000,-5.0803308,-96.45742
1364000000,-5.0974593,-96.668587
1365000000,-5.1072359,-96.695129
1366000000,-5.0910316,-96.570114
1367000000,-5.0861053,-96.734344
1368000000,-5.0860181,-96.862335
1369000000,-5.0535202,-96.912361
1370000000,-5.0716133,-96.968285
1371000000,-5.0991673,-96.986679
1372000000,-5.0733328,-97.255905
1373000000,-5.0704761,-97.148598
1374000000,-5.0737195,-97.404793
1375000000,-5.0834651,-97.333008
1376000000,-5.0477748,-97.250916
1377000000,-5.0617695,-97.604599
1378000000,-5.056489,-97.547363
1379000000,-5.0692225,-97.635582
1380000000,-5.0507698,-97.731918
1381000000,-5.0882421,-97.728897
1382000000,-5.0654926,-97.994705
1383000000,-5.0476913,-97.824135
1384000000,-5.0703664,-97.996269
1385000000,-5.0271711,-98.078751
1386000000,-5.0352697,-98.111565
1387000000,-5.0595169,-98.280693
1388000000,-5.0538363,-98.295029
1389000000,-5.0342908,-98.477043
1390000000,-5.0186582,-98.47049
1391000000,-5.0593925,-98.631264
1392000000,-5.0429034,-98.684921
1393000000,-5.0557466,-98.60482
1394000000,-5.0309911,-98.842987
1395000000,-5.0046787,-98.558182
1396000000,-5.0258641,-98.905685
1397000000,-5.0196915,-98.906631
1398000000,-5.0156865,-99.095581
1399000000,-5.0038438,-98.984741
1400000000,-5.0195436,-99.220245
1401000000,-4.9945774,-99.316101
1402000000,-5.0100069,-99.242088
1403000000,-5.0106339,-99.386559
1404000000,-5.0226898,-99.501419
1405000000,-5.0015855,-99.609909
1406000000,-5.0057454,-99.793678
1407000000,-5.018209,-99.671196
1408000000,-5.0059934,-99.6726
1409000000,-4.9948335,-99.71994
1410000000,-5.0027857,-99.956314
1411000000,-4.9982934,-100.25556
1412000000,-4.9798303,-100.20519
1413000000,-4.9543357,-100.24129
1414000000,-4.9969454,-100.15985
1415000000,-4.9737654,-100.35948
1416000000,-4.9546757,-100.52383
1417000000,-4.9688387,-100.55372
1418000000,-4.9546776,-100.5537
1419000000,-4.9602203,-100.76344
1420000000,-5.0005102,-100.63262
1421000000,-4.9477277,-100.77306
1422000000,-4.9541574,-100.59894
1423000000,-4.9165773,-100.88939
1424000000,-4.9457464,-100.97375
1425000000,-4.9255009,-101.18295
1426000000,-4.959816,-101.1425
1427000000,-4.9525747,-101.19923
1428000000,-4.9326324,-101.40704
1429000000,-4.9205995,-101.29387
1430000000,-4.9297032,-101.22356
1431000000,-4.9264827,-101.3718
1432000000,-4.9400158,-101.64164
1433000000,-4.9205837,-101.60658
1434000000,-4.9449139,-101.58192
1435000000,-4.9306941,-101.76015
1436000000,-4.9301071,-101.84702
1437000000,-4.9425282,-102.06551
1438000000,-4.9248734,-102.14273
1439000000,-4.9588528,-102.021
1440000000,-4.9105577,-102.22152
1441000000,-4.9062986,-102.27681
1442000000,-4.9228244,-102.2746
1443000000,-4.9217844,-102.59692
1444000000,-4.9162788,-102.44157
1445000000,-4.9291945,-102.47063
1446000000,-4.8975906,-102.71873
1447000000,-4.876894,-102.7766
1448000000,-4.8940854,-102.74755
1449000000,-4.9130721,-102.78169
1450000000,-4.9183488,-103.07352
1451000000,-4.916265,-103.06789
1452000000,-4.8821349,-103.08947
1453000000,-4.9126983,-103.41652
1454000000,-4.8831143,-103.45889
1455000000,-4.8949914,-103.28719
1456000000,-4.8901563,-103.32924
1457000000,-4.8857536,-103.56036
1458000000,-4.8865829,-103.58365
1459000000,-4.88307,-103.69351
1460000000,-4.8560476,-103.49744
1461000000,-4.8779788,-103.90999
1462000000,-4.8681989,-103.91064
1463000000,-4.8874836,-103.83175
1464000000,-4.8606582,-103.90351
1465000000,-4.8627119,-104.15806
1466000000,-4.839015,-104.16125
1467000000,-4.8454843,-104.11745
1468000000,-4.8435678,-104.35491
1469000000,-4.8274426,-104.29246
1470000000,-4.8364005,-104.49354
1471000000,-4.8355732,-104.6227
1472000000,-4.8480277,-104.75006
1473000000,-4.846663,-104.72961
1474000000,-4.8219013,-104.64925
1475000000,-4.838069,-104.82462
1476000000,-4.8325171,-104.93163
1477000000,-4.8345728,-104.88164
1478000000,-4.8415203,-104.95365
1479000000,-4.8517427,-105.26777
1480000000,-4.8186693,-105.28099
1481000000,-4.8353806,-105.28824
1482000000,-4.8092241,-105.63628
1483000000,-4.8226423,-105.22021
1484000000,-4.822566,-105.65007
1485000000,-4.8116617,-105.51093
1486000000,-4.8145323,-105.65088
1487000000,-4.8097892,-105.83257
1488000000,-4.8067703,-105.74791
1489000000,-4.7871742,-105.86155
1490000000,-4.7926245,-106.01323
1491000000,-4.7995138,-106.10168
1492000000,-4.8038349,-106.22472
1493000000,-4.7871633,-106.25295
1494000000,-4.7809324,-106.22567
1495000000,-4.7943382,-106.17049
1496000000,-4.7704368,-106.47646
1497000000,-4.7829766,-106.37802
1498000000,-4.7773948,-106.55131
1499000000,-4.769949,-106.81456
1500000000,-4.7748308,-106.77487
1501000000,-4.7742844,-106.8808
1502000000,-4.7696662,-107.09885
1503000000,-4.7355828,-106.89593
1504000000,-4.722589,-107.22626
1505000000,-4.7652183,-107.4331
1506000000,-4.7763038,-107.17572
1507000000,-4.7653508,-107.41088
1508000000,-4.7439837,-107.41074
1509000000,-4.7546864,-107.34683
1510000000,-4.7518215,-107.53868
1511000000,-4.7341719,-107.50906
1512000000,-4.7158909,-107.6265
1513000000,-4.7499948,-107.68958
1514000000,-4.7316546,-107.72739
1515000000,-4.7468457,-107.8398
1516000000,-4.7157435,-108.1656
1517000000,-4.7341585,-108.08312
1518000000,-4.7021203,-108.15692
1519000000,-4.7063179,-108.16087
1520000000,-4.6889582,-108.3901
1521000000,-4.7087584,-108.3728
1522000000,-4.7106905,-108.44139
1523000000,-4.7172518,-108.67731
1524000000,-4.7195778,-108.72004
1525000000,-4.6909242,-108.76372
1526000000,-4.7040973,-108.95451
1527000000,-4.6937685,-108.94492
1528000000,-4.7210855,-108.90907
1529000000,-4.7182021,-109.007
1530000000,-4.7015944,-109.15362
1531000000,-4.6775193,-109.22144
1532000000,-4.6761785,-109.13368
1533000000,-4.6710219,-109.35348
1534000000,-4.6781087,-109.43579
1535000000,-4.6765523,-109.53301
1536000000,-4.6223493,-109.68281
1537000000,-4.6671324,-109.626
1538000000,-4.6381989,-109.72717
1539000000,-4.6599112,-109.9156
1540000000,-4.6749544,-109.99806
1541000000,-4.6664386,-110.06328
1542000000,-4.6663346,-110.04717
1543000000,-4.6568794,-110.11406
1544000000,-4.6345263,-110.21844
1545000000,-4.6657519,-110.35258
1546000000,-4.6345339,-110.28304
1547000000,-4.6413674,-110.54734
1548000000,-4.6279888,-110.29578
1549000000,-4.6599307,-110.59286
1550000000,-4.6718559,-110.8467
1551000000,-4.6212468,-110.82871
1552000000,-4.6569309,-110.79928
1553000000,-4.6463919,-110.86354
1554000000,-4.6212711,-110.95246
1555000000,-4.6200614,-111.01316
1556000000,-4.6011729,-110.92519
1557000000,-4.6196322,-111.24957
1558000000,-4.6011987,-111.35635
1559000000,-4.6056271,-111.37757
1560000000,-4.6090951,-111.49403
1561000000,-4.6145649,-111.71387
1562000000,-4.6316609,-111.66582
1563000000,-4.6136341,-111.57165
1564000000,-4.5770855,-111.74052
1565000000,-4.6078811,-111.99447
1566000000,-4.5934277,-111.80709
1567000000,-4.581666,-112.0794
1568000000,-4.5959644,-111.99262
1569000000,-4.6075144,-112.28602
1570000000,-4.5841866,-112.15085
1571000000,-4.6029553,-112.3383
1572000000,-4.5652738,-112.3577
1573000000,-4.5916705,-112.69002
1574000000,-4.564147,-112.44833
1575000000,-4.5676208,-112.71943
1576000000,-4.571629,-112.83949
1577000000,-4.5410781,-112.92387
1578000000,-4.5731416,-112.72498
1579000000,-4.5819483,-113.03091
1580000000,-4.5443754,-113.01778
1581000000,-4.5727444,-113.04503
1582000000,-4.5543785,-113.13914
1583000000,-4.5529728,-113.29141
1584000000,-4.5501642,-113.5014
1585000000,-4.5486331,-113.3369
1586000000,-4.5617757,-113.67468
1587000000,-4.5676422,-113.63082
1588000000,-4.5436497,-113.83247
1589000000,-4.5371776,-113.9442
1590000000,-4.5415902,-113.98506
1591000000,-4.5391893,-113.9661
1592000000,-4.549336,-113.97533
1593000000,-4.5207562,-114.0162
1594000000,-4.5461659,-113.98751
1595000000,-4.5248623,-114.24898
1596000000,-4.5362301,-114.16436
1597000000,-4.5109558,-114.58087
1598000000,-4.4851203,-114.53976
1599000000,-4.4999866,-114.66717
1600000000,-4.4967961,-114.7413
1601000000,-4.4844589,-114.702
1602000000,-4.4915819,-114.74332
1603000000,-4.4944482,-114.92985
1604000000,-4.4936619,-115.17333
1605000000,-4.4876657,-114.95663
1606000000,-4.501411,-115.19724
1607000000,-4.5178914,-115.27519
1608000000,-4.4919162,-115.24716
1609000000,-4.5026145,-115.46452
1610000000,-4.4787846,-115.61051
1611000000,-4.4780841,-115.59064
1612000000,-4.4796624,-115.73365
1613000000,-4.4716434,-115.62257
1614000000,-4.4752998,-115.71843
1615000000,-4.4693289,-115.85745
1616000000,-4.4750261,-115.85299
1617000000,-4.4542513,-115.8674
1618000000,-4.4530201,-116.10429
1619000000,-4.4503098,-116.21069
1620000000,-4.4397836,-116.48929
1621000000,-4.4344945,-116.28159
1622000000,-4.4477878,-116.13387
1623000000,-4.4398727,-116.53946
1624000000,-4.4416394,-116.55129
1625000000,-4.4542437,-116.68036
1626000000,-4.4567928,-116.62596
1627000000,-4.4442606,-116.69053
1628000000,-4.4258919,-116.81284
1629000000,-4.4377956,-117.21576
1630000000,-4.4071927,-117.31844
1631000000,-4.4258976,-117.2337
1632000000,-4.4129038,-117.3899
1633000000,-4.4219055,-117.359
1634000000,-4.4338131,-117.35051
1635000000,-4.4168172,-117.50876
1636000000,-4.4106388,-117.68719
1637000000,-4.3899417,-117.5062
1638000000,-4.4053707,-117.76467
1639000000,-4.3928447,-117.93272
1640000000,-4.4147425,-117.83325
1641000000,-4.4044118,-118.08611
1642000000,-4.3746877,-118.05917
1643000000,-4.4009647,-118.30621
1644000000,-4.3737626,-118.13237
1645000000,-4.3914647,-118.44331
1646000000,-4.3866453,-118.61838
1647000000,-4.3723092,-118.49618
1648000000,-4.3736496,-118.58791
1649000000,-4.3720574,-118.81121
1650000000,-4.3654113,-118.80345
1651000000,-4.3992853,-118.83159
1652000000,-4.3670077,-119.04595
1653000000,-4.3748727,-119.02956
1654000000,-4.3491292,-119.05461
1655000000,-4.3438363,-119.16731
1656000000,-4.3544192,-119.14465
1657000000,-4.3501935,-119.27969
1658000000,-4.3705955,-119.33264
1659000000,-4.3256841,-119.38915
1660000000,-4.3621573,-119.53168
1661000000,-4.3367476,-119.56996
1662000000,-4.349843,-119.56789
1663000000,-4.3285837,-119.77728
1664000000,-4.3390746,-119.76392
1665000000,-4.3291774,-119.78559
1666000000,-4.3146782,-119.96111
1667000000,-4.3229709,-120.07404
1668000000,-4.3190908,-120.22979
1669000000,-4.3366652,-120.21251
1670000000,-4.34231,-120.63247
1671000000,-4.3335614,-120.46656
1672000000,-4.3144078,-120.47451
1673000000,-4.2966919,-120.63143
1674000000,-4.3222756,-120.78871
1675000000,-4.3092108,-120.7181
1676000000,-4.3050852,-120.77175
1677000000,-4.3235307,-121.03584
1678000000,-4.2974358,-121.1458
1679000000,-4.2952857,-121.28909
1680000000,-4.2981076,-121.20241
1681000000,-4.2875867,-121.21661
1682000000,-4.2816272,-121.37216
1683000000,-4.2656107,-121.46738
1684000000,-4.2775459,-121.55421
1685000000,-4.2985382,-121.5543
1686000000,-4.2854767,-121.79746
1687000000,-4.2685595,-121.96458
1688000000,-4.2681026,-121.77908
1689000000,-4.2580276,-122.01484
1690000000,-4.2704844,-121.90263
1691000000,-4.2326875,-122.16879
1692000000,-4.2668653,-122.27213
1693000000,-4.2779679,-122.36157
1694000000,-4.2345142,-122.54264
1695000000,-4.2790003,-122.55925
1696000000,-4.2228379,-122.61005
1697000000,-4.2699938,-122.64087
1698000000,-4.2609272,-122.76779
1699000000,-4.2217698,-122.88268
1700000000,-4.2399101,-122.8437
1701000000,-4.2477465,-122.99205
1702000000,-4.2521577,-123.076
1703000000,-4.2139568,-123.25062
1704000000,-4.2471142,-123.10419
1705000000,-4.2427068,-123.3447
1706000000,-4.2020774,-123.41401
1707000000,-4.2327504,-123.53945
1708000000,-4.1746745,-123.5816
1709000000,-4.2137132,-123.93885
1710000000,-4.1926603,-123.7803
1711000000,-4.1933026,-123.83318
1712000000,-4.2107582,-123.93768
1713000000,-4.2010951,-124.12099
1714000000,-4.1872563,-124.13406
1715000000,-4.1895747,-124.16085
1716000000,-4.236146,-124.42205
1717000000,-4.1980271,-124.35789
1718000000,-4.207129,-124.49534
1719000000,-4.1985245,-124.47501
1720000000,-4.2009039,-124.57864
1721000000,-4.1719875,-124.58519
1722000000,-4.1876349,-124.85777
1723000000,-4.1930113,-124.78597
1724000000,-4.1590343,-124.98363
1725000000,-4.1845622,-125.04641
1726000000,-4.178225,-125.36996
1727000000,-4.1611028,-125.10885
1728000000,-4.153564,-125.13954
1729000000,-4.182373,-125.42661
1730000000,-4.1890578,-125.49203
1731000000,-4.1411824,-125.52245
1732000000,-4.1412725,-125.76336
1733000000,-4.1321964,-125.88069
1734000000,-4.1534209,-125.81145
1735000000,-4.149251,-125.62715
1736000000,-4.1344838,-125.93056
1737000000,-4.1608787,-125.92673
1738000000,-4.136765,-126.24029
1739000000,-4.119627,-126.27387
1740000000,-4.1527996,-126.42214
1741000000,-4.1383228,-126.34096
1742000000,-4.1352077,-126.60594
1743000000,-4.1220794,-126.65556
1744000000,-4.1147428,-126.70706
1745000000,-4.1159878,-126.73095
1746000000,-4.1278696,-126.66355
1747000000,-4.1112218,-127.02592
1748000000,-4.1402817,-127.08042
1749000000,-4.128016,-126.85893
1750000000,-4.0989208,-127.29864
1751000000,-4.0939937,-127.29231
1752000000,-4.1129827,-127.36512
1753000000,-4.0799503,-127.52113
1754000000,-4.0744324,-127.52433
1755000000,-4.0930967,-127.76231
1756000000,-4.102407,-127.78127
1757000000,-4.0842128,-127.92951
1758000000,-4.0944853,-128.05215
1759000000,-4.0954146,-128.05814
1760000000,-4.0620623,-128.19849
1761000000,-4.0424886,-128.17731
1762000000,-4.0809388,-128.16464
1763000000,-4.0862455,-128.24765
1764000000,-4.0660334,-128.41946
1765000000,-4.0792594,-128.405
1766000000,-4.0900564,-128.60504
1767000000,-4.0686226,-128.80013
1768000000,-4.0274482,-128.81213
1769000000,-4.0410109,-128.74518
1770000000,-4.0648789,-129.01332
1771000000,-4.0626578,-129.11659
1772000000,-4.0171695,-129.25539
1773000000,-4.0255289,-129.23058
1774000000,-4.0491734,-129.34537
1775000000,-4.0494614,-129.39017
1776000000,-4.0437942,-129.60698
1777000000,-4.0304132,-129.77419
1778000000,-4.0252633,-129.68913
1779000000,-4.0112524,-129.65573
1780000000,-4.0287848,-129.7639
1781000000,-4.018096,-129.89902
1782000000,-4.0354571,-130.11232
1783000000,-4.02104,-130.15746
1784000000,-4.0038795,-130.05508
1785000000,-4.0070338,-130.14493
1786000000,-3.9955122,-130.27449
1787000000,-3.9905956,-130.53093
1788000000,-3.9941072,-130.41231
1789000000,-3.9946082,-130.59525
1790000000,-4.0019927,-130.74736
1791000000,-3.997998,-130.66122
1792000000,-3.9731681,-130.91161
1793000000,-4.0093117,-130.92139
1794000000,-3.9672894,-131.19757
1795000000,-3.9754124,-131.26321
1796000000,-3.97523,-131.30595
1797000000,-3.9857395,-131.27983
1798000000,-3.9898612,-131.39525
1799000000,-3.9828174,-131.61221
1800000000,-3.9691105,-131.60667
1801000000,-3.987078,-131.78339
1802000000,-3.9527738,-131.84924
1803000000,-3.9767554,-131.92783
1804000000,-3.956928,-132.02826
1805000000,-3.949055,-132.13333
1806000000,-3.9612925,-132.28235
1807000000,-3.9439044,-132.38191
1808000000,-3.9425962,-132.35907
1809000000,-3.9476938,-132.67783
1810000000,-3.941931,-132.40111
1811000000,-3.9285128,-132.5502
1812000000,-3.9508457,-132.75008
1813000000,-3.9501731,-132.75894
1814000000,-3.936048,-133.00102
1815000000,-3.9207489,-133.07431
1816000000,-3.9291394,-133.17268
1817000000,-3.9253833,-133.21385
1818000000,-3.9071064,-133.25949
1819000000,-3.9532382,-133.34424
1820000000,-3.9147608,-133.57047
1821000000,-3.9221344,-133.45024
1822000000,-3.91819,-133.63876
1823000000,-3.9158494,-133.68359
1824000000,-3.9050839,-133.75565
1825000000,-3.9138062,-133.82579
1826000000,-3.9125161,-133.99138
1827000000,-3.8635445,-134.02594
1828000000,-3.8944221,-133.97815
1829000000,-3.8985324,-134.1111
1830000000,-3.8921161,-134.26276
1831000000,-3.8730903,-134.32071
1832000000,-3.9073086,-134.53365
1833000000,-3.889632,-134.38744
1834000000,-3.8738177,-134.48906
1835000000,-3.8426147,-134.95718
1836000000,-3.8917718,-134.77493
1837000000,-3.9044385,-134.90363
1838000000,-3.882997,-135.17978
1839000000,-3.8822892,-135.04968
1840000000,-3.8857231,-135.17067
1841000000,-3.8753855,-135.27019
1842000000,-3.860522,-135.48399
1843000000,-3.8507946,-135.6429
1844000000,-3.8640397,-135.33601
1845000000,-3.874603,-135.60104
1846000000,-3.8316953,-135.92572
1847000000,-3.8769145,-135.89377
1848000000,-3.8760664,-136.07135
1849000000,-3.8320866,-136.01427
1850000000,-3.8613999,-136.03738
1851000000,-3.8446164,-136.13152
1852000000,-3.8549836,-136.30629
1853000000,-3.853605,-136.36351
1854000000,-3.8715646,-136.35255
1855000000,-3.8537881,-136.55823
1856000000,-3.8409724,-136.51549
1857000000,-3.8182728,-136.95129
1858000000,-3.8337171,-136.91498
1859000000,-3.836637,-136.99263
1860000000,-3.8152895,-137.26512
1861000000,-3.8291194,-137.20927
1862000000,-3.8089345,-137.18303
1863000000,-3.8089263,-137.24249
1864000000,-3.8054676,-137.2973
1865000000,-3.802247,-137.51563
1866000000,-3.7935405,-137.56725
1867000000,-3.7605305,-137.81436
1868000000,-3.8297329,-137.75919
1869000000,-3.8233786,-137.74088
1870000000,-3.8059123,-138.12791
1871000000,-3.7716277,-138.16606
1872000000,-3.7721331,-138.34723
1873000000,-3.7986608,-138.27562
1874000000,-3.8261688,-138.30423
1875000000,-3.7738628,-138.39703
1876000000,-3.763603,-138.56241
1877000000,-3.79848,-138.50146
1878000000,-3.763093,-138.77504
1879000000,-3.7587314,-138.76384
1880000000,-3.7804267,-139.03836
1881000000,-3.7652762,-138.95107
1882000000,-3.7840285,-139.14816
1883000000,-3.7639971,-139.18733
1884000000,-3.7508471,-139.14029
1885000000,-3.7744014,-139.40646
1886000000,-3.7854142,-139.72311
1887000000,-3.7639775,-139.49921
1888000000,-3.775281,-139.69402
1889000000,-3.7377434,-139.9109
1890000000,-3.7556231,-139.86395
1891000000,-3.7418525,-139.96825
1892000000,-3.751858,-139.99854
1893000000,-3.7479217,-140.01422
1894000000,-3.7193115,-140.20494
1895000000,-3.7418518,-140.55275
1896000000,-3.7530489,-140.52313
1897000000,-3.7287385,-140.50319
1898000000,-3.7430649,-140.64754
1899000000,-3.757041,-140.74835
1900000000,-3.7182624,-140.75394
1901000000,-3.7524953,-140.78441
1902000000,-3.7461545,-141.07269
1903000000,-3.7284269,-141.18565
1904000000,-3.7315209,-141.09041
1905000000,-3.7363958,-141.28676
1906000000,-3.7125757,-141.42525
1907000000,-3.7376742,-141.42752
1908000000,-3.7019784,-141.61703
1909000000,-3.6997302,-141.63309
1910000000,-3.7181239,-141.76283
1911000000,-3.7031579,-141.95459
1912000000,-3.7044642,-141.96249
1913000000,-3.7133012,-142.05017
1914000000,-3.7381623,-142.09096
1915000000,-3.6845806,-142.27238
1916000000,-3.6972091,-142.2951
1917000000,-3.6959739,-142.30679
1918000000,-3.7096314,-142.43669
1919000000,-3.6967196,-142.53285
1920000000,-3.6999574,-142.6938
1921000000,-3.6776795,-142.91479
1922000000,-3.6712072,-143.05132
1923000000,-3.6884398,-142.99927
1924000000,-3.6817513,-142.87503
1925000000,-3.6851466,-143.13652
1926000000,-3.6876011,-143.39528
1927000000,-3.6871216,-143.50592
1928000000,-3.68383,-143.51369
1929000000,-3.6720722,-143.42383
1930000000,-3.6512878,-143.74487
1931000000,-3.6654103,-143.73822
1932000000,-3.673244,-143.77281
1933000000,-3.6425967,-143.7133
1934000000,-3.6515808,-144.09435
1935000000,-3.6564329,-144.11618
1936000000,-3.6552238,-144.19113
1937000000,-3.6414869,-144.16721
1938000000,-3.6642327,-144.41515
1939000000,-3.6518259,-144.47945
1940000000,-3.6470077,-144.55351
1941000000,-3.6395786,-144.63673
1942000000,-3.6401615,-144.59482
1943000000,-3.6289515,-144.82045
1944000000,-3.6368709,-145.03969
1945000000,-3.6054676,-145.09944
1946000000,-3.6163049,-145.18723
1947000000,-3.6342435,-145.43327
1948000000,-3.6742289,-145.29922
1949000000,-3.6503947,-145.55089
1950000000,-3.6066031,-145.56926
1951000000,-3.6449184,-145.58965
1952000000,-3.6257637,-145.65158
1953000000,-3.6494198,-145.77684
1954000000,-3.6034863,-145.93486
1955000000,-3.6179156,-146.01382
1956000000,-3.6263356,-145.97177
1957000000,-3.6399536,-146.46516
1958000000,-3.6136808,-146.47197
1959000000,-3.6231782,-146.38292
1960000000,-3.6088157,-146.59247
1961000000,-3.616621,-146.53546
1962000000,-3.610244,-146.82375
1963000000,-3.6041789,-146.90561
1964000000,-3.5933094,-146.75336
1965000000,-3.5891056,-147.03256
1966000000,-3.5800197,-147.13545
1967000000,-3.602771,-147.19165
1968000000,-3.6173246,-147.35114
1969000000,-3.5586045,-147.48764
1970000000,-3.5768158,-147.42043
1971000000,-3.5906746,-147.51694
1972000000,-3.5938725,-147.66426
1973000000,-3.570703,-147.7756
1974000000,-3.5652008,-147.81654
1975000000,-3.580986,-148.01212
1976000000,-3.5596888,-148.12878
1977000000,-3.5724545,-147.97076
1978000000,-3.5769429,-148.11142
1979000000,-3.5713518,-148.17984
1980000000,-3.5519075,-148.34465
1981000000,-3.5820606,-148.48683
1982000000,-3.5669782,-148.46994
1983000000,-3.5661664,-148.69023
1984000000,-3.5504756,-148.78972
1985000000,-3.5482962,-148.9511
1986000000,-3.5602553,-149.11385
1987000000,-3.5683303,-148.89677
1988000000,-3.5418744,-149.45743
1989000000,-3.572854,-149.27988
1990000000,-3.5659254,-149.46419
1991000000,-3.5506818,-149.46745
1992000000,-3.5684791,-149.85243
1993000000,-3.5442042,-149.74428
1994000000,-3.5228543,-149.78821
1995000000,-3.5250919,-149.87711
1996000000,-3.5353343,-150.06044
1997000000,-3.5563893,-150.23341
1998000000,-3.5482769,-150.14864
1999000000,-3.5331848,-150.49084
2000000000,-3.5422988,-150.29787
2001000000,-3.5426641,-150.43105
2002000000,-3.5428803,-150.59004
2003000000,-3.5718207,-150.76068
2004000000,-3.539643,-150.82951
2005000000,-3.5198259,-151.01598
2006000000,-3.5172698,-151.07721
2007000000,-3.5460689,-150.99171
2008000000,-3.5359421,-151.1468
2009000000,-3.512496,-151.08231
2010000000,-3.5072684,-151.40297
2011000000,-3.5213349,-151.12193
2012000000,-3.5289125,-151.27542
2013000000,-3.5466609,-151.5815
2014000000,-3.522754,-151.60167
2015000000,-3.5104556,-151.71265
2016000000,-3.540787,-151.96675
2017000000,-3.4787934,-152.00894
2018000000,-3.4604423,-152.04057
2019000000,-3.5258703,-152.25052
2020000000,-3.5144367,-152.35172
2021000000,-3.5177433,-152.31584
2022000000,-3.5053654,-152.50375
2023000000,-3.5194612,-152.69272
2024000000,-3.4895065,-152.60405
2025000000,-3.5030246,-152.95964
2026000000,-3.5116034,-153.01311
2027000000,-3.4957502,-153.05377
2028000000,-3.5045087,-153.14127
2029000000,-3.4772093,-153.03571
2030000000,-3.4697032,-153.08936
2031000000,-3.4859684,-153.23196
2032000000,-3.4846082,-153.42622
2033000000,-3.5034065,-153.69176
2034000000,-3.4966195,-153.50739
2035000000,-3.467696,-153.877
2036000000,-3.4664614,-153.8364
2037000000,-3.4942617,-153.96202
2038000000,-3.4640853,-154.08356
2039000000,-3.4856639,-154.11374
2040000000,-3.5008185,-154.13579
2041000000,-3.4628899,-154.34039
2042000000,-3.4655702,-154.57339
2043000000,-3.4967663,-154.62267
2044000000,-3.4621375,-154.61548
2045000000,-3.4509654,-154.71698
2046000000,-3.4724917,-154.89679
2047000000,-3.4643245,-154.88803
2048000000,-3.4735675,-155.04727
2049000000,-3.4820156,-155.28833
2050000000,-3.4919508,-155.28589
2051000000,-3.4705811,-155.27626
2052000000,-3.4760437,-155.57254
2053000000,-3.452426,-155.41734
2054000000,-3.4444101,-155.81339
2055000000,-3.4434392,-155.72336
2056000000,-3.4336979,-155.80077
2057000000,-3.4683492,-155.98462
2058000000,-3.4575908,-156.15771
2059000000,-3.4548504,-156.35779
2060000000,-3.4413152,-156.1757
2061000000,-3.4461598,-156.25681
2062000000,-3.4502773,-156.32903
2063000000,-3.4620199,-156.33003
2064000000,-3.4463692,-156.66577
2065000000,-3.46878,-156.73145
2066000000,-3.4290135,-156.76651
2067000000,-3.4455693,-156.86565
2068000000,-3.4356976,-157.18254
2069000000,-3.4127135,-157.05009
2070000000,-3.4339051,-157.19267
2071000000,-3.4600616,-157.17897
2072000000,-3.4390695,-157.19095
2073000000,-3.4456553,-157.47031
2074000000,-3.4406688,-157.39417
2075000000,-3.451757,-157.70702
2076000000,-3.4412251,-157.81007
2077000000,-3.4120359,-157.90509
2078000000,-3.3996944,-158.02196
2079000000,-3.4490318,-158.20004
2080000000,-3.4370036,-158.22261
2081000000,-3.4419088,-158.26741
2082000000,-3.4289396,-158.33492
2083000000,-3.4422264,-158.41431
2084000000,-3.4154117,-158.68646
2085000000,-3.4559605,-158.68954
2086000000,-3.4289837,-158.69948
2087000000,-3.3881817,-158.99542
2088000000,-3.4173391,-159.06976
2089000000,-3.4221568,-159.0206
2090000000,-3.400708,-159.32442
2091000000,-3.4260459,-159.33427
2092000000,-3.4017887,-159.44427
2093000000,-3.4457748,-159.27679
2094000000,-3.4199536,-159.5502
2095000000,-3.4018483,-159.70195
2096000000,-3.37532,-159.81076
2097000000,-3.391047,-160.00017
2098000000,-3.4020588,-159.92432
2099000000,-3.3832386,-159.98715
2100000000,-3.4174318,-160.20433
2101000000,-3.3980422,-160.40717
2102000000,-3.3823729,-160.32594
2103000000,-3.4073968,-160.62074
2104000000,-3.3839197,-160.59468
2105000000,-3.3972936,-160.50882
2106000000,-3.4287705,-160.60742
2107000000,-3.446836,-160.58076
2108000000,-3.4110634,-161.03152
2109000000,-3.3991036,-160.94612
2110000000,-3.398401,-161.12163
2111000000,-3.4206676,-161.25212
2112000000,-3.3918447,-161.31773
2113000000,-3.4429755,-161.39212
2114000000,-3.3853929,-161.41299
2115000000,-3.4134858,-161.73254
2116000000,-3.4123611,-161.6815
2117000000,-3.4000919,-161.75409
2118000000,-3.3923917,-161.93839
2119000000,-3.39744,-161.95218
2120000000,-3.3870795,-161.93666
2121000000,-3.4024622,-162.16592
2122000000,-3.3994842,-162.15587
2123000000,-3.3875325,-162.51791
2124000000,-3.3860011,-162.54494
2125000000,-3.4104476,-162.62523
2126000000,-3.3913743,-162.77184
2127000000,-3.4096093,-162.68155
2128000000,-3.4097581,-162.79649
2129000000,-3.4120312,-163.06789
2130000000,-3.395062,-163.1338
2131000000,-3.3870633,-163.17311
2132000000,-3.3854885,-163.1857
2133000000,-3.3827271,-163.29587
2134000000,-3.3983693,-163.66383
2135000000,-3.3881326,-163.57402
2136000000,-3.4084344,-163.59207
2137000000,-3.3811307,-163.78717
2138000000,-3.3837757,-163.99307
2139000000,-3.3970072,-164.08546
2140000000,-3.4113524,-164.08633
2141000000,-3.3976607,-164.11902
2142000000,-3.3696024,-164.11755
2143000000,-3.3894312,-164.52435
2144000000,-3.3746405,-164.43582
2145000000,-3.3843699,-164.63159
2146000000,-3.3843856,-164.69957
2147000000,-3.4099448,-164.78888
2148000000,-3.399066,-164.78226
2149000000,-3.389065,-164.87106
2150000000,-3.3611526,-165.13266
2151000000,-3.3735285,-165.39751
2152000000,-3.3787522,-165.26204
2153000000,-3.3674886,-165.25177
2154000000,-3.3808525,-165.349
2155000000,-3.4267325,-165.59389
2156000000,-3.3740807,-165.7244
2157000000,-3.345042,-165.81642
2158000000,-3.365483,-165.82129
2159000000,-3.3765142,-165.68626
2160000000,-3.3762317,-166.21786
2161000000,-3.3801129,-166.18159
2162000000,-3.3468735,-166.3636
2163000000,-3.3752439,-166.2565
2164000000,-3.3759658,-166.48436
2165000000,-3.3960888,-166.47717
2166000000,-3.3738801,-166.68008
2167000000,-3.37656,-166.66652
2168000000,-3.3733802,-166.88428
2169000000,-3.383425,-166.84645
2170000000,-3.3616905,-167.09587
2171000000,-3.3468416,-167.23918
2172000000,-3.3580275,-167.25693
2173000000,-3.3839254,-167.67307
2174000000,-3.3587468,-167.39166
2175000000,-3.3698885,-167.51004
2176000000,-3.3773656,-167.6041
2177000000,-3.3815017,-167.80176
2178000000,-3.3608043,-168.02206
2179000000,-3.3884945,-167.97539
2180000000,-3.3950288,-168.14754
2181000000,-3.3707292,-168.18279
2182000000,-3.391731,-168.1123
2183000000,-3.3781261,-168.33025
2184000000,-3.3850262,-168.62746
2185000000,-3.3599796,-168.53101
2186000000,-3.3772187,-168.42221
2187000000,-3.3641286,-168.77441
2188000000,-3.3750935,-168.95818
2189000000,-3.3428962,-168.96358
2190000000,-3.3379123,-168.9279
2191000000,-3.3579872,-169.05835
2192000000,-3.3406935,-169.02226
2193000000,-3.3642812,-169.24681
2194000000,-3.3905563,-169.4554
2195000000,-3.375716,-169.47505
2196000000,-3.3481829,-169.68277
2197000000,-3.3600199,-169.87515
2198000000,-3.3665226,-169.8065
2199000000,-3.3549273,-170.09488
2200000000,-3.3491628,-170.08319
2201000000,-3.3371997,-170.22295
2202000000,-3.368809,-170.18654
2203000000,-3.3868601,-170.29172
2204000000,-3.3387058,-170.47311
2205000000,-3.3608916,-170.65707
2206000000,-3.3909118,-170.51108
2207000000,-3.3298471,-170.92816
2208000000,-3.3562806,-170.86166
2209000000,-3.3681283,-170.96611
2210000000,-3.3876004,-171.12569
2211000000,-3.37959,-170.994
2212000000,-3.4024293,-171.19853
2213000000,-3.3598323,-171.1557
2214000000,-3.375145,-171.50854
2215000000,-3.324723,-171.52815
2216000000,-3.3779414,-171.56857
2217000000,-3.335855,-171.71826
2218000000,-3.3507924,-171.82228
2219000000,-3.3553514,-171.99069
2220000000,-3.3852353,-171.93265
2221000000,-3.3536601,-172.02118
2222000000,-3.3620174,-171.99377
2223000000,-3.3771582,-172.3632
2224000000,-3.3639352,-172.34045
2225000000,-3.3883297,-172.34763
2226000000,-3.3549104,-172.36453
2227000000,-3.378437,-172.7104
2228000000,-3.3315501,-172.82042
2229000000,-3.3543236,-172.94962
2230000000,-3.3691542,-172.95732
2231000000,-3.3698196,-172.98277
2232000000,-3.379312,-173.03442
2233000000,-3.3875897,-173.31929
2234000000,-3.3767686,-173.23793
2235000000,-3.3526251,-173.5739
2236000000,-3.3403287,-173.42131
2237000000,-3.3780677,-173.67894
2238000000,-3.3144569,-173.71881
2239000000,-3.3751178,-173.93539
2240000000,-3.3339047,-173.96225
2241000000,-3.3319733,-173.96962
2242000000,-3.3712881,-174.01041
2243000000,-3.3604147,-174.07974
2244000000,-3.3688297,-174.3029
2245000000,-3.3695514,-174.34663
2246000000,-3.3444631,-174.3136
2247000000,-3.3535411,-174.5253
2248000000,-3.3329091,-174.87505
2249000000,-3.3486967,-174.68755
2250000000,-3.3570321,-174.82394
2251000000,-3.3817306,-174.98047
2252000000,-3.3285484,-175.05606
2253000000,-3.3775063,-175.04404
2254000000,-3.3308153,-175.25867
2255000000,-3.3771241,-175.40396
2256000000,-3.371968,-175.46008
2257000000,-3.369694,-175.4763
2258000000,-3.4060674,-175.67316
2259000000,-3.3497076,-175.86896
2260000000,-3.3777177,-175.94321
2261000000,-3.3772247,-175.80766
2262000000,-3.365129,-176.1404
2263000000,-3.3659227,-176.11752
2264000000,-3.3892708,-176.22371
2265000000,-3.3481698,-176.27832
2266000000,-3.3676102,-176.25963
2267000000,-3.3493965,-176.47415
2268000000,-3.3776784,-176.70638
2269000000,-3.3765347,-176.37962
2270000000,-3.3613396,-176.65158
2271000000,-3.3652048,-176.86797
2272000000,-3.3810592,-176.88826
2273000000,-3.3923266,-177.1718
2274000000,-3.3647656,-177.04391
2275000000,-3.35411,-177.15053
2276000000,-3.3715007,-177.31363
2277000000,-3.357475,-177.52731
2278000000,-3.3723879,-177.41907
2279000000,-3.3712587,-177.52489
2280000000,-3.3687849,-177.75816
2281000000,-3.3721025,-177.87088
2282000000,-3.3616805,-177.98061
2283000000,-3.3641694,-177.94072
2284000000,-3.36713,-178.05394
2285000000,-3.3687453,-178.31152
2286000000,-3.3804283,-178.64406
2287000000,-3.3570001,-178.48795
2288000000,-3.3611243,-178.46057
2289000000,-3.3728483,-178.63567
2290000000,-3.3656106,-178.72424
2291000000,-3.3855131,-178.82817
2292000000,-3.3832629,-178.60713
2293000000,-3.401819,-179.16098
2294000000,-3.3403404,-178.99644
2295000000,-3.4050448,-179.09761
2296000000,-3.3758657,-179.50433
2297000000,-3.3551733,-179.4312
2298000000,-3.3806319,-179.33101
2299000000,-3.383878,-179.47273
2300000000,-3.3477106,-179.5817
2301000000,-3.3864369,-179.726
2302000000,-3.3497484,-179.8847
2303000000,-3.4006369,-179.82558
2304000000,-3.3875954,-179.97844
2305000000,-3.3639498,-179.80562
2306000000,-3.4130111,-180.03362
2307000000,-3.4149852,-180.39565
2308000000,-3.3709035,-180.15094
2309000000,-3.386029,-180.41794
2310000000,-3.3941972,-180.68175
2311000000,-3.3686333,-180.77249
2312000000,-3.4159205,-180.80579
2313000000,-3.4045541,-181.06474
2314000000,-3.3703358,-180.87701
2315000000,-3.3858578,-181.08424
2316000000,-3.390142,-181.28798
2317000000,-3.3835945,-181.05548
2318000000,-3.3750842,-181.244
2319000000,-3.3758867,-181.56174
2320000000,-3.3791902,-181.6279
2321000000,-3.3928251,-181.46875
2322000000,-3.3508742,-181.75627
2323000000,-3.340837,-181.90186
2324000000,-3.3662977,-181.87859
2325000000,-3.3831873,-182.02666
2326000000,-3.3955734,-182.18144
2327000000,-3.3751371,-182.16629
2328000000,-3.4064531,-182.32605
2329000000,-3.3737397,-182.31906
2330000000,-3.3698754,-182.54068
2331000000,-3.370332,-182.63646
2332000000,-3.4002602,-182.59955
2333000000,-3.4384656,-182.80037
2334000000,-3.3642802,-182.96686
2335000000,-3.3970494,-183.16881
2336000000,-3.3855371,-182.93346
2337000000,-3.4312682,-183.17943
2338000000,-3.381304,-182.91579
2339000000,-3.396796,-183.42101
2340000000,-3.3534806,-183.48169
2341000000,-3.3956323,-183.25322
2342000000,-3.3669994,-183.65572
2343000000,-3.377377,-183.78989
2344000000,-3.4014461,-183.88731
2345000000,-3.3673425,-183.76828
2346000000,-3.4301875,-184.02266
2347000000,-3.3724968,-183.90932
2348000000,-3.3918602,-183.97107
2349000000,-3.4043455,-184.0992
2350000000,-3.3724189,-184.32973
2351000000,-3.4005957,-184.36055
2352000000,-3.3607106,-184.59834
2353000000,-3.3944421,-184.51773
2354000000,-3.394798,-184.72047
2355000000,-3.3801799,-184.69452
2356000000,-3.3676403,-184.88979
2357000000,-3.3898449,-184.92371
2358000000,-3.3984485,-184.95863
2359000000,-3.4073164,-185.2061
2360000000,-3.4098315,-185.28693
2361000000,-3.3967044,-185.10797
2362000000,-3.4096255,-185.26811
2363000000,-3.3693349,-185.41539
2364000000,-3.3793638,-185.66498
2365000000,-3.4431589,-185.69365
2366000000,-3.3736057,-185.82846
2367000000,-3.41552,-185.81734
2368000000,-3.3587847,-185.8831
2369000000,-3.3856018,-186.02509
2370000000,-3.4092004,-186.15736
2371000000,-3.3928516,-186.16034
2372000000,-3.3979843,-186.36192
2373000000,-3.3833637,-186.56383
2374000000,-3.4004891,-186.48148
2375000000,-3.3665273,-186.81732
2376000000,-3.3780584,-186.59969
2377000000,-3.3936801,-186.85709
2378000000,-3.4067972,-187.12259
2379000000,-3.4197762,-187.10559
2380000000,-3.4171081,-187.1769
2381000000,-3.3965704,-187.30556
2382000000,-3.4418809,-187.14928
2383000000,-3.4038265,-187.5358
2384000000,-3.3894928,-187.37839
2385000000,-3.4336197,-187.52878
2386000000,-3.3742228,-187.84294
2387000000,-3.4012227,-187.76419
2388000000,-3.4031258,-187.78075
2389000000,-3.3968258,-187.94728
2390000000,-3.4203541,-187.97983
2391000000,-3.42787,-188.32072
2392000000,-3.3642242,-188.22536
2393000000,-3.4368656,-188.28139
2394000000,-3.4155142,-188.50853
2395000000,-3.4065316,-188.48203
2396000000,-3.4026029,-188.88403
2397000000,-3.4045937,-188.59801
2398000000,-3.4247968,-188.71323
2399000000,-3.432024,-188.75484
2400000000,-3.4004819,-189.12851
2401000000,-3.3996327,-188.96161
2402000000,-3.4188044,-189.06451
2403000000,-3.4224899,-189.26691
2404000000,-3.414268,-189.38608
2405000000,-3.4123881,-189.49532
2406000000,-3.4653151,-189.38383
2407000000,-3.419559,-189.57069
2408000000,-3.4263406,-189.73354
2409000000,-3.4065776,-189.59937
2410000000,-3.4085608,-190.17358
2411000000,-3.4033649,-189.94482
2412000000,-3.4242637,-190.24341
2413000000,-3.4115894,-190.12166
2414000000,-3.4176419,-190.49252
2415000000,-3.4411156,-190.54794
2416000000,-3.3910999,-190.54193
2417000000,-3.4492919,-190.46251
2418000000,-3.4025419,-190.92052
2419000000,-3.4260795,-190.64072
2420000000,-3.4408245,-190.70557
2421000000,-3.4140162,-191.01118
2422000000,-3.4071002,-191.06284
2423000000,-3.4237151,-190.99377
2424000000,-3.4224217,-191.28877
2425000000,-3.398411,-191.48834
2426000000,-3.4320941,-191.25566
2427000000,-3.3832777,-191.45886
2428000000,-3.3847623,-191.51436
2429000000,-3.3869944,-191.74927
2430000000,-3.4095373,-191.57907
2431000000,-3.4356208,-191.85956
2432000000,-3.4338796,-191.84981
2433000000,-3.4137621,-192.11494
2434000000,-3.4039967,-192.01613
2435000000,-3.4412603,-192.05942
2436000000,-3.4191408,-192.11279
2437000000,-3.421387,-192.47974
2438000000,-3.430059,-192.58347
2439000000,-3.4163902,-192.39821
2440000000,-3.4354548,-192.76559
2441000000,-3.3930638,-192.685
2442000000,-3.4348044,-192.68811
2443000000,-3.4253471,-192.6346
2444000000,-3.4422307,-193.20097
2445000000,-3.4363585,-193.23253
2446000000,-3.412632,-193.0276
2447000000,-3.4366283,-193.32228
2448000000,-3.4314196,-193.53256
2449000000,-3.4496882,-193.53461
2450000000,-3.4411416,-193.71884
2451000000,-3.387156,-193.64415
2452000000,-3.4064114,-193.86996
2453000000,-3.4210587,-193.91031
2454000000,-3.4060585,-193.7851
2455000000,-3.4400711,-194.21423
2456000000,-3.4457023,-194.19434
2457000000,-3.4528482,-194.10344
2458000000,-3.4180167,-194.35321
2459000000,-3.4395165,-194.46983
2460000000,-3.412066,-194.50011
2461000000,-3.4195685,-194.75745
2462000000,-3.4512146,-194.76801
2463000000,-3.4466078,-194.98647
2464000000,-3.4312932,-194.95233
2465000000,-3.4200377,-195.03084
2466000000,-3.4370041,-195.12825
2467000000,-3.4274909,-195.18138
2468000000,-3.4225864,-195.18626
2469000000,-3.4324529,-195.50432
2470000000,-3.4133213,-195.38115
2471000000,-3.4268053,-195.59622
2472000000,-3.4343991,-195.62856
2473000000,-3.4261594,-195.75098
2474000000,-3.4606788,-195.8026
2475000000,-3.4555752,-196.22707
2476000000,-3.454983,-196.28564
2477000000,-3.4384139,-196.14848
2478000000,-3.4320927,-196.14894
2479000000,-3.4534657,-196.26244
2480000000,-3.4507105,-196.13191
2481000000,-3.4297819,-196.52293
2482000000,-3.4432516,-196.32674
2483000000,-3.4053466,-196.40236
2484000000,-3.4550402,-196.6582
2485000000,-3.4454582,-196.7592
2486000000,-3.4217763,-196.89362
2487000000,-3.4400775,-196.97537
2488000000,-3.4395771,-197.26315
2489000000,-3.4246907,-197.35236
2490000000,-3.4241338,-197.2646
2491000000,-3.4445372,-197.45865
2492000000,-3.4319966,-197.73483
2493000000,-3.4209898,-197.65866
2494000000,-3.4356081,-197.61264
2495000000,-3.4331827,-197.77005
2496000000,-3.4462988,-198.13416
2497000000,-3.4773958,-197.92915
2498000000,-3.4512935,-197.97882
2499000000,-3.4659383,-198.1671
2500000000,-3.44067,-198.34502
2501000000,-3.4527631,-198.36537
2502000000,-3.4422307,-198.54799
2503000000,-3.4314721,-198.58464
2504000000,-3.4581974,-198.62956
2505000000,-3.4639626,-198.52538
2506000000,-3.4412422,-198.85147
2507000000,-3.4579265,-198.99591
2508000000,-3.4439654,-198.89293
2509000000,-3.428252,-199.0808
2510000000,-3.4666779,-199.11781
2511000000,-3.4460166,-199.11891
2512000000,-3.4845514,-199.29369
2513000000,-3.427561,-199.19763
2514000000,-3.4443798,-199.60918
2515000000,-3.455663,-199.57471
2516000000,-3.4386516,-199.83936
2517000000,-3.4245179,-199.9045
2518000000,-3.4732723,-199.7625
2519000000,-3.4506302,-200.20619
2520000000,-3.4440095,-200.11589
2521000000,-3.4333415,-200.18416
2522000000,-3.4759581,-200.32533
2523000000,-3.4650187,-200.15617
2524000000,-3.4705052,-200.41826
2525000000,-3.4302886,-200.22882
2526000000,-3.4522419,-200.41319
2527000000,-3.4856112,-200.7052
2528000000,-3.4363117,-200.89467
2529000000,-3.428268,-200.72018
2530000000,-3.4716871,-200.91232
2531000000,-3.4597435,-201.19522
2532000000,-3.4464293,-201.03175
2533000000,-3.463558,-201.12167
2534000000,-3.4718242,-201.29529
2535000000,-3.4583178,-201.61125
2536000000,-3.4395602,-201.47179
2537000000,-3.4471304,-201.63615
2538000000,-3.4412556,-201.66669
2539000000,-3.4450479,-201.91878
2540000000,-3.4581337,-201.74979
2541000000,-3.469115,-201.92485
2542000000,-3.4767735,-202.09161
2543000000,-3.4792836,-202.23558
2544000000,-3.4526424,-202.28871
2545000000,-3.4795494,-202.55585
2546000000,-3.4710388,-202.40028
2547000000,-3.4740911,-202.50302
2548000000,-3.4608455,-202.68155
2549000000,-3.4675279,-202.83687
2550000000,-3.4411502,-202.57182
2551000000,-3.4595873,-203.02869
2552000000,-3.466409,-202.93457
2553000000,-3.4777341,-202.99487
2554000000,-3.4460568,-203.32927
2555000000,-3.4462416,-203.33258
2556000000,-3.4634712,-203.34398
2557000000,-3.483417,-203.26733
2558000000,-3.5073195,-203.33614
2559000000,-3.4938395,-203.71648
2560000000,-3.4627311,-203.67296
2561000000,-3.4632082,-203.6534
2562000000,-3.4633732,-203.69765
2563000000,-3.461509,-204.1989
2564000000,-3.4969208,-203.86847
2565000000,-3.492075,-204.15619
2566000000,-3.4763322,-204.09795
2567000000,-3.4855115,-204.4633
2568000000,-3.4644411,-204.43451
2569000000,-3.4519336,-204.78351
2570000000,-3.4690251,-204.90126
2571000000,-3.4565835,-204.7944
2572000000,-3.4832053,-204.82364
2573000000,-3.4675744,-205.03682
2574000000,-3.4685576,-205.11276
2575000000,-3.464505,-205.02974
2576000000,-3.4675722,-205.40041
2577000000,-3.4876471,-205.25203
2578000000,-3.4777141,-205.39532
2579000000,-3.4689047,-205.59113
2580000000,-3.486973,-205.59225
2581000000,-3.4813578,-205.84628
2582000000,-3.499053,-206.02261
2583000000,-3.4348114,-205.53625
2584000000,-3.4345973,-205.96506
2585000000,-3.4838686,-206.07326
2586000000,-3.4729829,-206.14066
2587000000,-3.4779127,-206.1656
2588000000,-3.471338,-206.3407
2589000000,-3.4960563,-206.51312
2590000000,-3.498414,-206.59238
2591000000,-3.4926383,-206.54167
2592000000,-3.4786119,-206.76115
2593000000,-3.4806287,-206.77443
2594000000,-3.516613,-207.07701
2595000000,-3.4799984,-206.93295
2596000000,-3.4540598,-207.07445
2597000000,-3.4439752,-207.34819
2598000000,-3.4747214,-207.55586
2599000000,-3.4880192,-207.50209
2600000000,-3.4888544,-207.43074
2601000000,-3.4687769,-207.63687
2602000000,-3.4839835,-207.60776
2603000000,-3.5068018,-207.62442
2604000000,-3.4657712,-207.87212
2605000000,-3.5017562,-207.8768
2606000000,-3.4582522,-208.04453
2607000000,-3.4962504,-207.90646
2608000000,-3.4670582,-208.16261
2609000000,-3.5077221,-208.25969
2610000000,-3.4512703,-208.51826
2611000000,-3.4775615,-208.33464
2612000000,-3.4524689,-208.58162
2613000000,-3.5172734,-208.81683
2614000000,-3.5225949,-208.91751
2615000000,-3.4919004,-208.9026
2616000000,-3.5023351,-208.76245
2617000000,-3.4815948,-208.77795
2618000000,-3.5133452,-209.11646
2619000000,-3.5081313,-208.9617
2620000000,-3.4455764,-209.20682
2621000000,-3.4761362,-209.50989
2622000000,-3.4919336,-209.50301
2623000000,-3.4582531,-209.42252
2624000000,-3.463136,-209.72453
2625000000,-3.5152109,-209.82074
2626000000,-3.4795957,-210.12811
2627000000,-3.4712548,-209.98103
2628000000,-3.4825161,-209.91437
2629000000,-3.4984338,-209.99486
2630000000,-3.5027468,-210.11575
2631000000,-3.5091829,-210.30681
2632000000,-3.4944096,-210.28716
2633000000,-3.4857228,-210.57597
2634000000,-3.4644575,-210.71469
2635000000,-3.4883554,-210.61172
2636000000,-3.4788716,-210.90718
2637000000,-3.5089526,-210.87123
2638000000,-3.4822919,-210.8412
2639000000,-3.5065207,-211.02565
2640000000,-3.5008314,-211.13812
2641000000,-3.4942987,-211.26926
2642000000,-3.4630558,-211.33775
2643000000,-3.5013113,-211.36076
2644000000,-3.4866502,-211.65216
2645000000,-3.5124068,-211.73604
2646000000,-3.4947808,-211.66348
2647000000,-3.4995885,-211.79819
2648000000,-3.4641962,-211.7688
2649000000,-3.5049253,-211.83961
2650000000,-3.4828391,-211.84801
2651000000,-3.4833722,-212.2047
2652000000,-3.4931462,-212.05301
2653000000,-3.4972658,-212.3688
2654000000,-3.5231998,-212.42361
2655000000,-3.4770129,-212.34154
2656000000,-3.491132,-212.69138
2657000000,-3.5186477,-212.63626
2658000000,-3.4859204,-212.81528
2659000000,-3.4941239,-212.73502
2660000000,-3.5143089,-213.05742
2661000000,-3.5392375,-213.1022
2662000000,-3.5085368,-213.1506
2663000000,-3.4821668,-213.30467
2664000000,-3.4872622,-213.33676
2665000000,-3.4994977,-213.28159
2666000000,-3.5104365,-213.58237
2667000000,-3.5193484,-213.81459
2668000000,-3.504684,-213.89148
2669000000,-3.5019712,-213.78288
2670000000,-3.5040431,-213.8855
2671000000,-3.4998913,-214.3266
2672000000,-3.4871039,-214.00816
2673000000,-3.4879169,-214.06194
2674000000,-3.5100956,-214.42764
2675000000,-3.5087812,-214.47884
2676000000,-3.5002053,-214.52055
2677000000,-3.5028634,-214.64597
2678000000,-3.5226068,-214.62556
2679000000,-3.5127327,-214.76874
2680000000,-3.5235832,-214.70354
2681000000,-3.5212896,-214.9912
2682000000,-3.4976499,-214.7722
2683000000,-3.5289559,-215.23122
2684000000,-3.5124497,-215.24847
2685000000,-3.509007,-215.3784
2686000000,-3.5457284,-215.37543
2687000000,-3.5103545,-215.50845
2688000000,-3.5344107,-215.644
2689000000,-3.5159376,-215.64874
2690000000,-3.5249515,-215.70775
2691000000,-3.5114257,-215.95314
2692000000,-3.5079339,-216.14552
2693000000,-3.5239801,-216.03822
2694000000,-3.4889882,-216.14482
2695000000,-3.5187678,-216.19
2696000000,-3.5659816,-216.49315
2697000000,-3.5509462,-216.64383
2698000000,-3.5326252,-216.68826
2699000000,-3.5432949,-216.6568
2700000000,-3.5106382,-216.86821
2701000000,-3.5106962,-216.91772
2702000000,-3.4992552,-217.12881
2703000000,-3.5115383,-217.0643
2704000000,-3.5377326,-217.07076
2705000000,-3.5288348,-217.11513
2706000000,-3.5284348,-217.38046
2707000000,-3.5387375,-217.48325
2708000000,-3.546387,-217.48442
2709000000,-3.4737759,-217.69772
2710000000,-3.5319996,-217.82327
2711000000,-3.5335205,-217.48204
2712000000,-3.5439539,-218.08994
2713000000,-3.5111806,-217.9976
2714000000,-3.5298977,-218.03177
2715000000,-3.5281842,-218.20436
2716000000,-3.5468204,-218.4082
2717000000,-3.5240846,-218.31099
2718000000,-3.5104434,-218.38441
2719000000,-3.5268219,-218.67657
2720000000,-3.5176885,-218.47121
2721000000,-3.5165875,-218.77057
2722000000,-3.5246651,-218.82054
2723000000,-3.5671234,-218.89696
2724000000,-3.5366709,-219.03207
2725000000,-3.5632644,-218.97353
2726000000,-3.5412767,-219.11539
2727000000,-3.5575998,-219.2729
2728000000,-3.5429194,-219.34651
2729000000,-3.5414145,-219.48784
2730000000,-3.5212145,-219.38416
2731000000,-3.562119,-219.64708
2732000000,-3.5170617,-219.93629
2733000000,-3.5754142,-219.95384
2734000000,-3.5210936,-219.87651
2735000000,-3.5179398,-220.06313
2736000000,-3.5458853,-220.00241
2737000000,-3.5440853,-220.14143
2738000000,-3.5781078,-220.17831
2739000000,-3.5370281,-220.47397
2740000000,-3.5437536,-220.6179
2741000000,-3.530179,-220.49553
2742000000,-3.5543535,-220.65994
2743000000,-3.5028811,-220.85284
2744000000,-3.52424,-220.80721
2745000000,-3.518867,-220.77229
2746000000,-3.5609457,-221.04546
2747000000,-3.5600209,-220.94592
2748000000,-3.5630293,-221.2809
2749000000,-3.579968,-221.26401
2750000000,-3.5451117,-221.6539
2751000000,-3.5491574,-221.64409
2752000000,-3.5429502,-221.606
2753000000,-3.5701709,-221.48586
2754000000,-3.5456743,-221.94397
2755000000,-3.5703292,-221.94337
2756000000,-3.5415251,-221.85295
2757000000,-3.5248163,-222.1244
2758000000,-3.5417559,-222.14299
2759000000,-3.5669158,-222.30116
2760000000,-3.574343,-222.27263
2761000000,-3.5725179,-222.64063
2762000000,-3.5823507,-222.56015
2763000000,-3.571825,-222.71338
2764000000,-3.5837462,-222.65797
2765000000,-3.5719008,-222.8232
2766000000,-3.5464935,-222.87831
2767000000,-3.5203557,-223.01981
2768000000,-3.5902302,-223.05202
2769000000,-3.5407736,-223.21042
2770000000,-3.587877,-223.29443
2771000000,-3.5643399,-223.54913
2772000000,-3.5730228,-223.56638
2773000000,-3.5718126,-223.50096
2774000000,-3.5540602,-223.89015
2775000000,-3.5382869,-223.93097
2776000000,-3.5674744,-223.91039
2777000000,-3.5572803,-224.0172
2778000000,-3.5883584,-224.1237
2779000000,-3.5630424,-224.40224
2780000000,-3.6143067,-224.36757
2781000000,-3.5638764,-224.49281
2782000000,-3.57812,-224.49309
2783000000,-3.6056178,-224.46112
2784000000,-3.6127217,-224.52235
2785000000,-3.6101613,-224.68658
2786000000,-3.5632694,-224.87807
2787000000,-3.638561,-224.83441
2788000000,-3.5702007,-224.94749
2789000000,-3.5697503,-225.08102
2790000000,-3.6043143,-225.12392
2791000000,-3.6006432,-225.33339
2792000000,-3.5554154,-225.33565
2793000000,-3.6038795,-225.4117
2794000000,-3.6012211,-225.57281
2795000000,-3.578815,-225.76234
2796000000,-3.5834279,-225.83896
2797000000,-3.580549,-225.95854
2798000000,-3.6062419,-225.93712
2799000000,-3.5686793,-226.01277
2800000000,-3.6127293,-226.26566
2801000000,-3.6036489,-226.25093
2802000000,-3.5971665,-226.29367
2803000000,-3.6068099,-226.28702
2804000000,-3.5999317,-226.57002
2805000000,-3.646419,-226.43587
2806000000,-3.6184351,-226.89009
2807000000,-3.6123843,-226.87415
2808000000,-3.5828142,-226.81136
2809000000,-3.5701165,-227.21367
2810000000,-3.590533,-227.33904
2811000000,-3.5840287,-227.13466
2812000000,-3.6021821,-227.41011
2813000000,-3.615582,-227.46263
2814000000,-3.5895956,-227.32631
2815000000,-3.5770593,-227.65485
2816000000,-3.6147318,-227.49634
2817000000,-3.5890498,-227.87079
2818000000,-3.6159976,-227.69975
2819000000,-3.5885642,-227.87944
2820000000,-3.647074,-228.11438
2821000000,-3.6149232,-228.05246
2822000000,-3.6206591,-228.31938
2823000000,-3.6110342,-228.13081
2824000000,-3.6031411,-228.34535
2825000000,-3.5892072,-228.48824
2826000000,-3.6274076,-228.69273
2827000000,-3.6176901,-228.7394
2828000000,-3.6093781,-228.77678
2829000000,-3.6293671,-228.77254
2830000000,-3.6067021,-228.73451
2831000000,-3.6221502,-229.21812
2832000000,-3.6108441,-229.26241
2833000000,-3.6463082,-229.21399
2834000000,-3.6309111,-229.3591
2835000000,-3.6136949,-229.35606
2836000000,-3.6130102,-229.56879
2837000000,-3.6377411,-229.63882
2838000000,-3.6235895,-229.74232
2839000000,-3.6478107,-229.68427
2840000000,-3.6478679,-229.89928
2841000000,-3.6235085,-229.87242
2842000000,-3.6309268,-230.20628
2843000000,-3.6305654,-230.46121
2844000000,-3.6244681,-230.23314
2845000000,-3.6379387,-230.36786
2846000000,-3.6217313,-230.37184
2847000000,-3.6036444,-230.74721
2848000000,-3.6576629,-230.65883
2849000000,-3.6195323,-230.78032
2850000000,-3.6351314,-230.75223
2851000000,-3.6191902,-231.07472
2852000000,-3.6385887,-230.94888
2853000000,-3.6320553,-231.21828
2854000000,-3.6499875,-231.23865
2855000000,-3.6248028,-231.48222
2856000000,-3.6492209,-231.30341
2857000000,-3.6252182,-231.57901
2858000000,-3.6496253,-231.71854
2859000000,-3.6607878,-231.66119
2860000000,-3.6559196,-231.96498
2861000000,-3.6509092,-231.92938
2862000000,-3.6565144,-232.03773
2863000000,-3.654072,-231.98964
2864000000,-3.6409874,-232.12097
2865000000,-3.6244495,-232.20064
2866000000,-3.6424186,-232.28448
2867000000,-3.6726294,-232.70346
2868000000,-3.6679416,-232.63774
2869000000,-3.6676114,-232.82724
2870000000,-3.6415899,-232.62975
2871000000,-3.6712599,-232.80605
2872000000,-3.6928201,-232.94841
2873000000,-3.6619945,-233.21349
2874000000,-3.6704881,-233.00851
2875000000,-3.667628,-233.01469
2876000000,-3.669637,-233.20541
2877000000,-3.6678386,-233.37088
2878000000,-3.6780863,-233.49437
2879000000,-3.6963718,-233.86081
2880000000,-3.6973886,-233.66586
2881000000,-3.689218,-233.99393
2882000000,-3.661989,-233.8615
2883000000,-3.6924362,-234.02966
2884000000,-3.6846418,-233.95961
2885000000,-3.6691766,-234.26448
2886000000,-3.669796,-234.45453
2887000000,-3.6984978,-234.42406
2888000000,-3.6963005,-234.66087
2889000000,-3.6727018,-234.50179
2890000000,-3.6833136,-234.58521
2891000000,-3.7073851,-234.63672
2892000000,-3.6964216,-234.94618
2893000000,-3.6872854,-234.80772
2894000000,-3.706109,-234.97365
2895000000,-3.6589046,-235.10069
2896000000,-3.689965,-235.25862
2897000000,-3.6802313,-235.20438
2898000000,-3.7017128,-235.28764
2899000000,-3.6653833,-235.37927
2900000000,-3.7016129,-235.62199
2901000000,-3.7117324,-235.50203
2902000000,-3.6913099,-235.73956
2903000000,-3.7200599,-235.88812
2904000000,-3.6885684,-236.04675
2905000000,-3.7079198,-235.9765
2906000000,-3.683423,-236.02347
2907000000,-3.7513742,-236.48766
2908000000,-3.7007535,-236.33714
2909000000,-3.7154663,-236.27444
2910000000,-3.6951208,-236.50726
2911000000,-3.7365723,-236.59749
2912000000,-3.7158108,-236.87727
2913000000,-3.7099676,-236.67964
2914000000,-3.6775999,-236.74545
2915000000,-3.7246084,-236.9285
2916000000,-3.7445652,-237.2439
2917000000,-3.7392938,-236.98787
2918000000,-3.7278335,-237.13777
2919000000,-3.7280271,-237.45853
2920000000,-3.6989787,-237.43347
2921000000,-3.7095976,-237.75749
2922000000,-3.7191505,-237.49265
2923000000,-3.7487369,-237.56879
2924000000,-3.6966376,-237.76485
2925000000,-3.7327657,-237.83853
2926000000,-3.7136865,-237.91609
2927000000,-3.719243,-238.22096
2928000000,-3.7423358,-238.11313
2929000000,-3.7321224,-238.27895
2930000000,-3.75562,-238.32309
2931000000,-3.741724,-238.48073
2932000000,-3.7583396,-238.50835
2933000000,-3.7330327,-238.56699
2934000000,-3.6996403,-238.74159
2935000000,-3.7585666,-238.94844
2936000000,-3.7254729,-238.91977
2937000000,-3.7382991,-239.04785
2938000000,-3.7508047,-238.80658
2939000000,-3.7592187,-239.36288
2940000000,-3.769752,-239.39067
2941000000,-3.7677088,-239.2341
2942000000,-3.7774258,-239.58968
2943000000,-3.7634735,-239.76486
2944000000,-3.7142229,-239.57872
2945000000,-3.7457011,-239.9498
2946000000,-3.781172,-240.00307
2947000000,-3.733587,-240.1797
2948000000,-3.7779343,-240.35422
2949000000,-3.7831693,-240.2843
2950000000,-3.7383254,-240.46288
2951000000,-3.7533088,-240.34026
2952000000,-3.7906909,-240.38649
2953000000,-3.7549651,-240.536
2954000000,-3.8025105,-240.8757
2955000000,-3.7802405,-240.7372
2956000000,-3.7679188,-240.56514
2957000000,-3.7755678,-241.16136
2958000000,-3.7760313,-240.97826
2959000000,-3.7618296,-241.29378
2960000000,-3.7931061,-240.98575
2961000000,-3.7575586,-241.46292
2962000000,-3.7641094,-241.35597
2963000000,-3.8102255,-241.38089
2964000000,-3.7778468,-241.53069
2965000000,-3.7938867,-241.79933
2966000000,-3.7674656,-241.57079
2967000000,-3.7818754,-241.73111
2968000000,-3.7985227,-241.9744
2969000000,-3.7813506,-241.89417
2970000000,-3.8174632,-242.06532
2971000000,-3.8048162,-242.06981
2972000000,-3.7453597,-242.23856
2973000000,-3.7942016,-242.35692
2974000000,-3.8072886,-242.72739
2975000000,-3.8042951,-242.5939
2976000000,-3.8087268,-242.59157
2977000000,-3.808959,-242.82965
2978000000,-3.8033607,-242.78378
2979000000,-3.8280277,-242.99655
2980000000,-3.7816448,-243.09232
2981000000,-3.7951622,-243.07408
2982000000,-3.8161387,-243.15231
2983000000,-3.8168855,-243.32724
2984000000,-3.803462,-243.40041
2985000000,-3.8276691,-243.61172
2986000000,-3.8022058,-243.70145
2987000000,-3.8141873,-243.76036
2988000000,-3.8466339,-243.88544
2989000000,-3.8177025,-244.10249
2990000000,-3.8128035,-244.04723
2991000000,-3.8146162,-244.19321
2992000000,-3.8205626,-244.24326
2993000000,-3.8470922,-244.36264
2994000000,-3.8377559,-244.09331
2995000000,-3.8425479,-244.29002
2996000000,-3.8719695,-244.64636
2997000000,-3.8402407,-244.73518
2998000000,-3.8164918,-244.85368
2999000000,-3.840838,-244.66989
3000000000,-3.859261,-244.94542
3001000000,-3.8456335,-245.00348
3002000000,-3.8467188,-245.15503
3003000000,-3.850718,-245.2666
3004000000,-3.8519726,-245.32863
3005000000,-3.8617761,-245.42862
3006000000,-3.8623254,-245.5108
3007000000,-3.8540244,-245.50377
3008000000,-3.8911905,-245.81032
3009000000,-3.8612194,-245.59756
3010000000,-3.8879941,-246.03079
3011000000,-3.8352776,-245.8166
3012000000,-3.8370066,-245.98116
3013000000,-3.8784769,-246.20731
3014000000,-3.8599255,-246.35764
3015000000,-3.8345933,-246.06598
3016000000,-3.8919806,-246.4491
3017000000,-3.8851769,-246.72223
3018000000,-3.9170473,-246.65477
3019000000,-3.9101634,-246.68837
3020000000,-3.8787704,-246.66199
3021000000,-3.8767531,-246.82539
3022000000,-3.8752553,-247
3023000000,-3.8809609,-247.15646
3024000000,-3.9004385,-247.36156
3025000000,-3.9140422,-247.23039
3026000000,-3.9036074,-247.36411
3027000000,-3.9089253,-247.26717
3028000000,-3.9003925,-247.53215
3029000000,-3.9086926,-247.59039
3030000000,-3.8972871,-247.83008
3031000000,-3.9172115,-248.03029
3032000000,-3.900708,-247.88835
3033000000,-3.9189374,-248.07643
3034000000,-3.8974409,-248.328
3035000000,-3.9048679,-248.12843
3036000000,-3.9185967,-248.17682
3037000000,-3.927386,-248.42955
3038000000,-3.9242268,-248.46791
3039000000,-3.9098918,-248.524
3040000000,-3.9096394,-248.57758
3041000000,-3.9217746,-248.67793
3042000000,-3.9221287,-248.7162
3043000000,-3.9394209,-248.88503
3044000000,-3.9495831,-248.93805
3045000000,-3.9149404,-249.10941
3046000000,-3.8995914,-249.22104
3047000000,-3.9370146,-249.39005
3048000000,-3.9213202,-249.38562
3049000000,-3.9159603,-249.62206
3050000000,-3.9664946,-249.5602
3051000000,-3.9232244,-249.9207
3052000000,-3.9472518,-249.72118
3053000000,-3.9555974,-249.9167
3054000000,-3.9386191,-250.08347
3055000000,-3.9510732,-250.1514
3056000000,-3.945982,-250.08481
3057000000,-3.9664562,-250.13945
3058000000,-3.9643676,-250.25734
3059000000,-3.9476283,-250.30638
3060000000,-3.9492598,-250.69077
3061000000,-3.9736307,-250.6071
3062000000,-3.9881337,-250.73813
3063000000,-3.9771159,-250.71265
3064000000,-3.9696043,-250.68556
3065000000,-3.9684203,-251.1031
3066000000,-3.9660819,-250.95613
3067000000,-3.9545369,-250.95328
3068000000,-3.9756184,-251.27531
3069000000,-3.9815612,-251.50232
3070000000,-3.9978306,-251.30618
3071000000,-3.9741633,-251.56505
3072000000,-3.9893854,-251.63258
3073000000,-3.9695406,-251.83774
3074000000,-3.9826984,-251.64505
3075000000,-3.9983594,-251.78952
3076000000,-3.9938369,-252.01241
3077000000,-4.0214305,-252.02924
3078000000,-4.0064583,-251.93535
3079000000,-3.9948263,-252.27339
3080000000,-3.9764431,-252.3692
3081000000,-4.003736,-252.46828
3082000000,-3.9957898,-252.63193
3083000000,-4.0220375,-252.54276
3084000000,-3.9859035,-252.5004
3085000000,-4.0182781,-252.61829
3086000000,-3.9705312,-252.84727
3087000000,-4.0242109,-252.80893
3088000000,-4.006815,-253.12067
3089000000,-4.0208549,-253.16273
3090000000,-4.0000801,-253.40289
3091000000,-4.0467277,-253.27487
3092000000,-4.00036,-253.44748
3093000000,-4.0560389,-253.56451
3094000000,-4.0196509,-253.65309
3095000000,-4.0498033,-253.87953
3096000000,-4.0164919,-253.76808
3097000000,-4.0446033,-254.12946
3098000000,-4.0569892,-253.88821
3099000000,-4.0622458,-254.05428
3100000000,-4.0758877,-254.10194
3101000000,-4.0524387,-254.42056
3102000000,-4.058579,-254.39935
3103000000,-4.0491185,-254.40425
3104000000,-4.0352941,-254.61905
3105000000,-4.0365005,-254.50769
3106000000,-4.0600286,-254.71648
3107000000,-4.0504103,-254.97037
3108000000,-4.0686617,-254.98192
3109000000,-4.0719361,-254.88887
3110000000,-4.0739832,-255.19029
3111000000,-4.0806637,-255.08727
3112000000,-4.0379996,-255.39748
3113000000,-4.0598335,-255.41028
3114000000,-4.0532417,-255.63251
3115000000,-4.0758891,-255.46602
3116000000,-4.0628481,-255.5863
3117000000,-4.071919,-255.68477
3118000000,-4.1025066,-255.98227
3119000000,-4.0578699,-255.69669
3120000000,-4.0935087,-256.03296
3121000000,-4.08323,-256.06018
3122000000,-4.1112604,-256.2178
3123000000,-4.0702953,-256.32565
3124000000,-4.0808744,-256.24304
3125000000,-4.0992384,-256.46799
3126000000,-4.0947652,-256.63535
3127000000,-4.083909,-256.79727
3128000000,-4.0819554,-256.78021
3129000000,-4.124692,-256.81589
3130000000,-4.095479,-256.98111
3131000000,-4.0882192,-257.29709
3132000000,-4.0970011,-257.04492
3133000000,-4.1427379,-257.25729
3134000000,-4.0916162,-257.32407
3135000000,-4.1029444,-257.38135
3136000000,-4.136703,-257.48309
3137000000,-4.1069894,-257.62759
3138000000,-4.1218672,-257.76401
3139000000,-4.15205,-257.91974
3140000000,-4.1287141,-257.84995
3141000000,-4.1333089,-257.90668
3142000000,-4.100862,-257.94952
3143000000,-4.1289315,-258.16617
3144000000,-4.1194844,-258.22427
3145000000,-4.1558838,-258.35657
3146000000,-4.136775,-258.47656
3147000000,-4.1316009,-258.4812
3148000000,-4.1723599,-258.40335
3149000000,-4.1397853,-258.57034
3150000000,-4.1401777,-258.83582
3151000000,-4.1315756,-259.02289
3152000000,-4.1789832,-258.93173
3153000000,-4.158874,-258.98499
3154000000,-4.1682305,-259.04697
3155000000,-4.1612902,-259.16943
3156000000,-4.1685209,-259.16599
3157000000,-4.1831756,-259.51492
3158000000,-4.1971107,-259.28455
3159000000,-4.1863432,-259.41183
3160000000,-4.1538525,-259.70819
3161000000,-4.1818857,-259.82977
3162000000,-4.1732011,-259.75323
3163000000,-4.1604567,-260.01541
3164000000,-4.185555,-259.98148
3165000000,-4.192843,-260.01532
3166000000,-4.180162,-260.18182
3167000000,-4.2023416,-260.44177
3168000000,-4.18015,-260.44669
3169000000,-4.1841097,-260.45828
3170000000,-4.2016602,-260.60901
3171000000,-4.176734,-260.54684
3172000000,-4.2074018,-260.57648
3173000000,-4.1861634,-260.91556
3174000000,-4.2287345,-260.9462
3175000000,-4.2258286,-260.99374
3176000000,-4.2450571,-261.24854
3177000000,-4.1988206,-261.18896
3178000000,-4.2066693,-261.28693
3179000000,-4.2098031,-261.36096
3180000000,-4.2228127,-261.35034
3181000000,-4.2274251,-261.62958
3182000000,-4.2136502,-261.61813
3183000000,-4.225637,-261.55881
3184000000,-4.2201114,-261.79095
3185000000,-4.2325048,-261.81973
3186000000,-4.2199998,-262.01825
3187000000,-4.209125,-262.14301
3188000000,-4.2485986,-262.11588
3189000000,-4.2248602,-262.19754
3190000000,-4.2690201,-262.45822
3191000000,-4.2733755,-262.64978
3192000000,-4.253027,-262.54184
3193000000,-4.2467389,-262.54944
3194000000,-4.2357974,-262.71954
3195000000,-4.2751408,-262.79599
3196000000,-4.2855911,-263.04922
3197000000,-4.28689,-262.87021
3198000000,-4.2310405,-262.91074
3199000000,-4.2730026,-263.27539
3200000000,-4.2386408,-263.21539
3201000000,-4.2539806,-263.32562
3202000000,-4.2474132,-263.4892
3203000000,-4.264317,-263.43451
3204000000,-4.2711911,-263.57199
3205000000,-4.3038192,-263.65579
3206000000,-4.2753453,-263.75735
3207000000,-4.2842898,-263.85489
3208000000,-4.261179,-263.89536
3209000000,-4.2865891,-264.26123
3210000000,-4.2488961,-264.02997
3211000000,-4.2939315,-264.24829
3212000000,-4.3081551,-264.51407
3213000000,-4.313993,-264.29877
3214000000,-4.2840352,-264.57721
3215000000,-4.3099694,-264.79706
3216000000,-4.2936006,-264.75009
3217000000,-4.3200612,-264.76962
3218000000,-4.3237453,-264.70776
3219000000,-4.3157897,-264.91373
3220000000,-4.3274107,-265.16226
3221000000,-4.3131323,-265.05588
3222000000,-4.3226194,-265.20505
3223000000,-4.3135819,-265.41595
3224000000,-4.3472705,-265.29706
3225000000,-4.2930522,-265.4003
3226000000,-4.3421016,-265.72183
3227000000,-4.3314447,-265.50443
3228000000,-4.3223033,-265.72284
3229000000,-4.3235593,-265.99463
3230000000,-4.358727,-265.80243
3231000000,-4.3188977,-266.01114
3232000000,-4.333478,-266.04642
3233000000,-4.3536677,-266.37503
3234000000,-4.3165112,-266.56305
3235000000,-4.3463955,-266.21545
3236000000,-4.3629432,-266.48868
3237000000,-4.3677511,-266.44635
3238000000,-4.347683,-266.73999
3239000000,-4.3877068,-266.68771
3240000000,-4.3492532,-266.67709
3241000000,-4.3910756,-267.02075
3242000000,-4.3641925,-266.86081
3243000000,-4.3561583,-267.18558
3244000000,-4.3770099,-266.8873
3245000000,-4.3791628,-267.18991
3246000000,-4.3942266,-267.05478
3247000000,-4.3913045,-267.26154
3248000000,-4.3984199,-267.79233
3249000000,-4.3799601,-267.45004
3250000000,-4.3948369,-267.59201
3251000000,-4.3953567,-267.63174
3252000000,-4.418776,-267.90466
3253000000,-4.4265785,-268.01367
3254000000,-4.4472556,-268.11856
3255000000,-4.4258924,-267.92776
3256000000,-4.4468842,-268.10327
3257000000,-4.4243312,-268.293
3258000000,-4.4176064,-268.41534
3259000000,-4.4539399,-268.40436
3260000000,-4.428628,-268.79291
3261000000,-4.453578,-268.68875
3262000000,-4.4201303,-268.86136
3263000000,-4.4564152,-268.76932
3264000000,-4.4403663,-268.81863
3265000000,-4.407516,-269.02209
3266000000,-4.4498186,-268.9657
3267000000,-4.4393349,-269.13373
3268000000,-4.4411325,-269.12015
3269000000,-4.4274626,-269.19937
3270000000,-4.4735804,-269.31232
3271000000,-4.4375296,-269.52783
3272000000,-4.4546294,-269.4209
3273000000,-4.4500713,-269.83032
3274000000,-4.4496112,-269.74109
3275000000,-4.4462051,-269.59488
3276000000,-4.4617457,-270.05713
3277000000,-4.4742231,-269.87192
3278000000,-4.4581084,-270.10547
3279000000,-4.4739327,-270.12341
3280000000,-4.4655166,-270.29831
3281000000,-4.4823451,-270.25705
3282000000,-4.4590454,-270.52045
3283000000,-4.4516821,-270.61591
3284000000,-4.4741869,-270.48941
3285000000,-4.4624782,-270.55008
3286000000,-4.5003014,-270.69086
3287000000,-4.4988575,-270.87036
3288000000,-4.4755807,-271.14795
3289000000,-4.525269,-270.92242
3290000000,-4.5072126,-271.2146
3291000000,-4.487206,-271.41513
3292000000,-4.5054755,-271.09546
3293000000,-4.503438,-271.34747
3294000000,-4.4986525,-271.26477
3295000000,-4.5218263,-271.57559
3296000000,-4.528985,-271.71472
3297000000,-4.4986429,-271.65692
3298000000,-4.5414834,-271.93567
3299000000,-4.5560665,-271.83826
3300000000,-4.5386848,-272.11356
3301000000,-4.5285101,-272.16556
3302000000,-4.5165782,-272.19278
3303000000,-4.5110126,-272.2384
3304000000,-4.5448947,-272.41537
3305000000,-4.5306244,-272.34808
3306000000,-4.526463,-272.49615
3307000000,-4.5452824,-272.52148
3308000000,-4.5274749,-272.74677
3309000000,-4.5373974,-272.72919
3310000000,-4.5510306,-273.06525
3311000000,-4.5769668,-273.04343
3312000000,-4.5571361,-273.10492
3313000000,-4.575633,-273.26373
3314000000,-4.5466647,-273.07797
3315000000,-4.555563,-273.1424
3316000000,-4.5525012,-273.21033
3317000000,-4.5720963,-273.58841
3318000000,-4.5639806,-273.62656
3319000000,-4.5949955,-273.75616
3320000000,-4.5454135,-273.3743
3321000000,-4.571506,-273.83575
3322000000,-4.5468092,-273.77423
3323000000,-4.5811348,-273.76715
3324000000,-4.5946884,-273.99066
3325000000,-4.5764155,-274.1619
3326000000,-4.6039834,-274.2377
3327000000,-4.5509529,-274.28809
3328000000,-4.5752687,-274.22006
3329000000,-4.5949869,-274.61301
3330000000,-4.5968471,-274.45618
3331000000,-4.6040664,-274.76535
3332000000,-4.5998359,-274.80542
3333000000,-4.6026769,-275.01538
3334000000,-4.6214123,-274.85712
3335000000,-4.6393185,-275.01953
3336000000,-4.6374884,-275.02191
3337000000,-4.6260581,-275.17676
3338000000,-4.638093,-275.14673
3339000000,-4.6396952,-275.38992
3340000000,-4.6640973,-275.32529
3341000000,-4.6340942,-275.28497
3342000000,-4.6322808,-275.59418
3343000000,-4.6336942,-275.66965
3344000000,-4.6386719,-275.79358
3345000000,-4.6331577,-275.82809
3346000000,-4.6417375,-275.92056
3347000000,-4.6761212,-276.01807
3348000000,-4.6475687,-275.7916
3349000000,-4.6620655,-276.19269
3350000000,-4.6428652,-276.4259
3351000000,-4.6519942,-276.19937
3352000000,-4.6551952,-276.39548
3353000000,-4.6650639,-276.51419
3354000000,-4.6756873,-276.52127
3355000000,-4.676764,-276.6261
3356000000,-4.6312041,-276.8703
3357000000,-4.6628065,-276.66003
3358000000,-4.6590896,-276.72342
3359000000,-4.6730413,-276.96237
3360000000,-4.6803937,-277.08142
3361000000,-4.6281333,-277.05719
3362000000,-4.6792302,-277.20352
3363000000,-4.7123761,-277.33881
3364000000,-4.6705165,-277.35712
3365000000,-4.6935182,-277.58063
3366000000,-4.7107162,-277.53909
3367000000,-4.6916203,-277.8689
3368000000,-4.6782699,-277.56107
3369000000,-4.7196622,-277.76117
3370000000,-4.7089777,-277.91238
3371000000,-4.7257495,-277.87888
3372000000,-4.7067981,-277.92841
3373000000,-4.7145824,-278.02075
3374000000,-4.705533,-278.01828
3375000000,-4.7370615,-278.17606
3376000000,-4.7301092,-278.52335
3377000000,-4.7680807,-278.37009
3378000000,-4.7301874,-278.30084
3379000000,-4.7192879,-278.6391
3380000000,-4.7336187,-278.66086
3381000000,-4.7260118,-278.76712
3382000000,-4.7327614,-278.88983
3383000000,-4.7335348,-279.01556
3384000000,-4.7507582,-279.14597
3385000000,-4.727458,-279.15665
3386000000,-4.7753344,-279.28104
3387000000,-4.7626839,-279.46127
3388000000,-4.762804,-279.37842
3389000000,-4.7698278,-279.49591
3390000000,-4.7809105,-279.63736
3391000000,-4.7351704,-279.56192
3392000000,-4.734231,-279.64804
3393000000,-4.752162,-279.66415
3394000000,-4.7649984,-279.88544
3395000000,-4.7672491,-279.95059
3396000000,-4.7538533,-280.0303
3397000000,-4.7693791,-280.24234
3398000000,-4.7846379,-280.30029
3399000000,-4.7821755,-280.30634
3400000000,-4.8033719,-280.64185
3401000000,-4.7624292,-280.4523
3402000000,-4.7862835,-280.67899
3403000000,-4.8296452,-280.7915
3404000000,-4.845746,-280.77917
3405000000,-4.8149958,-280.85446
3406000000,-4.8069425,-280.86688
3407000000,-4.7939878,-280.79239
3408000000,-4.7954869,-280.78287
3409000000,-4.8285699,-281.10352
3410000000,-4.8015161,-281.06357
3411000000,-4.8316407,-281.10638
3412000000,-4.8195376,-281.36209
3413000000,-4.8110633,-281.42554
3414000000,-4.8421011,-281.3793
3415000000,-4.8397861,-281.59821
3416000000,-4.8268938,-281.77948
3417000000,-4.8365722,-281.83334
3418000000,-4.8422184,-281.88904
3419000000,-4.8583088,-282.02161
3420000000,-4.8216543,-282.08078
3421000000,-4.857039,-281.98172
3422000000,-4.8353496,-282.29028
3423000000,-4.8398342,-282.41901
3424000000,-4.8425293,-282.51505
3425000000,-4.867404,-282.44495
3426000000,-4.8544135,-282.55295
3427000000,-4.8429112,-282.53217
3428000000,-4.8640332,-282.57147
3429000000,-4.8734751,-283.01273
3430000000,-4.8673391,-282.85233
3431000000,-4.8657699,-282.90961
3432000000,-4.8889728,-282.91855
3433000000,-4.8470869,-283.12006
3434000000,-4.8851361,-283.11407
3435000000,-4.8573103,-283.33539
3436000000,-4.8595238,-283.28983
3437000000,-4.8853307,-283.50778
3438000000,-4.8754892,-283.56827
3439000000,-4.8766551,-283.61182
3440000000,-4.9062977,-283.73868
3441000000,-4.8797112,-283.77615
3442000000,-4.9102345,-283.82489
3443000000,-4.8786974,-283.86435
3444000000,-4.9205551,-283.88412
3445000000,-4.9222169,-284
3446000000,-4.9182539,-284.30359
3447000000,-4.8974938,-284.23361
3448000000,-4.9266429,-284.29788
3449000000,-4.8973765,-284.30972
3450000000,-4.8939381,-284.59454
3451000000,-4.9252653,-284.64972
3452000000,-4.9278831,-284.62766
3453000000,-4.9109578,-284.75894
3454000000,-4.9358659,-284.7298
3455000000,-4.9505892,-284.7663
3456000000,-4.9390349,-284.89719
3457000000,-4.9289198,-285.20367
3458000000,-4.9615507,-285.26566
3459000000,-4.9499907,-285.30737
3460000000,-4.9436102,-285.23657
3461000000,-4.9720721,-285.44449
3462000000,-4.9762173,-285.47977
3463000000,-4.9575119,-285.51758
3464000000,-4.9401264,-285.74374
3465000000,-4.9692335,-285.604
3466000000,-4.949882,-285.75885
3467000000,-4.9642367,-285.86551
3468000000,-4.9599395,-285.98242
3469000000,-4.9726224,-286.12726
3470000000,-5.0016341,-286.15344
3471000000,-4.985837,-286.13641
3472000000,-4.9739294,-286.16309
3473000000,-4.9755006,-286.35458
3474000000,-4.9999566,-286.44037
3475000000,-4.9893951,-286.39078
3476000000,-4.996098,-286.68808
3477000000,-4.9683414,-286.48395
3478000000,-5.000021,-286.84717
3479000000,-4.9922152,-286.57635
3480000000,-5.0132651,-286.80716
3481000000,-4.9951839,-287.20999
3482000000,-4.9943342,-287.19778
3483000000,-5.0075436,-287.12241
3484000000,-5.0292931,-287.35211
3485000000,-4.9884768,-287.39627
3486000000,-5.0040393,-287.48386
3487000000,-5.0573111,-287.62924
3488000000,-5.0148091,-287.6026
3489000000,-5.0313549,-287.76624
3490000000,-5.0178885,-287.56531
3491000000,-5.019218,-287.95709
3492000000,-5.021791,-287.91806
3493000000,-5.018405,-287.88208
3494000000,-5.0300479,-288.02356
3495000000,-5.0445423,-288.10205
3496000000,-5.0502157,-288.29364
3497000000,-5.097867,-288.33945
3498000000,-5.0265651,-288.44989
3499000000,-5.0450826,-288.55786
3500000000,-5.0279927,-288.47699
3501000000,-5.0344844,-288.55835
3502000000,-5.0721574,-288.76117
3503000000,-5.047545,-288.75638
3504000000,-5.06041,-288.8927
3505000000,-5.0713458,-289.03442
3506000000,-5.0612373,-288.99777
3507000000,-5.0626187,-289.16235
3508000000,-5.0502768,-289.2778
3509000000,-5.0782914,-289.31158
3510000000,-5.067306,-289.44299
3511000000,-5.0845022,-289.40036
3512000000,-5.0888906,-289.42532
3513000000,-5.1053371,-289.64532
3514000000,-5.1012521,-289.83658
3515000000,-5.0871229,-289.5618
3516000000,-5.0905285,-289.94186
3517000000,-5.084785,-289.72787
3518000000,-5.0776739,-289.92514
3519000000,-5.1110125,-290.12579
3520000000,-5.1034908,-290.23083
3521000000,-5.0958381,-290.34875
3522000000,-5.1171122,-290.29828
3523000000,-5.1135082,-290.53998
3524000000,-5.1027808,-290.47876
3525000000,-5.1274753,-290.53741
3526000000,-5.1228714,-290.64978
3527000000,-5.1278534,-290.64661
3528000000,-5.1368499,-290.69116
3529000000,-5.124567,-290.84671
3530000000,-5.128696,-290.80368
3531000000,-5.1373172,-291.08887
3532000000,-5.1413045,-291.08942
3533000000,-5.1293683,-291.21643
3534000000,-5.124053,-291.30518
3535000000,-5.14185,-291.37198
3536000000,-5.1758742,-291.35556
3537000000,-5.1545901,-291.36322
3538000000,-5.1355424,-291.86032
3539000000,-5.1548061,-291.69052
3540000000,-5.1698728,-291.82388
3541000000,-5.1609392,-292.00809
3542000000,-5.1652012,-291.87463
3543000000,-5.1730118,-291.75864
3544000000,-5.1537485,-292.06699
3545000000,-5.1541438,-292.13776
3546000000,-5.1428552,-292.15442
3547000000,-5.1854815,-292.31558
3548000000,-5.1722283,-292.50653
3549000000,-5.1733513,-292.67578
3550000000,-5.1819644,-292.4848
3551000000,-5.2049308,-292.66476
3552000000,-5.1740322,-292.4993
3553000000,-5.1686692,-292.56311
3554000000,-5.1944227,-292.76675
3555000000,-5.1946497,-292.91754
3556000000,-5.2541523,-292.90228
3557000000,-5.2035847,-292.92743
3558000000,-5.2041936,-293.06354
3559000000,-5.2008462,-293.20923
3560000000,-5.2274847,-293.32974
3561000000,-5.1829214,-293.3714
3562000000,-5.2239861,-293.46936
3563000000,-5.2183022,-293.68835
3564000000,-5.1989555,-293.53671
3565000000,-5.211731,-293.71307
3566000000,-5.1933689,-293.64191
3567000000,-5.2267861,-293.80338
3568000000,-5.2507839,-293.92102
3569000000,-5.2332191,-293.88397
3570000000,-5.208497,-293.97604
3571000000,-5.22083,-294.0972
3572000000,-5.2477403,-294.06476
3573000000,-5.2556357,-294.37888
3574000000,-5.2345691,-294.35178
3575000000,-5.2146659,-294.50473
3576000000,-5.2390118,-294.50864
3577000000,-5.2624726,-294.51187
3578000000,-5.2840891,-294.83255
3579000000,-5.2783847,-294.8508
3580000000,-5.2511487,-294.81845
3581000000,-5.2606215,-295.05005
3582000000,-5.2515812,-294.98492
3583000000,-5.2780976,-295.08838
3584000000,-5.2668653,-294.9519
3585000000,-5.2857375,-295.07608
3586000000,-5.2943454,-295.38144
3587000000,-5.2417765,-295.29745
3588000000,-5.2535305,-295.28931
3589000000,-5.252748,-295.56906
3590000000,-5.2716908,-295.72675
3591000000,-5.305716,-295.75269
3592000000,-5.2869506,-295.70151
3593000000,-5.2862148,-295.80908
3594000000,-5.3001814,-295.84778
3595000000,-5.2957058,-296.0766
3596000000,-5.286037,-296.14047
3597000000,-5.3278151,-296.1936
3598000000,-5.3214788,-296.21805
3599000000,-5.2922153,-296.28162
3600000000,-5.2943368,-296.31464
3601000000,-5.3023739,-296.46796
3602000000,-5.2977395,-296.51749
3603000000,-5.3238297,-296.81396
3604000000,-5.2841287,-296.90558
3605000000,-5.2899165,-296.7605
3606000000,-5.2927718,-296.86426
3607000000,-5.3151517,-297.06363
3608000000,-5.2824187,-296.95013
3609000000,-5.2717676,-297.0708
3610000000,-5.3425918,-297.06915
3611000000,-5.3224678,-297.10431
3612000000,-5.3200965,-297.26202
3613000000,-5.3154173,-297.55878
3614000000,-5.3398252,-297.34433
3615000000,-5.3379297,-297.71448
3616000000,-5.3309531,-297.60617
3617000000,-5.3475628,-297.70767
3618000000,-5.3463068,-297.93195
3619000000,-5.339458,-297.88544
3620000000,-5.3523636,-298.01663
3621000000,-5.3546004,-298.11108
3622000000,-5.3891649,-298.11359
3623000000,-5.3489485,-298.35999
3624000000,-5.3743343,-298.30203
3625000000,-5.3716698,-298.3038
3626000000,-5.3616018,-298.48486
3627000000,-5.3679109,-298.59918
3628000000,-5.3615193,-298.40747
3629000000,-5.364675,-298.59488
3630000000,-5.4139576,-298.7099
3631000000,-5.3466225,-298.75455
3632000000,-5.397006,-298.94925
3633000000,-5.3811183,-298.96631
3634000000,-5.3937235,-299.11682
3635000000,-5.3919749,-299.16043
3636000000,-5.3805189,-299.34906
3637000000,-5.397181,-299.43658
3638000000,-5.4031086,-299.54688
3639000000,-5.3939333,-299.45059
3640000000,-5.402905,-299.4404
3641000000,-5.3900876,-299.47379
3642000000,-5.4200635,-299.409
3643000000,-5.4050522,-299.62982
3644000000,-5.4062772,-299.77539
3645000000,-5.4224129,-299.89865
3646000000,-5.3926797,-300.09412
3647000000,-5.4400859,-300.01108
3648000000,-5.4343653,-300.133
3649000000,-5.4208503,-300.27155
3650000000,-5.4273734,-300.16525
3651000000,-5.4482322,-300.53351
3652000000,-5.4225392,-300.37677
3653000000,-5.4168291,-300.62375
3654000000,-5.4231501,-300.51434
3655000000,-5.4325962,-300.77161
3656000000,-5.4268003,-300.75235
3657000000,-5.4369607,-300.75009
3658000000,-5.4482827,-300.90488
3659000000,-5.4366183,-300.96484
3660000000,-5.4279208,-301.09698
3661000000,-5.4514341,-300.98776
3662000000,-5.4485469,-301.14175
3663000000,-5.4486222,-301.26761
3664000000,-5.470005,-301.30298
3665000000,-5.4860001,-301.35895
3666000000,-5.4587517,-301.47833
3667000000,-5.4881954,-301.64258
3668000000,-5.463285,-301.59985
3669000000,-5.4631519,-301.66159
3670000000,-5.4827628,-301.86353
3671000000,-5.4648676,-302.0069
3672000000,-5.4845643,-301.77664
3673000000,-5.5080833,-302.08987
3674000000,-5.4770966,-302.07001
3675000000,-5.464694,-302.24908
3676000000,-5.4333239,-302.26804
3677000000,-5.4982343,-302.2742
3678000000,-5.4775386,-302.4689
3679000000,-5.4807515,-302.49359
3680000000,-5.5109506,-302.52542
3681000000,-5.4985137,-302.71848
3682000000,-5.4553123,-302.72574
3683000000,-5.4989247,-302.72372
3684000000,-5.4934988,-302.80121
3685000000,-5.4981728,-302.9805
3686000000,-5.5219059,-303.25708
3687000000,-5.4990535,-303.25275
3688000000,-5.4939394,-303.05402
3689000000,-5.5155468,-303.30435
3690000000,-5.5134902,-303.39597
3691000000,-5.4971809,-303.46524
3692000000,-5.4949985,-303.44928
3693000000,-5.4917731,-303.69443
3694000000,-5.5240831,-303.78979
3695000000,-5.5298481,-303.77188
3696000000,-5.4915614,-303.87131
3697000000,-5.506072,-304.09723
3698000000,-5.5385113,-303.90323
3699000000,-5.5314755,-304.00101
3700000000,-5.5229545,-304.22452
3701000000,-5.5428596,-304.21127
3702000000,-5.5476475,-304.43515
3703000000,-5.5519147,-304.2894
3704000000,-5.5408959,-304.46564
3705000000,-5.5527635,-304.57718
3706000000,-5.5451074,-304.36343
3707000000,-5.5392084,-304.67151
3708000000,-5.5561595,-304.72644
3709000000,-5.5389438,-304.87717
3710000000,-5.57583,-304.72845
3711000000,-5.536418,-304.79648
3712000000,-5.5686817,-305.07043
3713000000,-5.5791407,-305.09814
3714000000,-5.5844097,-305.164
3715000000,-5.5527482,-305.38321
3716000000,-5.5786529,-305.24063
3717000000,-5.5709743,-305.33606
3718000000,-5.5681438,-305.4693
3719000000,-5.536098,-305.61572
3720000000,-5.5726886,-305.65564
3721000000,-5.5979328,-305.81747
3722000000,-5.5871496,-305.92282
3723000000,-5.5966659,-305.85559
3724000000,-5.6053386,-306.04285
3725000000,-5.6059608,-306.06235
3726000000,-5.5973716,-306.03839
3727000000,-5.6108251,-306.23538
3728000000,-5.5786195,-306.129
3729000000,-5.6035042,-306.36856
3730000000,-5.6065111,-306.45807
3731000000,-5.5905299,-306.54788
3732000000,-5.6135402,-306.49557
3733000000,-5.5934687,-306.57806
3734000000,-5.6275539,-306.67892
3735000000,-5.609714,-306.66003
3736000000,-5.6113386,-306.8046
3737000000,-5.6508698,-307.02316
3738000000,-5.6195822,-307.15811
3739000000,-5.5985746,-307.00986
3740000000,-5.6307459,-307.10654
3741000000,-5.627717,-307.21118
3742000000,-5.6150622,-307.31451
3743000000,-5.6147203,-307.52786
3744000000,-5.6568542,-307.55814
3745000000,-5.6350093,-307.52484
3746000000,-5.6517668,-307.73419
3747000000,-5.6412382,-307.82803
3748000000,-5.6514673,-307.87115
3749000000,-5.6398778,-307.84387
3750000000,-5.6360755,-308.06305
3751000000,-5.6560378,-307.96927
3752000000,-5.6495476,-308.37845
3753000000,-5.6443172,-308.06241
3754000000,-5.6712632,-308.23453
3755000000,-5.6720181,-308.15704
3756000000,-5.6334648,-308.22983
3757000000,-5.6599441,-308.39133
3758000000,-5.6755824,-308.64963
3759000000,-5.65978,-308.68845
3760000000,-5.6825948,-308.73947
3761000000,-5.6767421,-308.71222
3762000000,-5.6820993,-308.82669
3763000000,-5.6623139,-308.8385
3764000000,-5.6801624,-309.12872
3765000000,-5.6715751,-309.13278
3766000000,-5.6714697,-309.20914
3767000000,-5.6892691,-309.17084
3768000000,-5.682035,-309.43457
3769000000,-5.678566,-309.45709
3770000000,-5.6699872,-309.56061
3771000000,-5.6939673,-309.59668
3772000000,-5.6812105,-309.67288
3773000000,-5.7038164,-309.79248
3774000000,-5.6975689,-309.69244
3775000000,-5.7214165,-309.70984
3776000000,-5.7129569,-309.94586
3777000000,-5.6969757,-310.09607
3778000000,-5.7383127,-310.1178
3779000000,-5.7042704,-310.23413
3780000000,-5.7159762,-310.21552
3781000000,-5.7265191,-310.45959
3782000000,-5.7447281,-310.33185
3783000000,-5.7439623,-310.43085
3784000000,-5.7086782,-310.52014
3785000000,-5.70608,-310.7171
3786000000,-5.7224288,-310.60117
3787000000,-5.7240672,-310.82346
3788000000,-5.73072,-310.9075
3789000000,-5.7430325,-310.82251
3790000000,-5.7222719,-310.95221
3791000000,-5.7155004,-311.10565
3792000000,-5.7459073,-311.15845
3793000000,-5.7455211,-311.08923
3794000000,-5.7532935,-311.17114
3795000000,-5.7503242,-311.38113
3796000000,-5.7480755,-311.56308
3797000000,-5.7731576,-311.43549
3798000000,-5.7278357,-311.47934
3799000000,-5.7484159,-311.67267
3800000000,-5.7584634,-311.64191
3801000000,-5.7473083,-311.67389
3802000000,-5.759552,-311.67249
3803000000,-5.7734256,-311.8847
3804000000,-5.7422009,-311.97101
3805000000,-5.7603908,-311.9838
3806000000,-5.7685046,-312.27985
3807000000,-5.7800632,-312.25262
3808000000,-5.7510157,-312.42078
3809000000,-5.7655039,-312.43637
3810000000,-5.7762475,-312.80084
3811000000,-5.767262,-312.6593
3812000000,-5.7916455,-312.64862
3813000000,-5.7912264,-312.50424
3814000000,-5.7591467,-313.04974
3815000000,-5.7977366,-312.53198
3816000000,-5.7799993,-312.9686
3817000000,-5.7922463,-313.05579
3818000000,-5.8069711,-313.05344
3819000000,-5.7772408,-312.9805
3820000000,-5.7956634,-313.20963
3821000000,-5.7785187,-313.39355
3822000000,-5.7926092,-313.30194
3823000000,-5.8189697,-313.36557
3824000000,-5.7911344,-313.69913
3825000000,-5.7803206,-313.52103
3826000000,-5.8130159,-313.67276
3827000000,-5.8150597,-313.95343
3828000000,-5.8263197,-313.72412
3829000000,-5.8232312,-313.95169
3830000000,-5.8126421,-314.03906
3831000000,-5.855073,-313.9375
3832000000,-5.8179207,-314.09204
3833000000,-5.8059673,-314.08871
3834000000,-5.8229842,-314.22269
3835000000,-5.8050132,-314.20633
3836000000,-5.8223042,-314.42761
3837000000,-5.8246207,-314.35898
3838000000,-5.8342214,-314.57886
3839000000,-5.8653955,-314.68222
3840000000,-5.8233643,-314.68301
3841000000,-5.8502545,-314.87735
3842000000,-5.8417811,-314.97141
3843000000,-5.8603659,-315.13696
3844000000,-5.8468103,-314.94028
3845000000,-5.8639455,-315.26511
3846000000,-5.8378992,-315.14877
3847000000,-5.8353648,-315.28979
3848000000,-5.8222876,-315.33615
3849000000,-5.8424344,-315.57413
3850000000,-5.8309627,-315.42892
3851000000,-5.8775578,-315.36209
3852000000,-5.8451414,-315.52118
3853000000,-5.8813667,-315.98569
3854000000,-5.8661847,-315.85397
3855000000,-5.8635621,-315.70737
3856000000,-5.874464,-315.86456
3857000000,-5.8791642,-315.89136
3858000000,-5.882638,-316.27704
3859000000,-5.8831353,-316.09689
3860000000,-5.884973,-316.16226
3861000000,-5.8808379,-316.23337
3862000000,-5.8889103,-316.20941
3863000000,-5.8750257,-316.44632
3864000000,-5.8858528,-316.49918
3865000000,-5.9094081,-316.57578
3866000000,-5.890511,-316.67303
3867000000,-5.8837943,-316.60144
3868000000,-5.9058509,-316.80862
3869000000,-5.9026847,-316.91461
3870000000,-5.9008098,-316.83917
3871000000,-5.9017887,-317.08304
3872000000,-5.8717594,-316.91885
3873000000,-5.9123101,-317.1366
3874000000,-5.917635,-317.21228
3875000000,-5.9193492,-317.36508
3876000000,-5.8878469,-317.39914
3877000000,-5.9209423,-317.41864
3878000000,-5.9254632,-317.5946
3879000000,-5.8955774,-317.56949
3880000000,-5.8814092,-317.63663
3881000000,-5.9443345,-317.86548
3882000000,-5.9291339,-317.91434
3883000000,-5.9254603,-318.01627
3884000000,-5.9554825,-317.89532
3885000000,-5.9191074,-318.02499
3886000000,-5.9325943,-318.04349
3887000000,-5.9329147,-318.08887
3888000000,-5.9138403,-318.30475
3889000000,-5.9566603,-318.2847
3890000000,-5.9566154,-318.29892
3891000000,-5.9417319,-318.46652
3892000000,-5.9418354,-318.6131
3893000000,-5.921195,-318.57446
3894000000,-5.9057846,-318.71985
3895000000,-5.9829473,-318.70053
3896000000,-5.9403462,-318.80945
3897000000,-5.9663677,-318.89386
3898000000,-5.9424329,-318.96741
3899000000,-5.9526939,-319.15613
3900000000,-5.9820948,-319.15527
3901000000,-5.9849057,-319.24356
3902000000,-5.9704027,-319.17706
3903000000,-5.9605527,-319.52167
3904000000,-5.9627481,-319.57431
3905000000,-5.9584107,-319.75388
3906000000,-5.9651031,-319.39542
3907000000,-5.9756627,-319.72595
3908000000,-5.9974332,-319.67993
3909000000,-5.9858885,-319.77075
3910000000,-5.9726772,-319.82455
3911000000,-5.9782538,-320.00156
3912000000,-5.9637218,-320.06
3913000000,-5.990932,-320.0152
3914000000,-5.992619,-320.2258
3915000000,-5.9868879,-320.19022
3916000000,-5.9994483,-320.23737
3917000000,-5.9729624,-320.42764
3918000000,-5.9826927,-320.39011
3919000000,-5.9887028,-320.46997
3920000000,-6.0159264,-320.66489
3921000000,-5.9770923,-320.77451
3922000000,-5.9764323,-320.72278
3923000000,-6.0055027,-320.81055
3924000000,-6.0209966,-320.92133
3925000000,-6.016993,-320.77234
3926000000,-6.0021253,-321.13626
3927000000,-6.0367785,-321.26892
3928000000,-6.0001268,-321.19147
3929000000,-6.0070629,-321.34464
3930000000,-6.031075,-321.28281
3931000000,-6.0015898,-321.3985
3932000000,-5.9857845,-321.70584
3933000000,-6.0081458,-321.69318
3934000000,-6.0190988,-321.64273
3935000000,-6.023128,-321.66946
3936000000,-6.0054021,-321.84024
3937000000,-6.0276937,-322.047
3938000000,-6.020164,-322.00024
3939000000,-6.0654478,-321.92953
3940000000,-6.0415282,-322.21362
3941000000,-6.037344,-322.03897
3942000000,-6.0581331,-322.2547
3943000000,-6.0353866,-322.33673
3944000000,-6.0441589,-322.40366
3945000000,-6.0336971,-322.48676
3946000000,-6.0535927,-322.55942
3947000000,-6.04737,-322.55472
3948000000,-6.0517893,-322.68881
3949000000,-6.0296197,-322.91913
3950000000,-6.0439711,-322.73154
3951000000,-6.0356803,-322.89166
3952000000,-6.0459871,-322.7822
3953000000,-6.0494885,-323.01181
3954000000,-6.0682068,-322.99503
3955000000,-6.0518541,-323.32785
3956000000,-6.0544643,-323.15982
3957000000,-6.0683317,-323.28864
3958000000,-6.0617213,-323.48172
3959000000,-6.0438099,-323.44464
3960000000,-6.0867271,-323.62378
3961000000,-6.0958133,-323.71652
3962000000,-6.0825477,-323.7009
3963000000,-6.0769777,-323.81
3964000000,-6.0810447,-323.8898
3965000000,-6.0619674,-323.82068
3966000000,-6.0733662,-324.05066
3967000000,-6.0769258,-324.03311
3968000000,-6.1039858,-324.12451
3969000000,-6.1104898,-323.95969
3970000000,-6.120038,-324.23511
3971000000,-6.0736504,-324.34497
3972000000,-6.1145282,-324.2081
3973000000,-6.0828481,-324.56104
3974000000,-6.0941381,-324.44952
3975000000,-6.1097212,-324.71982
3976000000,-6.1122298,-324.68372
3977000000,-6.0805063,-324.94189
3978000000,-6.1006694,-324.79318
3979000000,-6.106307,-324.84827
3980000000,-6.1313696,-325.09473
3981000000,-6.1339316,-325.15707
3982000000,-6.1185522,-325.16959
3983000000,-6.1043444,-325.29388
3984000000,-6.121078,-325.12057
3985000000,-6.1068578,-325.58142
3986000000,-6.131597,-325.4906
3987000000,-6.0956082,-325.38254
3988000000,-6.1163869,-325.53171
3989000000,-6.1229172,-325.58701
3990000000,-6.1124001,-325.7319
3991000000,-6.136373,-325.71912
3992000000,-6.0935202,-325.89423
3993000000,-6.1316853,-326.00513
3994000000,-6.135489,-326.12265
3995000000,-6.1269503,-326.00153
3996000000,-6.1376748,-326.15433
3997000000,-6.125246,-326.31064
3998000000,-6.1378517,-326.2692
3999000000,-6.1705818,-326.53433
4000000000,-6.1433258,-326.6445
4001000000,-6.1193871,-326.44492
4002000000,-6.1559763,-326.56708
4003000000,-6.1669164,-326.66006
4004000000,-6.188396,-326.78018
4005000000,-6.1549945,-326.78348
4006000000,-6.1668768,-327.00452
4007000000,-6.142767,-326.92389
4008000000,-6.1444221,-326.89017
4009000000,-6.2026629,-327.03207
4010000000,-6.1686039,-327.21295
4011000000,-6.1749978,-327.22128
4012000000,-6.1860247,-327.26077
4013000000,-6.1923757,-327.50558
4014000000,-6.1797223,-327.35889
4015000000,-6.1750269,-327.63763
4016000000,-6.1577253,-327.71625
4017000000,-6.1879487,-327.7132
4018000000,-6.2013693,-327.67764
4019000000,-6.1924696,-327.76172
4020000000,-6.1835027,-327.77731
4021000000,-6.1890578,-328.01859
4022000000,-6.1807208,-328.06027
4023000000,-6.2110057,-328.05005
4024000000,-6.2049189,-328.11514
4025000000,-6.1873426,-328.17627
4026000000,-6.182476,-328.34952
4027000000,-6.1848364,-328.37616
4028000000,-6.196816,-328.35175
4029000000,-6.1816816,-328.55142
4030000000,-6.1969895,-328.63229
4031000000,-6.2215152,-328.79968
4032000000,-6.1932845,-328.81317
4033000000,-6.2015066,-328.83658
4034000000,-6.1946135,-328.77295
4035000000,-6.207365,-328.90698
4036000000,-6.2229447,-329.11591
4037000000,-6.2203436,-328.97144
4038000000,-6.2026601,-329.14621
4039000000,-6.1955986,-329.39902
4040000000,-6.2135282,-329.3858
4041000000,-6.2383704,-329.49545
4042000000,-6.2176042,-329.54922
4043000000,-6.2323813,-329.53876
4044000000,-6.2165418,-329.66962
4045000000,-6.2421851,-329.8418
4046000000,-6.2229486,-329.47345
4047000000,-6.2170153,-329.73578
4048000000,-6.2452507,-329.86755
4049000000,-6.2261114,-329.82043
4050000000,-6.23561,-330.14072
4051000000,-6.213623,-330.06784
4052000000,-6.2197433,-330.32059
4053000000,-6.2398601,-330.25735
4054000000,-6.2596722,-330.43613
4055000000,-6.2559171,-330.43094
4056000000,-6.2504201,-330.42767
4057000000,-6.218318,-330.58258
4058000000,-6.2573948,-330.67004
4059000000,-6.2376437,-330.65469
4060000000,-6.2676625,-330.68646
4061000000,-6.2783399,-330.99258
4062000000,-6.250175,-330.84109
4063000000,-6.2568369,-331.0275
4064000000,-6.2545762,-330.92856
4065000000,-6.2708178,-331.11026
4066000000,-6.2644763,-331.34213
4067000000,-6.2412577,-331.10083
4068000000,-6.2683282,-331.31903
4069000000,-6.2780743,-331.6456
4070000000,-6.2501645,-331.4205
4071000000,-6.2612367,-331.66525
4072000000,-6.2551384,-331.73105
4073000000,-6.28163,-331.55756
4074000000,-6.2623024,-331.74341
4075000000,-6.2527661,-331.86359
4076000000,-6.3019876,-331.86752
4077000000,-6.3056259,-331.95813
4078000000,-6.3191266,-332.00143
4079000000,-6.2941756,-332.1384
4080000000,-6.2788148,-332.22382
4081000000,-6.2716169,-332.10889
4082000000,-6.3020034,-332.49985
4083000000,-6.2871242,-332.46558
4084000000,-6.3008857,-332.55038
4085000000,-6.2885208,-332.41586
4086000000,-6.2947793,-332.73499
4087000000,-6.3108501,-332.74414
4088000000,-6.3033519,-332.87952
4089000000,-6.3089418,-332.72891
4090000000,-6.3022246,-333.02896
4091000000,-6.2950478,-333.08655
4092000000,-6.2953672,-333.02734
4093000000,-6.2978048,-333.12521
4094000000,-6.3221126,-333.19806
4095000000,-6.3198981,-333.38672
4096000000,-6.3303328,-333.34671
4097000000,-6.3243718,-333.19406
4098000000,-6.3498244,-333.3978
4099000000,-6.3335943,-333.67346
4100000000,-6.322824,-333.82559
4101000000,-6.3187027,-333.77554
4102000000,-6.3319473,-333.77686
4103000000,-6.3401961,-333.71002
4104000000,-6.3048196,-333.86188
4105000000,-6.3400588,-333.95044
4106000000,-6.3524604,-334.0079
4107000000,-6.3356285,-334.08148
4108000000,-6.3541913,-334.08771
4109000000,-6.3144798,-334.28125
4110000000,-6.3184643,-334.19727
4111000000,-6.3207893,-334.35815
4112000000,-6.3502388,-334.26245
4113000000,-6.3406625,-334.4566
4114000000,-6.3373036,-334.67593
4115000000,-6.3270154,-334.57446
4116000000,-6.352869,-334.57513
4117000000,-6.3269629,-334.81937
4118000000,-6.3507366,-334.91345
4119000000,-6.3675861,-334.91663
4120000000,-6.3321047,-334.98224
4121000000,-6.3263068,-335.10803
4122000000,-6.3435125,-335.30365
4123000000,-6.3651891,-335.36493
4124000000,-6.3468199,-335.27365
4125000000,-6.3878241,-335.2995
4126000000,-6.3450742,-335.48129
4127000000,-6.3657002,-335.54794
4128000000,-6.3756051,-335.59033
4129000000,-6.3358774,-335.6716
4130000000,-6.3737197,-335.74268
4131000000,-6.3449516,-335.81134
4132000000,-6.3786979,-335.97
4133000000,-6.4002023,-336.02466
4134000000,-6.3720636,-336.13297
4135000000,-6.3663349,-336.04721
4136000000,-6.3571901,-336.27161
4137000000,-6.3546395,-336.35214
4138000000,-6.351284,-336.30869
4139000000,-6.3615274,-336.31625
4140000000,-6.4058146,-336.58914
4141000000,-6.3763852,-336.54483
4142000000,-6.3896809,-336.556
4143000000,-6.3758316,-336.69775
4144000000,-6.4137406,-336.78906
4145000000,-6.3678141,-337.00436
4146000000,-6.3837919,-336.94464
4147000000,-6.3823686,-336.99252
4148000000,-6.3701062,-337.08249
4149000000,-6.4029059,-337.03979
4150000000,-6.3757238,-337.17892
4151000000,-6.3998814,-337.23184
4152000000,-6.3910508,-337.36044
4153000000,-6.3966408,-337.32745
4154000000,-6.3963161,-337.42084
4155000000,-6.3962345,-337.53329
4156000000,-6.4040818,-337.48755
4157000000,-6.4098744,-337.57166
4158000000,-6.4059453,-337.77356
4159000000,-6.3919692,-337.73254
4160000000,-6.4088902,-337.85919
4161000000,-6.4128737,-337.86279
4162000000,-6.423203,-337.87079
4163000000,-6.4014611,-338.11963
4164000000,-6.4097037,-337.92242
4165000000,-6.3956137,-338.16849
4166000000,-6.4216886,-338.35379
4167000000,-6.4076881,-338.3078
4168000000,-6.4338431,-338.38309
4169000000,-6.4208369,-338.5376
4170000000,-6.4210401,-338.66837
4171000000,-6.4416685,-338.64774
4172000000,-6.4084892,-338.68835
4173000000,-6.429039,-338.65082
4174000000,-6.4301329,-338.95941
4175000000,-6.4421439,-338.89368
4176000000,-6.4232588,-338.97647
4177000000,-6.4236259,-338.9483
4178000000,-6.449944,-338.87524
4179000000,-6.3927708,-339.22626
4180000000,-6.4413476,-339.34207
4181000000,-6.4335318,-339.29083
4182000000,-6.4312305,-339.29095
4183000000,-6.4445124,-339.42697
4184000000,-6.4530625,-339.60062
4185000000,-6.4114285,-339.62607
4186000000,-6.4163013,-339.58267
4187000000,-6.4512196,-339.89355
4188000000,-6.4497743,-339.86938
4189000000,-6.4389677,-339.80267
4190000000,-6.4471202,-340.05392
4191000000,-6.4333782,-340.10736
4192000000,-6.4481111,-340.0567
4193000000,-6.4475584,-340.02524
4194000000,-6.4602032,-340.04163
4195000000,-6.4403863,-340.40289
4196000000,-6.4495282,-340.35126
4197000000,-6.4644637,-340.38184
4198000000,-6.4646826,-340.53333
4199000000,-6.4603138,-340.57773
4200000000,-6.4469543,-340.65005
4201000000,-6.457489,-340.68726
4202000000,-6.4765444,-340.71106
4203000000,-6.4702377,-340.84064
4204000000,-6.4347386,-340.97278
4205000000,-6.4603391,-341.15045
4206000000,-6.4750462,-341.15408
4207000000,-6.4714313,-341.13641
4208000000,-6.4825859,-341.18518
4209000000,-6.4656715,-341.12234
4210000000,-6.4447012,-341.25497
4211000000,-6.4636731,-341.34103
4212000000,-6.4552221,-341.51746
4213000000,-6.4863777,-341.49414
4214000000,-6.4744787,-341.50925
4215000000,-6.4956264,-341.6474
4216000000,-6.479435,-341.73618
4217000000,-6.4705853,-341.93192
4218000000,-6.4678822,-341.84967
4219000000,-6.4509945,-341.89862
4220000000,-6.4956841,-342.02591
4221000000,-6.4550967,-342.05725
4222000000,-6.4939651,-342.01135
4223000000,-6.469203,-342.26993
4224000000,-6.4664016,-342.27863
4225000000,-6.4878044,-342.50507
4226000000,-6.4902382,-342.48563
4227000000,-6.4777689,-342.51459
4228000000,-6.4888453,-342.69577
4229000000,-6.497541,-342.70676
4230000000,-6.5014887,-342.6167
4231000000,-6.4882302,-342.78952
4232000000,-6.4704366,-342.88617
4233000000,-6.4955158,-343.05807
4234000000,-6.5092659,-342.96518
4235000000,-6.4805689,-343.24902
4236000000,-6.4804916,-343.02475
4237000000,-6.5124226,-343.30731
4238000000,-6.5002389,-343.1087
4239000000,-6.5100708,-343.40295
4240000000,-6.5070744,-343.25339
4241000000,-6.5028796,-343.53485
4242000000,-6.5103106,-343.60278
4243000000,-6.5073085,-343.6926
4244000000,-6.4984503,-343.82117
4245000000,-6.5298762,-343.69354
4246000000,-6.4974995,-343.68893
4247000000,-6.5053091,-343.88882
4248000000,-6.5081558,-343.94562
4249000000,-6.5077705,-343.9584
4250000000,-6.5280852,-344.09451
4251000000,-6.4907045,-344.34952
4252000000,-6.5114255,-344.46893
4253000000,-6.54039,-344.30954
4254000000,-6.4989181,-344.43018
4255000000,-6.5132308,-344.37799
4256000000,-6.4977283,-344.59485
4257000000,-6.5255246,-344.70319
4258000000,-6.5068636,-344.62683
4259000000,-6.539875,-344.90958
4260000000,-6.500154,-344.82129
4261000000,-6.5125828,-344.918
4262000000,-6.5071945,-344.8093
4263000000,-6.5042934,-345.09003
4264000000,-6.5070744,-345.16748
4265000000,-6.5391512,-345.04276
4266000000,-6.5292091,-345.11511
4267000000,-6.5437675,-345.23563
4268000000,-6.5212984,-345.44272
4269000000,-6.5125437,-345.42239
4270000000,-6.5127244,-345.51892
4271000000,-6.5287223,-345.59329
4272000000,-6.5188389,-345.71579
4273000000,-6.5321474,-345.87296
4274000000,-6.5549245,-345.58356
4275000000,-6.5291648,-345.71637
4276000000,-6.5036893,-345.80542
4277000000,-6.5364227,-346.09378
4278000000,-6.5476933,-346.06573
4279000000,-6.5046506,-346.2132
4280000000,-6.5284138,-346.28693
4281000000,-6.5263996,-346.25464
4282000000,-6.5582261,-346.36673
4283000000,-6.5361009,-346.35873
4284000000,-6.5344896,-346.73557
4285000000,-6.5577121,-346.6438
4286000000,-6.5427761,-346.77283
4287000000,-6.5614891,-346.62006
4288000000,-6.5355501,-346.83249
4289000000,-6.5449753,-346.65359
4290000000,-6.5609732,-346.97028
4291000000,-6.5510964,-347.04196
4292000000,-6.5327988,-347.09198
4293000000,-6.5604639,-347.15146
4294000000,-6.562439,-347.23401
4295000000,-6.5517154,-347.207
4296000000,-6.5505905,-347.44177
4297000000,-6.5501046,-347.49573
4298000000,-6.5388241,-347.51971
4299000000,-6.5646591,-347.55695
4300000000,-6.5542397,-347.50537
4301000000,-6.5728207,-347.81183
4302000000,-6.5708251,-347.75339
4303000000,-6.5507278,-347.93259
4304000000,-6.5777731,-347.90067
4305000000,-6.5642047,-348.01489
4306000000,-6.5558105,-348.14496
4307000000,-6.560771,-348.11008
4308000000,-6.5390706,-348.38806
4309000000,-6.545743,-348.28513
4310000000,-6.561573,-348.26193
4311000000,-6.5718169,-348.31058
4312000000,-6.5730529,-348.25668
4313000000,-6.5652742,-348.40668
4314000000,-6.5877991,-348.77911
4315000000,-6.5708556,-348.68237
4316000000,-6.571094,-348.55899
4317000000,-6.5744081,-348.88287
4318000000,-6.5695796,-348.86148
4319000000,-6.5732479,-349.04257
4320000000,-6.5896511,-348.76416
4321000000,-6.5585141,-349.14456
4322000000,-6.5922461,-349.32303
4323000000,-6.5626225,-349.23911
4324000000,-6.560638,-349.34137
4325000000,-6.5921478,-349.21301
4326000000,-6.6191311,-349.34247
4327000000,-6.562326,-349.51843
4328000000,-6.5738521,-349.51047
4329000000,-6.5906639,-349.89166
4330000000,-6.6091022,-349.71408
4331000000,-6.567008,-349.61194
4332000000,-6.6012654,-349.90295
4333000000,-6.5708981,-349.87067
4334000000,-6.5734034,-349.93985
4335000000,-6.5622878,-350.03632
4336000000,-6.596983,-350.16507
4337000000,-6.583065,-350.41504
4338000000,-6.5741353,-350.31247
4339000000,-6.5831451,-350.30453
4340000000,-6.5854793,-350.28244
4341000000,-6.5878501,-350.48471
4342000000,-6.5727305,-350.72162
4343000000,-6.5592752,-350.54019
4344000000,-6.5697269,-350.7045
4345000000,-6.6210589,-350.57996
4346000000,-6.6101151,-350.79993
4347000000,-6.5754523,-350.82132
4348000000,-6.5893669,-351.11777
4349000000,-6.5529399,-351.05353
4350000000,-6.5980306,-350.98468
4351000000,-6.5856214,-351.14273
4352000000,-6.6283636,-351.28018
4353000000,-6.59833,-351.15936
4354000000,-6.5856624,-351.4238
4355000000,-6.6186304,-351.50989
4356000000,-6.5963111,-351.63373
4357000000,-6.5734439,-351.65805
4358000000,-6.6129851,-351.58521
4359000000,-6.5912685,-351.63022
4360000000,-6.6012936,-351.75024
4361000000,-6.592093,-351.87195
4362000000,-6.5963364,-351.93317
4363000000,-6.5821662,-351.85464
4364000000,-6.5909853,-352.09277
4365000000,-6.6006455,-352.17194
4366000000,-6.5744238,-352.36484
4367000000,-6.5974202,-352.36377
4368000000,-6.5821543,-352.52338
4369000000,-6.6117959,-352.53281
4370000000,-6.5880513,-352.71365
4371000000,-6.6186686,-352.68146
4372000000,-6.6104832,-352.66141
4373000000,-6.6134448,-352.78995
4374000000,-6.5929451,-352.73816
4375000000,-6.608305,-352.92224
4376000000,-6.6137714,-352.97745
4377000000,-6.6130037,-353.04077
4378000000,-6.6147647,-353.01236
4379000000,-6.6059933,-353.27063
4380000000,-6.6315513,-353.28345
4381000000,-6.5992017,-353.51993
4382000000,-6.596128,-353.28778
4383000000,-6.604466,-353.63763
4384000000,-6.5921698,-353.48636
4385000000,-6.5929928,-353.64981
4386000000,-6.62358,-353.79672
4387000000,-6.617095,-353.62216
4388000000,-6.6363907,-353.67816
4389000000,-6.6074834,-353.95285
4390000000,-6.6106601,-353.87039
4391000000,-6.6283531,-353.97919
4392000000,-6.5947886,-354.09891
4393000000,-6.5842204,-354.10999
4394000000,-6.6021528,-354.28122
4395000000,-6.6220098,-354.17227
4396000000,-6.6187339,-354.27225
4397000000,-6.6059589,-354.32071
4398000000,-6.6140757,-354.60916
4399000000,-6.6184387,-354.55508
4400000000,-6.6248498,-354.50684
4401000000,-6.6247635,-354.647
4402000000,-6.6059842,-354.76572
4403000000,-6.6103101,-354.78015
4404000000,-6.6052814,-354.8602
4405000000,-6.6055789,-354.88223
4406000000,-6.6252108,-355.32056
4407000000,-6.6008005,-355.293
4408000000,-6.6212068,-355.20053
4409000000,-6.6094952,-355.33978
4410000000,-6.5957212,-355.21939
4411000000,-6.6051464,-355.45889
4412000000,-6.6049399,-355.71088
4413000000,-6.6365218,-355.72333
4414000000,-6.599947,-355.90335
4415000000,-6.6269188,-355.80057
4416000000,-6.6368651,-355.83084
4417000000,-6.6145945,-355.86014
4418000000,-6.6130385,-356.01895
4419000000,-6.6319141,-356.01123
4420000000,-6.6261191,-356.07983
4421000000,-6.637239,-356.10928
4422000000,-6.6194711,-356.26678
4423000000,-6.6435714,-356.2851
4424000000,-6.6271482,-356.59821
4425000000,-6.6053414,-356.41309
4426000000,-6.6203294,-356.43655
4427000000,-6.65169,-356.71176
4428000000,-6.6210136,-356.54312
4429000000,-6.6106381,-356.69571
4430000000,-6.6161056,-356.85809
4431000000,-6.6305637,-356.93732
4432000000,-6.6418967,-356.83008
4433000000,-6.5999694,-356.94717
4434000000,-6.5928407,-356.99908
4435000000,-6.6161256,-357.06506
4436000000,-6.6518984,-357.08304
4437000000,-6.6362181,-357.2283
4438000000,-6.6294885,-357.24377
4439000000,-6.6246438,-357.39816
4440000000,-6.6442103,-357.42847
4441000000,-6.6028457,-357.64725
4442000000,-6.6437111,-357.59219
4443000000,-6.6360788,-357.62729
4444000000,-6.625504,-357.7088
4445000000,-6.6191058,-357.86319
4446000000,-6.662077,-358.05951
4447000000,-6.6483626,-358.02609
4448000000,-6.6234627,-358.20508
4449000000,-6.6282949,-358.22015
4450000000,-6.6281929,-358.33972
4451000000,-6.6465626,-358.22025
4452000000,-6.6644306,-358.27994
4453000000,-6.6474547,-358.57336
4454000000,-6.6173897,-358.51346
4455000000,-6.6362553,-358.73132
4456000000,-6.6359344,-358.51196
4457000000,-6.6420717,-358.55719
4458000000,-6.6393309,-358.64948
4459000000,-6.6475134,-358.7951
4460000000,-6.6184225,-358.80722
4461000000,-6.6404638,-358.91748
4462000000,-6.6315646,-359.14035
4463000000,-6.6295738,-359.17026
4464000000,-6.62783,-359.22357
4465000000,-6.6415315,-359.19897
4466000000,-6.6161723,-359.39557
4467000000,-6.6497374,-359.47531
4468000000,-6.6202979,-359.54794
4469000000,-6.6285987,-359.42969
4470000000,-6.6333942,-359.75888
4471000000,-6.620584,-359.70642
4472000000,-6.6257424,-359.70523
4473000000,-6.6319485,-359.8653
4474000000,-6.6264782,-360.03665
4475000000,-6.6441593,-359.98804
4476000000,-6.6250687,-359.96658
4477000000,-6.6316166,-360.21127
4478000000,-6.6437168,-360.35114
4479000000,-6.6274929,-360.3642
4480000000,-6.6205301,-360.47797
4481000000,-6.6507421,-360.49527
4482000000,-6.6349168,-360.31882
4483000000,-6.655055,-360.41495
4484000000,-6.603025,-360.64383
4485000000,-6.6556773,-360.61346
4486000000,-6.6545262,-360.8205
4487000000,-6.6565628,-360.72733
4488000000,-6.6408834,-361.02698
4489000000,-6.6356063,-360.96313
4490000000,-6.6043682,-361.03491
4491000000,-6.6439838,-361.15125
4492000000,-6.6348186,-361.3609
4493000000,-6.6221509,-361.56711
4494000000,-6.6389637,-361.52725
4495000000,-6.6296043,-361.46716
4496000000,-6.6148939,-361.62173
4497000000,-6.6282845,-361.65457
4498000000,-6.6499701,-361.58548
4499000000,-6.6629648,-361.60712
4500000000,-6.6630683,-361.77948
4501000000,-6.6450191,-362.0639
4502000000,-6.6064372,-362.05753
4503000000,-6.6247005,-362.05075
4504000000,-6.6446776,-362.13806
4505000000,-6.6502328,-362.17429
4506000000,-6.6479564,-362.29114
4507000000,-6.6664586,-362.44077
4508000000,-6.6402082,-362.42468
4509000000,-6.6198153,-362.62079
4510000000,-6.6079793,-362.45868
4511000000,-6.6585689,-362.76923
4512000000,-6.6605721,-362.76428
4513000000,-6.6381164,-362.86139
4514000000,-6.6453338,-363.01987
4515000000,-6.6642542,-363.00244
4516000000,-6.6261806,-363.07166
4517000000,-6.6244984,-363.08795
4518000000,-6.6322584,-363.15662
4519000000,-6.6499405,-363.25671
4520000000,-6.6529255,-363.27576
4521000000,-6.6388979,-363.28348
4522000000,-6.649466,-363.40097
4523000000,-6.6441731,-363.57193
4524000000,-6.6499929,-363.58646
4525000000,-6.630558,-363.4783
4526000000,-6.675199,-363.64136
4527000000,-6.6546717,-363.78177
4528000000,-6.657866,-363.95203
4529000000,-6.6441855,-364.03436
4530000000,-6.6358066,-363.91019
4531000000,-6.6421533,-364.11432
4532000000,-6.6449823,-364.07022
4533000000,-6.6454158,-364.08206
4534000000,-6.638494,-364.50461
4535000000,-6.6544089,-364.47922
4536000000,-6.6420121,-364.48352
4537000000,-6.6672978,-364.59137
4538000000,-6.6382575,-364.5141
4539000000,-6.6380572,-364.62503
4540000000,-6.607892,-364.79581
4541000000,-6.635252,-364.84604
4542000000,-6.6508861,-365.0108
4543000000,-6.6162186,-364.87186
4544000000,-6.6428356,-365.19958
4545000000,-6.6432462,-365.14182
4546000000,-6.6355171,-365.47284
4547000000,-6.6514955,-365.31522
4548000000,-6.6421795,-365.17639
4549000000,-6.6439528,-365.55136
4550000000,-6.6404977,-365.46494
4551000000,-6.6504283,-365.63763
4552000000,-6.6500549,-365.70413
4553000000,-6.6523013,-365.68491
4554000000,-6.6819725,-365.83688
4555000000,-6.6458755,-365.97958
4556000000,-6.6319714,-365.93021
4557000000,-6.6353068,-366.06778
4558000000,-6.6428723,-365.97946
4559000000,-6.6454434,-366.1048
4560000000,-6.661479,-366.23465
4561000000,-6.6590047,-366.47803
4562000000,-6.6464119,-366.33981
4563000000,-6.647645,-366.44672
4564000000,-6.6374645,-366.45914
4565000000,-6.636507,-366.51343
4566000000,-6.6695976,-366.72812
4567000000,-6.6570868,-366.6691
4568000000,-6.6477327,-366.69159
4569000000,-6.6514916,-366.91895
4570000000,-6.6616774,-366.97403
4571000000,-6.6015463,-366.99799
4572000000,-6.6588378,-367.06503
4573000000,-6.6319032,-367.14224
4574000000,-6.623198,-367.14386
4575000000,-6.6521449,-367.25513
4576000000,-6.6467724,-367.44528
4577000000,-6.6525073,-367.5838
4578000000,-6.631763,-367.41302
4579000000,-6.6647029,-367.68613
4580000000,-6.6436872,-367.71005
4581000000,-6.6503181,-367.72574
4582000000,-6.6446824,-367.8678
4583000000,-6.657618,-367.90622
4584000000,-6.6328297,-368.02576
4585000000,-6.6566796,-367.98685
4586000000,-6.6744518,-368.30875
4587000000,-6.6456079,-368.25629
4588000000,-6.634891,-368.31891
4589000000,-6.6398897,-368.07074
4590000000,-6.6278462,-368.44998
4591000000,-6.6520519,-368.60727
4592000000,-6.6463571,-368.59189
4593000000,-6.6372986,-368.64859
4594000000,-6.6593013,-368.68719
4595000000,-6.6305289,-368.82687
4596000000,-6.6451488,-369.04236
4597000000,-6.6745663,-368.79312
4598000000,-6.6118517,-368.84634
4599000000,-6.651854,-369.01044
4600000000,-6.6297164,-369.04764
4601000000,-6.6584358,-369.27118
4602000000,-6.6645107,-369.28687
4603000000,-6.6408567,-369.32861
4604000000,-6.6600456,-369.43918
4605000000,-6.6316252,-369.63882
4606000000,-6.6300225,-369.67014
4607000000,-6.6539273,-369.61526
4608000000,-6.6439433,-369.69183
4609000000,-6.6333861,-369.71283
4610000000,-6.645154,-369.84222
4611000000,-6.6427822,-370.0448
4612000000,-6.6312165,-369.91013
4613000000,-6.6574612,-370.23193
4614000000,-6.6439023,-370.22723
4615000000,-6.6693292,-370.13937
4616000000,-6.6291223,-370.40176
4617000000,-6.6316175,-370.29926
4618000000,-6.6563191,-370.40784
4619000000,-6.6591163,-370.49936
4620000000,-6.6452684,-370.56973
4621000000,-6.6385198,-370.63614
4622000000,-6.6329083,-370.83038
4623000000,-6.6539178,-370.73547
4624000000,-6.657342,-370.82596
4625000000,-6.6593432,-370.83133
4626000000,-6.6295943,-371.09073
4627000000,-6.6495829,-371.18143
4628000000,-6.6300893,-371.15271
4629000000,-6.6250138,-371.39474
4630000000,-6.6242089,-371.45865
4631000000,-6.6454492,-371.36301
4632000000,-6.6359086,-371.55057
4633000000,-6.6713648,-371.65497
4634000000,-6.6125836,-371.64444
4635000000,-6.6527224,-371.79398
4636000000,-6.6652083,-371.67267
4637000000,-6.6363235,-371.75995
4638000000,-6.6634107,-371.86023
4639000000,-6.6446433,-371.90445
4640000000,-6.64396,-372.11517
4641000000,-6.6304541,-372.08771
4642000000,-6.6360393,-372.2616
4643000000,-6.6497321,-372.32269
4644000000,-6.6479244,-372.42899
4645000000,-6.6569672,-372.43716
4646000000,-6.6622539,-372.57443
4647000000,-6.6483278,-372.59174
4648000000,-6.6401439,-372.81329
4649000000,-6.6522026,-372.7478
4650000000,-6.6540685,-372.73459
4651000000,-6.6546478,-372.85623
4652000000,-6.6509595,-373.07294
4653000000,-6.6271791,-373.01736
4654000000,-6.6423445,-373.02365
4655000000,-6.6512637,-373.16907
4656000000,-6.6231518,-373.3187
4657000000,-6.6473951,-373.37738
4658000000,-6.6311359,-373.37607
4659000000,-6.6593995,-373.59399
4660000000,-6.6423955,-373.31262
4661000000,-6.64539,-373.50613
4662000000,-6.6534805,-373.86557
4663000000,-6.6367731,-373.69434
4664000000,-6.6636753,-373.78
4665000000,-6.6383414,-374.10941
4666000000,-6.6387796,-374.09521
4667000000,-6.6457524,-374.23709
4668000000,-6.6380534,-374.11566
4669000000,-6.6454773,-374.0455
4670000000,-6.6448579,-374.23895
4671000000,-6.6262803,-374.33417
4672000000,-6.6458158,-374.47446
4673000000,-6.6317806,-374.58368
4674000000,-6.6389465,-374.67761
4675000000,-6.6631932,-374.6438
4676000000,-6.6376743,-374.91446
4677000000,-6.6430736,-374.70435
4678000000,-6.6370125,-374.82364
4679000000,-6.6380434,-374.87769
4680000000,-6.6508908,-375.09814
4681000000,-6.619729,-375.1069
4682000000,-6.6445928,-375.33041
4683000000,-6.6383586,-375.1669
4684000000,-6.6083908,-375.40817
4685000000,-6.6331105,-375.42914
4686000000,-6.6416383,-375.40128
4687000000,-6.635407,-375.41727
4688000000,-6.6279817,-375.50763
4689000000,-6.6598096,-375.66763
4690000000,-6.6458278,-375.65341
4691000000,-6.6321983,-375.94897
4692000000,-6.6288114,-375.75018
4693000000,-6.6383328,-376.05478
4694000000,-6.6301422,-376.0307
4695000000,-6.6342111,-376.16434
4696000000,-6.637187,-376.24402
4697000000,-6.6533561,-376.30191
4698000000,-6.6432104,-376.29987
4699000000,-6.6307049,-376.27686
4700000000,-6.6397882,-376.55411
4701000000,-6.6402168,-376.61285
4702000000,-6.6165609,-376.62106
4703000000,-6.6206899,-376.68961
4704000000,-6.6477962,-376.78131
4705000000,-6.632319,-376.78564
4706000000,-6.6213865,-377.03784
4707000000,-6.6297164,-377.10086
4708000000,-6.6469307,-377.16663
4709000000,-6.6230044,-377.08405
4710000000,-6.6063361,-377.4256
4711000000,-6.6221499,-377.11349
4712000000,-6.6630187,-377.39951
4713000000,-6.6414537,-377.48383
4714000000,-6.6178565,-377.54031
4715000000,-6.6407933,-377.60828
4716000000,-6.6321254,-377.72629
4717000000,-6.6423326,-377.81287
4718000000,-6.6287365,-377.91724
4719000000,-6.6434622,-377.88422
4720000000,-6.6480808,-378.08856
4721000000,-6.6104765,-378.10178
4722000000,-6.634027,-378.17902
4723000000,-6.6145039,-378.25677
4724000000,-6.6182923,-378.22256
4725000000,-6.6133046,-378.4689
4726000000,-6.6347404,-378.44626
4727000000,-6.6311126,-378.61053
4728000000,-6.6342158,-378.60699
4729000000,-6.6064787,-378.6398
4730000000,-6.6329937,-378.715
4731000000,-6.6243091,-378.97708
4732000000,-6.6147237,-378.75931
4733000000,-6.618391,-378.86447
4734000000,-6.6339231,-379.07632
4735000000,-6.6167812,-379.07092
4736000000,-6.6125941,-379.16147
4737000000,-6.6120811,-379.21329
4738000000,-6.6218638,-379.37698
4739000000,-6.6064291,-379.30518
4740000000,-6.6346321,-379.49384
4741000000,-6.6252761,-379.50577
4742000000,-6.610446,-379.4559
4743000000,-6.621829,-379.71613
4744000000,-6.629858,-379.60797
4745000000,-6.6207161,-379.99811
4746000000,-6.6068568,-380.00726
4747000000,-6.5928164,-380.00732
4748000000,-6.6055245,-380.12424
4749000000,-6.6142755,-380.31177
4750000000,-6.5945325,-380.31522
4751000000,-6.6288781,-380.237
4752000000,-6.6084585,-380.60004
4753000000,-6.5907645,-380.33987
4754000000,-6.6087079,-380.41519
4755000000,-6.6266284,-380.53906
4756000000,-6.6193705,-380.70151
4757000000,-6.5689549,-380.59641
4758000000,-6.6195936,-380.74286
4759000000,-6.5965619,-380.90619
4760000000,-6.5739632,-381.08395
4761000000,-6.6039152,-381.09277
4762000000,-6.6042199,-381.13757
4763000000,-6.5877347,-381.19366
4764000000,-6.6118731,-381.42285
4765000000,-6.6122751,-381.44159
4766000000,-6.6036072,-381.52579
4767000000,-6.6019092,-381.50101
4768000000,-6.6164703,-381.6543
4769000000,-6.6192775,-381.73138
4770000000,-6.6169844,-381.66757
4771000000,-6.5903802,-381.81583
4772000000,-6.5710154,-381.96844
4773000000,-6.5988979,-381.91965
4774000000,-6.6019659,-382.07129
4775000000,-6.5520821,-382.17105
4776000000,-6.6177697,-382.2713
4777000000,-6.6064372,-382.27881
4778000000,-6.5756192,-382.39081
4779000000,-6.5586824,-382.24222
4780000000,-6.5779643,-382.5267
4781000000,-6.5861273,-382.5798
4782000000,-6.574224,-382.64868
4783000000,-6.5825243,-382.81442
4784000000,-6.5777116,-382.87476
4785000000,-6.5774479,-382.93347
4786000000,-6.5932965,-383.21121
4787000000,-6.5557494,-383.07727
4788000000,-6.5914645,-383.15601
4789000000,-6.5921555,-383.08615
4790000000,-6.5770874,-383.26114
4791000000,-6.6075387,-383.32635
4792000000,-6.5734191,-383.33047
4793000000,-6.5681744,-383.62601
4794000000,-6.5798845,-383.48315
4795000000,-6.5689502,-383.57532
4796000000,-6.5872951,-383.63446
4797000000,-6.5715623,-383.81091
4798000000,-6.5624738,-383.64697
4799000000,-6.5916796,-383.98285
4800000000,-6.5808744,-384.1059
4801000000,-6.5505037,-384.17801
4802000000,-6.5740738,-384.21286
4803000000,-6.5483861,-384.25436
4804000000,-6.563983,-384.19537
4805000000,-6.5481863,-384.40268
4806000000,-6.5761666,-384.52084
4807000000,-6.5774059,-384.6008
4808000000,-6.5738044,-384.80963
4809000000,-6.5674276,-384.80212
4810000000,-6.5711846,-384.85727
4811000000,-6.5830798,-384.81543
4812000000,-6.5532541,-384.98856
4813000000,-6.5525851,-385.07144
4814000000,-6.5471458,-385.13733
4815000000,-6.5574975,-385.20987
4816000000,-6.5609803,-385.27835
4817000000,-6.5599022,-385.49353
4818000000,-6.5791717,-385.37445
4819000000,-6.5754752,-385.61246
4820000000,-6.5782814,-385.46783
4821000000,-6.5595293,-385.85648
4822000000,-6.57335,-385.86792
4823000000,-6.5528898,-385.9949
4824000000,-6.5676136,-386.14209
4825000000,-6.5928354,-385.99811
4826000000,-6.5582299,-385.99762
4827000000,-6.5484614,-386.2529
4828000000,-6.5490894,-386.38541
4829000000,-6.5575848,-386.2475
4830000000,-6.5411253,-386.3515
4831000000,-6.5497909,-386.62488
4832000000,-6.5358286,-386.49933
4833000000,-6.5386667,-386.54639
4834000000,-6.5422664,-386.85474
4835000000,-6.5332794,-386.78586
4836000000,-6.5417356,-386.89688
4837000000,-6.5647593,-386.84384
4838000000,-6.5157981,-387.09991
4839000000,-6.5638304,-387.27106
4840000000,-6.5512013,-387.1832
4841000000,-6.5395999,-387.27789
4842000000,-6.5154548,-387.42102
4843000000,-6.5271492,-387.24838
4844000000,-6.5212431,-387.4534
4845000000,-6.5256567,-387.5332
4846000000,-6.543714,-387.67017
4847000000,-6.5373864,-387.62332
4848000000,-6.5314913,-387.81577
4849000000,-6.5318432,-387.86588
4850000000,-6.5294671,-387.88495
4851000000,-6.5269461,-388.07498
4852000000,-6.5103312,-388.0495
4853000000,-6.5179858,-388.32477
4854000000,-6.5318646,-388.27417
4855000000,-6.489141,-388.27664
4856000000,-6.5233507,-388.57703
4857000000,-6.5012555,-388.35486
4858000000,-6.5230465,-388.57907
4859000000,-6.5396447,-388.81262
4860000000,-6.5219903,-388.64182
4861000000,-6.5147576,-388.72235
4862000000,-6.517468,-389.02835
4863000000,-6.5164061,-388.88379
4864000000,-6.5235877,-388.72354
4865000000,-6.542748,-389.18088
4866000000,-6.5162306,-389.36856
4867000000,-6.5360498,-389.41736
4868000000,-6.52598,-389.30508
4869000000,-6.5337043,-389.55136
4870000000,-6.5257473,-389.55188
4871000000,-6.4963346,-389.45303
4872000000,-6.5350189,-389.54001
4873000000,-6.50946,-389.72925
4874000000,-6.5198259,-389.70349
4875000000,-6.5244346,-389.83453
4876000000,-6.4823699,-389.86972
4877000000,-6.4934368,-390.14005
4878000000,-6.516315,-390.22635
4879000000,-6.4713273,-390.27643
4880000000,-6.5002775,-390.32755
4881000000,-6.5017715,-390.46207
4882000000,-6.5133724,-390.47995
4883000000,-6.48383,-390.55496
4884000000,-6.47961,-390.75095
4885000000,-6.511992,-390.63431
4886000000,-6.4827771,-390.74915
4887000000,-6.5119205,-390.836
4888000000,-6.4764376,-391.09561
4889000000,-6.4950862,-391.14795
4890000000,-6.4530797,-391.19092
4891000000,-6.4887385,-391.1402
4892000000,-6.4827576,-391.28668
4893000000,-6.4630795,-391.41293
4894000000,-6.4889112,-391.42465
4895000000,-6.4698567,-391.52966
4896000000,-6.4848862,-391.76813
4897000000,-6.4607673,-391.64417
4898000000,-6.4764757,-391.61389
4899000000,-6.4565649,-391.62659
4900000000,-6.4846749,-391.97342
4901000000,-6.4849672,-392.11398
4902000000,-6.4822707,-392.14642
4903000000,-6.4753032,-392.17645
4904000000,-6.4752817,-392.04166
4905000000,-6.4651852,-392.30081
4906000000,-6.4728742,-392.44635
4907000000,-6.493154,-392.43771
4908000000,-6.4625697,-392.51004
4909000000,-6.4717894,-392.72287
4910000000,-6.4496064,-392.88858
4911000000,-6.4465089,-392.8927
4912000000,-6.4365559,-392.92838
4913000000,-6.4577503,-393.0191
4914000000,-6.4749527,-393.22644
4915000000,-6.4568028,-393.27859
4916000000,-6.4743447,-393.38889
4917000000,-6.4662118,-393.388
4918000000,-6.4436378,-393.44968
4919000000,-6.4216084,-393.53876
4920000000,-6.4209146,-393.77365
4921000000,-6.441412,-393.77048
4922000000,-6.4436617,-393.77707
4923000000,-6.4505196,-394.02841
4924000000,-6.4162207,-394.10983
4925000000,-6.4399805,-394.02463
4926000000,-6.4458499,-394.23834
4927000000,-6.4328136,-394.25665
4928000000,-6.4333282,-394.29269
4929000000,-6.4029436,-394.46274
4930000000,-6.4195199,-394.5997
4931000000,-6.4233012,-394.71539
4932000000,-6.4179788,-394.74091
4933000000,-6.3890142,-394.8049
4934000000,-6.4119873,-394.81882
4935000000,-6.4026146,-394.98215
4936000000,-6.4180856,-395.09601
4937000000,-6.4090085,-395.09164
4938000000,-6.4412222,-395.37289
4939000000,-6.4200454,-395.2363
4940000000,-6.4260168,-395.52371
4941000000,-6.4292598,-395.50333
4942000000,-6.4474378,-395.86618
4943000000,-6.424953,-395.60135
4944000000,-6.4191551,-395.53122
4945000000,-6.4268155,-396.07327
4946000000,-6.4310808,-396.00345
4947000000,-6.4146891,-396.22388
4948000000,-6.4305401,-396.30029
4949000000,-6.4234328,-396.34781
4950000000,-6.4234438,-396.52359
4951000000,-6.4459248,-396.4201
4952000000,-6.4342413,-396.48785
4953000000,-6.4171505,-396.64587
4954000000,-6.4153733,-396.59329
4955000000,-6.39642,-396.716
4956000000,-6.4000096,-396.74692
4957000000,-6.4255018,-397.022
4958000000,-6.4053235,-397.05865
4959000000,-6.40832,-397.21402
4960000000,-6.4095798,-397.32104
4961000000,-6.4002652,-397.4917
4962000000,-6.4172297,-397.42371
4963000000,-6.4196491,-397.43304
4964000000,-6.3933802,-397.62875
4965000000,-6.4258995,-397.77289
4966000000,-6.3954859,-397.93988
4967000000,-6.4019899,-397.75513
4968000000,-6.425992,-398.0072
4969000000,-6.3924975,-398.01389
4970000000,-6.3892956,-398.12744
4971000000,-6.4211259,-398.14346
4972000000,-6.4216003,-398.37698
4973000000,-6.4270496,-398.43472
4974000000,-6.4172802,-398.45273
4975000000,-6.4131284,-398.72986
4976000000,-6.4063401,-398.71109
4977000000,-6.4145966,-398.81845
4978000000,-6.3866897,-398.80667
4979000000,-6.424305,-398.90927
4980000000,-6.4487529,-399.069
4981000000,-6.3945098,-399.06091
4982000000,-6.3865461,-399.2323
4983000000,-6.4059854,-399.35361
4984000000,-6.410984,-399.37854
4985000000,-6.4288077,-399.32599
4986000000,-6.3928394,-399.5387
4987000000,-6.4011421,-399.62921
4988000000,-6.4310079,-399.73718
4989000000,-6.4225607,-399.92947
4990000000,-6.4244118,-400.10202
4991000000,-6.4284101,-399.9838
4992000000,-6.4145966,-400.13321
4993000000,-6.3962369,-400.25659
4994000000,-6.4219079,-400.36429
4995000000,-6.4255824,-400.48236
4996000000,-6.418035,-400.32294
4997000000,-6.4208174,-400.34543
4998000000,-6.4040966,-400.46686
4999000000,-6.4128723,-400.66833
5000000000,-6.3929205,-400.85492
END

