Freq(Hz),S21 Log Mag(dB)
1000000000,-2.0602469
1001000000,-2.0587018
1002000000,-2.0380919
1003000000,-2.0349774
1004000000,-2.0596142
1005000000,-2.0315719
1006000000,-2.0444472
1007000000,-1.9919
1008000000,-1.9767214
1009000000,-2.0671017
1010000000,-2.0029323
1011000000,-1.9751306
1012000000,-2.0033989
1013000000,-1.9872025
1014000000,-2.0132356
1015000000,-2.0026743
1016000000,-1.9581355
1017000000,-1.9770247
1018000000,-2.0146911
1019000000,-1.9581691
1020000000,-1.9721299
1021000000,-1.9837574
1022000000,-1.9348466
1023000000,-1.9541045
1024000000,-1.9561138
1025000000,-1.9566902
1026000000,-1.9279308
1027000000,-1.9237424
1028000000,-1.9544325
1029000000,-1.9528514
1030000000,-1.9510432
1031000000,-1.9238206
1032000000,-1.9415443
1033000000,-1.9294149
1034000000,-1.8972276
1035000000,-1.895294
1036000000,-1.9045298
1037000000,-1.9056784
1038000000,-1.8877946
1039000000,-1.8969773
1040000000,-1.8927132
1041000000,-1.8796914
1042000000,-1.8809029
1043000000,-1.8826911
1044000000,-1.8740127
1045000000,-1.8688345
1046000000,-1.8892119
1047000000,-1.837505
1048000000,-1.8809452
1049000000,-1.8654951
1050000000,-1.8302137
1051000000,-1.8359646
1052000000,-1.8487223
1053000000,-1.8421949
1054000000,-1.8120425
1055000000,-1.8412603
1056000000,-1.8355126
1057000000,-1.7991422
1058000000,-1.835443
1059000000,-1.8050703
1060000000,-1.8287338
1061000000,-1.812247
1062000000,-1.810382
1063000000,-1.7969733
1064000000,-1.7906247
1065000000,-1.771601
1066000000,-1.7946696
1067000000,-1.7988112
1068000000,-1.7798254
1069000000,-1.7753788
1070000000,-1.7750187
1071000000,-1.7797767
1072000000,-1.7467009
1073000000,-1.7683257
1074000000,-1.7379198
1075000000,-1.7538546
1076000000,-1.7306967
1077000000,-1.7408615
1078000000,-1.7573298
1079000000,-1.7577983
1080000000,-1.7453068
1081000000,-1.7220867
1082000000,-1.715554
1083000000,-1.7095101
1084000000,-1.7130212
1085000000,-1.7118115
1086000000,-1.7257344
1087000000,-1.716171
1088000000,-1.6841993
1089000000,-1.6863488
1090000000,-1.700119
1091000000,-1.6952066
1092000000,-1.7190136
1093000000,-1.6948062
1094000000,-1.6884507
1095000000,-1.7009057
1096000000,-1.6660463
1097000000,-1.6946352
1098000000,-1.687808
1099000000,-1.704037
1100000000,-1.6676193
1101000000,-1.6647751
1102000000,-1.6744406
1103000000,-1.6543657
1104000000,-1.6676908
1105000000,-1.6285453
1106000000,-1.6287962
1107000000,-1.6594139
1108000000,-1.6651531
1109000000,-1.6353469
1110000000,-1.6056095
1111000000,-1.6094342
1112000000,-1.6060894
1113000000,-1.6020839
1114000000,-1.6096784
1115000000,-1.5824074
1116000000,-1.6238581
1117000000,-1.5935069
1118000000,-1.6248196
1119000000,-1.6313654
1120000000,-1.5860255
1121000000,-1.5910512
1122000000,-1.5776414
1123000000,-1.5875684
1124000000,-1.6019094
1125000000,-1.5675709
1126000000,-1.5960727
1127000000,-1.5719352
1128000000,-1.5828246
1129000000,-1.5857519
1130000000,-1.5495657
1131000000,-1.5928679
1132000000,-1.5906831
1133000000,-1.5664713
1134000000,-1.5575134
1135000000,-1.5677807
1136000000,-1.5544626
1137000000,-1.544736
1138000000,-1.5448775
1139000000,-1.5326358
1140000000,-1.5304754
1141000000,-1.5065229
1142000000,-1.5383316
1143000000,-1.4988397
1144000000,-1.5237174
1145000000,-1.5232497
1146000000,-1.5326672
1147000000,-1.5228435
1148000000,-1.5324895
1149000000,-1.5025282
1150000000,-1.5425397
1151000000,-1.5119059
1152000000,-1.5284004
1153000000,-1.4740986
1154000000,-1.4817683
1155000000,-1.5034502
1156000000,-1.4897695
1157000000,-1.4892131
1158000000,-1.4804622
1159000000,-1.50797
1160000000,-1.461513
1161000000,-1.4666944
1162000000,-1.4624412
1163000000,-1.459312
1164000000,-1.4607561
1165000000,-1.464734
1166000000,-1.4829146
1167000000,-1.434855
1168000000,-1.4450186
1169000000,-1.4506313
1170000000,-1.4590799
1171000000,-1.4317268
1172000000,-1.4511232
1173000000,-1.4455003
1174000000,-1.4644705
1175000000,-1.4424092
1176000000,-1.4529752
1177000000,-1.4236757
1178000000,-1.4272903
1179000000,-1.4096556
1180000000,-1.422454
1181000000,-1.4228218
1182000000,-1.4183575
1183000000,-1.4152154
1184000000,-1.3783224
1185000000,-1.4093258
1186000000,-1.4075655
1187000000,-1.4010508
1188000000,-1.3905033
1189000000,-1.367517
1190000000,-1.3789765
1191000000,-1.3961579
1192000000,-1.4155769
1193000000,-1.3819684
1194000000,-1.3912946
1195000000,-1.413691
1196000000,-1.3624569
1197000000,-1.3554364
1198000000,-1.3586097
1199000000,-1.3697633
1200000000,-1.3762237
1201000000,-1.3794787
1202000000,-1.3372369
1203000000,-1.3438747
1204000000,-1.3377391
1205000000,-1.3532995
1206000000,-1.356959
1207000000,-1.3556759
1208000000,-1.3257216
1209000000,-1.3349091
1210000000,-1.3435487
1211000000,-1.3157251
1212000000,-1.3066142
1213000000,-1.308403
1214000000,-1.3336953
1215000000,-1.3313076
1216000000,-1.3367097
1217000000,-1.2968754
1218000000,-1.2980558
1219000000,-1.2865804
1220000000,-1.3189893
1221000000,-1.2971184
1222000000,-1.3009766
1223000000,-1.2671517
1224000000,-1.3065115
1225000000,-1.3119183
1226000000,-1.2824234
1227000000,-1.3001835
1228000000,-1.2808123
1229000000,-1.2757038
1230000000,-1.2723968
1231000000,-1.2707831
1232000000,-1.2779034
1233000000,-1.2810853
1234000000,-1.3034054
1235000000,-1.2822988
1236000000,-1.268227
1237000000,-1.2724597
1238000000,-1.2206985
1239000000,-1.2895396
1240000000,-1.2690632
1241000000,-1.2724508
1242000000,-1.2603499
1243000000,-1.2668869
1244000000,-1.2392399
1245000000,-1.2216741
1246000000,-1.2442192
1247000000,-1.2762315
1248000000,-1.2352847
1249000000,-1.2244856
1250000000,-1.2124927
1251000000,-1.2235079
1252000000,-1.2023729
1253000000,-1.2017975
1254000000,-1.2184842
1255000000,-1.2253473
1256000000,-1.1935357
1257000000,-1.1960607
1258000000,-1.2083063
1259000000,-1.1866714
1260000000,-1.1992877
1261000000,-1.221433
1262000000,-1.2112247
1263000000,-1.1970071
1264000000,-1.1784773
1265000000,-1.1894011
1266000000,-1.1625339
1267000000,-1.2041761
1268000000,-1.182557
1269000000,-1.1753021
1270000000,-1.1759104
1271000000,-1.1864595
1272000000,-1.171769
1273000000,-1.1644424
1274000000,-1.1726164
1275000000,-1.1526552
1276000000,-1.1581204
1277000000,-1.1807262
1278000000,-1.1507121
1279000000,-1.1352918
1280000000,-1.1588902
1281000000,-1.159918
1282000000,-1.1488478
1283000000,-1.1573882
1284000000,-1.1365124
1285000000,-1.1611881
1286000000,-1.1515418
1287000000,-1.1483949
1288000000,-1.1409589
1289000000,-1.1424649
1290000000,-1.142287
1291000000,-1.1103833
1292000000,-1.1182604
1293000000,-1.1194205
1294000000,-1.11308
1295000000,-1.132665
1296000000,-1.1034611
1297000000,-1.1283302
1298000000,-1.0893685
1299000000,-1.1300386
1300000000,-1.1222672
1301000000,-1.1194861
1302000000,-1.1226182
1303000000,-1.0982046
1304000000,-1.0605255
1305000000,-1.1226586
1306000000,-1.0731435
1307000000,-1.0666553
1308000000,-1.0812341
1309000000,-1.1016937
1310000000,-1.0889478
1311000000,-1.0637907
1312000000,-1.0410689
1313000000,-1.0889195
1314000000,-1.0656375
1315000000,-1.0512074
1316000000,-1.0622284
1317000000,-1.0396408
1318000000,-1.0590876
1319000000,-1.0404012
1320000000,-1.0502433
1321000000,-1.0866874
1322000000,-1.026862
1323000000,-1.0355355
1324000000,-1.0453485
1325000000,-1.0597545
1326000000,-1.0458305
1327000000,-1.0451325
1328000000,-1.0558034
1329000000,-1.0483439
1330000000,-1.0257498
1331000000,-1.03536
1332000000,-1.0638834
1333000000,-1.0401533
1334000000,-1.0500418
1335000000,-1.0196648
1336000000,-1.0239738
1337000000,-1.0417253
1338000000,-1.039811
1339000000,-1.0289383
1340000000,-1.0235608
1341000000,-1.0033041
1342000000,-1.0147334
1343000000,-1.0041754
1344000000,-0.99289322
1345000000,-1.024188
1346000000,-1.0195385
1347000000,-0.99333441
1348000000,-0.98214447
1349000000,-1.0025684
1350000000,-0.99363071
1351000000,-0.99578893
1352000000,-0.97925043
1353000000,-0.98046184
1354000000,-1.0155599
1355000000,-0.97407997
1356000000,-0.97617286
1357000000,-0.98825234
1358000000,-0.97505832
1359000000,-1.0091156
1360000000,-0.96723115
1361000000,-0.94955105
1362000000,-0.97525483
1363000000,-0.96510255
1364000000,-0.97687483
1365000000,-0.95174509
1366000000,-0.97562248
1367000000,-0.96807969
1368000000,-0.97409981
1369000000,-0.95247525
1370000000,-0.93463755
1371000000,-0.95104724
1372000000,-0.96421325
1373000000,-0.95070302
1374000000,-0.96776021
1375000000,-0.9546203
1376000000,-0.94267029
1377000000,-0.95472753
1378000000,-0.92811453
1379000000,-0.97628528
1380000000,-0.93879861
1381000000,-0.9599157
1382000000,-0.93955106
1383000000,-0.97815633
1384000000,-0.9669916
1385000000,-0.91529447
1386000000,-0.91353416
1387000000,-0.91795117
1388000000,-0.93373185
1389000000,-0.93009412
1390000000,-0.92307925
1391000000,-0.92612362
1392000000,-0.91337138
1393000000,-0.91975272
1394000000,-0.92431051
1395000000,-0.93781722
1396000000,-0.91257626
1397000000,-0.93124229
1398000000,-0.88519543
1399000000,-0.91613322
1400000000,-0.90052366
1401000000,-0.92323697
1402000000,-0.91525614
1403000000,-0.91136605
1404000000,-0.89376998
1405000000,-0.8742516
1406000000,-0.91082311
1407000000,-0.89049524
1408000000,-0.89986366
1409000000,-0.8846938
1410000000,-0.91679478
1411000000,-0.90143949
1412000000,-0.90905535
1413000000,-0.90265477
1414000000,-0.87505895
1415000000,-0.88771838
1416000000,-0.86161119
1417000000,-0.87971067
1418000000,-0.86096573
1419000000,-0.86847597
1420000000,-0.86970592
1421000000,-0.86179495
1422000000,-0.90078169
1423000000,-0.87551016
1424000000,-0.87363273
1425000000,-0.86023706
1426000000,-0.86227953
1427000000,-0.86202365
1428000000,-0.88448119
1429000000,-0.84712148
1430000000,-0.86937523
1431000000,-0.87461603
1432000000,-0.84852284
1433000000,-0.83219224
1434000000,-0.85641909
1435000000,-0.83361381
1436000000,-0.85065669
1437000000,-0.84905118
1438000000,-0.86803174
1439000000,-0.83001596
1440000000,-0.85046285
1441000000,-0.85919762
1442000000,-0.82587761
1443000000,-0.8454299
1444000000,-0.84812474
1445000000,-0.83800775
1446000000,-0.83411056
1447000000,-0.83415079
1448000000,-0.8416037
1449000000,-0.83191401
1450000000,-0.81784832
1451000000,-0.82698804
1452000000,-0.84972477
1453000000,-0.83906609
1454000000,-0.83820951
1455000000,-0.83641434
1456000000,-0.80561578
1457000000,-0.8159945
1458000000,-0.81263041
1459000000,-0.8311218
1460000000,-0.79673648
1461000000,-0.80635285
1462000000,-0.83152324
1463000000,-0.80969262
1464000000,-0.78687447
1465000000,-0.80574012
1466000000,-0.82034475
1467000000,-0.80801576
1468000000,-0.82257634
1469000000,-0.80173022
1470000000,-0.81513429
1471000000,-0.79955041
1472000000,-0.79304594
1473000000,-0.80475163
1474000000,-0.77916604
1475000000,-0.81763971
1476000000,-0.78657019
1477000000,-0.80812442
1478000000,-0.79573476
1479000000,-0.79899198
1480000000,-0.79354554
1481000000,-0.78641701
1482000000,-0.80659682
1483000000,-0.80096191
1484000000,-0.77079087
1485000000,-0.76647329
1486000000,-0.79447901
1487000000,-0.77148771
1488000000,-0.77357328
1489000000,-0.78404129
1490000000,-0.77600557
1491000000,-0.78767681
1492000000,-0.77801484
1493000000,-0.74926472
1494000000,-0.78078341
1495000000,-0.78983688
1496000000,-0.76312155
1497000000,-0.7606653
1498000000,-0.76922506
1499000000,-0.75571966
1500000000,-0.7934708
1501000000,-0.77507371
1502000000,-0.75219268
1503000000,-0.77244872
1504000000,-0.74402565
1505000000,-0.75375104
1506000000,-0.76979804
1507000000,-0.75447738
1508000000,-0.75703633
1509000000,-0.77458245
1510000000,-0.76327491
1511000000,-0.72334248
1512000000,-0.7523002
1513000000,-0.73711467
1514000000,-0.74195641
1515000000,-0.71648526
1516000000,-0.7396552
1517000000,-0.74929464
1518000000,-0.73736048
1519000000,-0.72845417
1520000000,-0.73309851
1521000000,-0.73474693
1522000000,-0.75611991
1523000000,-0.72342366
1524000000,-0.7075308
1525000000,-0.75628662
1526000000,-0.73223758
1527000000,-0.72674286
1528000000,-0.75301456
1529000000,-0.74989116
1530000000,-0.73697066
1531000000,-0.73897028
1532000000,-0.7233271
1533000000,-0.73129809
1534000000,-0.71629018
1535000000,-0.71584082
1536000000,-0.7292074
1537000000,-0.70154595
1538000000,-0.7281816
1539000000,-0.73332798
1540000000,-0.74695331
1541000000,-0.7476452
1542000000,-0.73071384
1543000000,-0.71992004
1544000000,-0.73850477
1545000000,-0.71398777
1546000000,-0.71960241
1547000000,-0.70798945
1548000000,-0.71601737
1549000000,-0.70814556
1550000000,-0.71467912
1551000000,-0.7071085
1552000000,-0.71089619
1553000000,-0.71547991
1554000000,-0.7031942
1555000000,-0.70104682
1556000000,-0.72689676
1557000000,-0.69542223
1558000000,-0.70358783
1559000000,-0.6662513
1560000000,-0.68786561
1561000000,-0.73038977
1562000000,-0.71365154
1563000000,-0.6955229
1564000000,-0.68781817
1565000000,-0.69800806
1566000000,-0.72791141
1567000000,-0.68268526
1568000000,-0.70841008
1569000000,-0.66110516
1570000000,-0.70626569
1571000000,-0.6847291
1572000000,-0.6910978
1573000000,-0.6737715
1574000000,-0.69108474
1575000000,-0.68791556
1576000000,-0.67641681
1577000000,-0.70320052
1578000000,-0.67858487
1579000000,-0.67055655
1580000000,-0.65874255
1581000000,-0.67900544
1582000000,-0.66786128
1583000000,-0.71461505
1584000000,-0.68840349
1585000000,-0.70601064
1586000000,-0.67832041
1587000000,-0.69202101
1588000000,-0.66886294
1589000000,-0.67337072
1590000000,-0.67257029
1591000000,-0.64048111
1592000000,-0.66448539
1593000000,-0.67121899
1594000000,-0.65926427
1595000000,-0.65949535
1596000000,-0.6609419
1597000000,-0.66490376
1598000000,-0.65124041
1599000000,-0.65384811
1600000000,-0.6427229
1601000000,-0.66481614
1602000000,-0.66949677
1603000000,-0.67202991
1604000000,-0.66761458
1605000000,-0.64730304
1606000000,-0.63177252
1607000000,-0.66922706
1608000000,-0.65650958
1609000000,-0.66415811
1610000000,-0.64351553
1611000000,-0.64585054
1612000000,-0.66081601
1613000000,-0.66743791
1614000000,-0.64132607
1615000000,-0.65489107
1616000000,-0.66219789
1617000000,-0.6556378
1618000000,-0.65433323
1619000000,-0.65242732
1620000000,-0.67029315
1621000000,-0.62229651
1622000000,-0.64437485
1623000000,-0.63416308
1624000000,-0.64495677
1625000000,-0.63862258
1626000000,-0.65903723
1627000000,-0.62682086
1628000000,-0.63472581
1629000000,-0.63823277
1630000000,-0.63482976
1631000000,-0.65769213
1632000000,-0.67039704
1633000000,-0.63627994
1634000000,-0.61321908
1635000000,-0.62878364
1636000000,-0.6205315
1637000000,-0.64279127
1638000000,-0.59951961
1639000000,-0.62755132
1640000000,-0.62914568
1641000000,-0.63157314
1642000000,-0.60686916
1643000000,-0.63323891
1644000000,-0.60927433
1645000000,-0.62656087
1646000000,-0.64989138
1647000000,-0.60020852
1648000000,-0.61494869
1649000000,-0.62297428
1650000000,-0.63098234
1651000000,-0.62220007
1652000000,-0.6332804
1653000000,-0.60928506
1654000000,-0.61381066
1655000000,-0.58169293
1656000000,-0.63702667
1657000000,-0.60500008
1658000000,-0.62243873
1659000000,-0.61517709
1660000000,-0.61428082
1661000000,-0.61638623
1662000000,-0.60420489
1663000000,-0.60068172
1664000000,-0.63108277
1665000000,-0.60540682
1666000000,-0.62304717
1667000000,-0.64176154
1668000000,-0.60419917
1669000000,-0.60494184
1670000000,-0.61074197
1671000000,-0.61799806
1672000000,-0.57890695
1673000000,-0.60061473
1674000000,-0.59656495
1675000000,-0.61718768
1676000000,-0.62231028
1677000000,-0.5900209
1678000000,-0.57407576
1679000000,-0.58628625
1680000000,-0.59678781
1681000000,-0.59718883
1682000000,-0.61662638
1683000000,-0.57566917
1684000000,-0.62636703
1685000000,-0.60230905
1686000000,-0.61526287
1687000000,-0.6011951
1688000000,-0.57264322
1689000000,-0.58151364
1690000000,-0.58868384
1691000000,-0.57139903
1692000000,-0.6042769
1693000000,-0.59586412
1694000000,-0.60772872
1695000000,-0.57452595
1696000000,-0.60331559
1697000000,-0.60355842
1698000000,-0.58889991
1699000000,-0.58568949
1700000000,-0.57415211
1701000000,-0.58191586
1702000000,-0.59568614
1703000000,-0.58690327
1704000000,-0.58640444
1705000000,-0.59693807
1706000000,-0.58388078
1707000000,-0.56929833
1708000000,-0.57883191
1709000000,-0.58948749
1710000000,-0.58569616
1711000000,-0.58642256
1712000000,-0.55601519
1713000000,-0.57925659
1714000000,-0.59810156
1715000000,-0.55074704
1716000000,-0.57025397
1717000000,-0.56900078
1718000000,-0.57720149
1719000000,-0.57068586
1720000000,-0.56805712
1721000000,-0.57732028
1722000000,-0.59216994
1723000000,-0.58196759
1724000000,-0.56239074
1725000000,-0.5701555
1726000000,-0.59699386
1727000000,-0.5929864
1728000000,-0.55530703
1729000000,-0.59619462
1730000000,-0.54454017
1731000000,-0.54653913
1732000000,-0.55791253
1733000000,-0.55503476
1734000000,-0.55835396
1735000000,-0.57442123
1736000000,-0.57425898
1737000000,-0.59751856
1738000000,-0.58606362
1739000000,-0.55044627
1740000000,-0.56174219
1741000000,-0.56600332
1742000000,-0.53044933
1743000000,-0.58549953
1744000000,-0.56544173
1745000000,-0.57162112
1746000000,-0.5920372
1747000000,-0.56989062
1748000000,-0.54427606
1749000000,-0.54160124
1750000000,-0.54582566
1751000000,-0.55482447
1752000000,-0.53880161
1753000000,-0.56811082
1754000000,-0.57060879
1755000000,-0.59738398
1756000000,-0.54232872
1757000000,-0.56543183
1758000000,-0.53624874
1759000000,-0.52648646
1760000000,-0.54127449
1761000000,-0.53850096
1762000000,-0.55170798
1763000000,-0.56455004
1764000000,-0.56235248
1765000000,-0.56620342
1766000000,-0.55406433
1767000000,-0.53877711
1768000000,-0.53821844
1769000000,-0.53156871
1770000000,-0.55258441
1771000000,-0.53744948
1772000000,-0.53885925
1773000000,-0.52372169
1774000000,-0.53366351
1775000000,-0.51978445
1776000000,-0.55425501
1777000000,-0.55355829
1778000000,-0.55344665
1779000000,-0.51890689
1780000000,-0.54517698
1781000000,-0.57766104
1782000000,-0.54022163
1783000000,-0.52170253
1784000000,-0.55158609
1785000000,-0.54440457
1786000000,-0.539891
1787000000,-0.54548937
1788000000,-0.54261303
1789000000,-0.53873909
1790000000,-0.5360778
1791000000,-0.53835523
1792000000,-0.55323881
1793000000,-0.55460083
1794000000,-0.5441106
1795000000,-0.53586435
1796000000,-0.52856708
1797000000,-0.5544306
1798000000,-0.53911555
1799000000,-0.51917309
1800000000,-0.53845704
1801000000,-0.54942173
1802000000,-0.55804461
1803000000,-0.53843009
1804000000,-0.54944289
1805000000,-0.539864
1806000000,-0.52847332
1807000000,-0.53679961
1808000000,-0.53673196
1809000000,-0.53920871
1810000000,-0.55249
1811000000,-0.5238353
1812000000,-0.54521149
1813000000,-0.52092957
1814000000,-0.5235123
1815000000,-0.50172275
1816000000,-0.53019893
1817000000,-0.53279394
1818000000,-0.52530217
1819000000,-0.52656966
1820000000,-0.52793241
1821000000,-0.53193545
1822000000,-0.50447828
1823000000,-0.53683037
1824000000,-0.52030516
1825000000,-0.52629989
1826000000,-0.52813351
1827000000,-0.55674922
1828000000,-0.51928073
1829000000,-0.51779705
1830000000,-0.50442147
1831000000,-0.54767936
1832000000,-0.52435416
1833000000,-0.54058242
1834000000,-0.54100645
1835000000,-0.52651489
1836000000,-0.52895343
1837000000,-0.52688515
1838000000,-0.50962383
1839000000,-0.51898581
1840000000,-0.52315408
1841000000,-0.52197266
1842000000,-0.52073127
1843000000,-0.53159356
1844000000,-0.52628332
1845000000,-0.52340472
1846000000,-0.51508152
1847000000,-0.55261451
1848000000,-0.53942281
1849000000,-0.51265138
1850000000,-0.53035462
1851000000,-0.51344723
1852000000,-0.50575316
1853000000,-0.51605022
1854000000,-0.50188059
1855000000,-0.4945423
1856000000,-0.52730483
1857000000,-0.51230443
1858000000,-0.53724802
1859000000,-0.49603996
1860000000,-0.52343494
1861000000,-0.55379182
1862000000,-0.51997781
1863000000,-0.53040987
1864000000,-0.53004664
1865000000,-0.49526513
1866000000,-0.52892947
1867000000,-0.50934452
1868000000,-0.5288254
1869000000,-0.49444395
1870000000,-0.50935113
1871000000,-0.54123318
1872000000,-0.52665955
1873000000,-0.52916521
1874000000,-0.50932306
1875000000,-0.51166409
1876000000,-0.49556118
1877000000,-0.52081358
1878000000,-0.54444402
1879000000,-0.49897346
1880000000,-0.51543564
1881000000,-0.4938035
1882000000,-0.48366463
1883000000,-0.52479988
1884000000,-0.51078618
1885000000,-0.53656274
1886000000,-0.52019095
1887000000,-0.53227001
1888000000,-0.49964616
1889000000,-0.5051865
1890000000,-0.49596408
1891000000,-0.52692777
1892000000,-0.52230918
1893000000,-0.50736284
1894000000,-0.50687748
1895000000,-0.52607536
1896000000,-0.51661104
1897000000,-0.53414279
1898000000,-0.52824295
1899000000,-0.53545958
1900000000,-0.50270694
1901000000,-0.5219965
1902000000,-0.5169884
1903000000,-0.4890272
1904000000,-0.52005869
1905000000,-0.53352994
1906000000,-0.51176834
1907000000,-0.56832021
1908000000,-0.54145724
1909000000,-0.51011145
1910000000,-0.52644277
1911000000,-0.49349904
1912000000,-0.49402297
1913000000,-0.50221044
1914000000,-0.50545251
1915000000,-0.53113246
1916000000,-0.50891417
1917000000,-0.52937961
1918000000,-0.52937245
1919000000,-0.51584107
1920000000,-0.54091424
1921000000,-0.53304559
1922000000,-0.54472429
1923000000,-0.52983803
1924000000,-0.48902655
1925000000,-0.51427603
1926000000,-0.50950623
1927000000,-0.49730122
1928000000,-0.50613111
1929000000,-0.54669279
1930000000,-0.51458573
1931000000,-0.52724773
1932000000,-0.5348475
1933000000,-0.51932776
1934000000,-0.5346123
1935000000,-0.52817833
1936000000,-0.51969844
1937000000,-0.50188118
1938000000,-0.52532464
1939000000,-0.54138327
1940000000,-0.51658762
1941000000,-0.50553071
1942000000,-0.51879096
1943000000,-0.52961707
1944000000,-0.55086601
1945000000,-0.55535173
1946000000,-0.48147058
1947000000,-0.50440031
1948000000,-0.5222699
1949000000,-0.52063352
1950000000,-0.51306236
1951000000,-0.5211314
1952000000,-0.52785224
1953000000,-0.51801139
1954000000,-0.52146679
1955000000,-0.51461637
1956000000,-0.51596361
1957000000,-0.53519928
1958000000,-0.53317106
1959000000,-0.52172494
1960000000,-0.52489138
1961000000,-0.5370689
1962000000,-0.51749158
1963000000,-0.52250534
1964000000,-0.54046386
1965000000,-0.53811407
1966000000,-0.52444232
1967000000,-0.53766286
1968000000,-0.49444768
1969000000,-0.52154386
1970000000,-0.51940072
1971000000,-0.5388608
1972000000,-0.51446539
1973000000,-0.51997894
1974000000,-0.51842809
1975000000,-0.53059864
1976000000,-0.52873898
1977000000,-0.52154654
1978000000,-0.52195001
1979000000,-0.52741373
1980000000,-0.5190798
1981000000,-0.530922
1982000000,-0.52081567
1983000000,-0.53940564
1984000000,-0.52861518
1985000000,-0.5043239
1986000000,-0.51804549
1987000000,-0.53901744
1988000000,-0.52329814
1989000000,-0.52206105
1990000000,-0.51585335
1991000000,-0.53703976
1992000000,-0.51507014
1993000000,-0.5334242
1994000000,-0.53266573
1995000000,-0.53566748
1996000000,-0.54864967
1997000000,-0.52850956
1998000000,-0.54789764
1999000000,-0.5138244
2000000000,-0.53506023
2001000000,-0.52274776
2002000000,-0.5252586
2003000000,-0.52294666
2004000000,-0.5583657
2005000000,-0.51912892
2006000000,-0.48044348
2007000000,-0.51362652
2008000000,-0.52867305
2009000000,-0.52124995
2010000000,-0.55527633
2011000000,-0.52194041
2012000000,-0.55914658
2013000000,-0.56362909
2014000000,-0.51629144
2015000000,-0.53024554
2016000000,-0.52712703
2017000000,-0.54567814
2018000000,-0.54994613
2019000000,-0.55258924
2020000000,-0.54583651
2021000000,-0.55019838
2022000000,-0.54606348
2023000000,-0.548693
2024000000,-0.53159779
2025000000,-0.51834047
2026000000,-0.55428302
2027000000,-0.5599187
2028000000,-0.5177927
2029000000,-0.53924698
2030000000,-0.53916913
2031000000,-0.53277171
2032000000,-0.55188239
2033000000,-0.51376253
2034000000,-0.52098858
2035000000,-0.52977979
2036000000,-0.52721113
2037000000,-0.57700372
2038000000,-0.54837692
2039000000,-0.5436331
2040000000,-0.53057313
2041000000,-0.55495769
2042000000,-0.53286707
2043000000,-0.52580184
2044000000,-0.56532156
2045000000,-0.54910493
2046000000,-0.53782994
2047000000,-0.55625504
2048000000,-0.54045105
2049000000,-0.52345347
2050000000,-0.53918213
2051000000,-0.52871472
2052000000,-0.53006905
2053000000,-0.52472883
2054000000,-0.53685445
2055000000,-0.53664696
2056000000,-0.54393321
2057000000,-0.54807305
2058000000,-0.55904996
2059000000,-0.5401333
2060000000,-0.54282612
2061000000,-0.53948754
2062000000,-0.54598248
2063000000,-0.55136436
2064000000,-0.5507502
2065000000,-0.53841656
2066000000,-0.53367501
2067000000,-0.51995885
2068000000,-0.56257612
2069000000,-0.55207795
2070000000,-0.49781719
2071000000,-0.56967586
2072000000,-0.53254497
2073000000,-0.53006387
2074000000,-0.54835552
2075000000,-0.51390809
2076000000,-0.53844959
2077000000,-0.4904778
2078000000,-0.53731149
2079000000,-0.52232122
2080000000,-0.5225842
2081000000,-0.54882085
2082000000,-0.54746974
2083000000,-0.52843601
2084000000,-0.52168769
2085000000,-0.55612719
2086000000,-0.56002605
2087000000,-0.5630998
2088000000,-0.5431782
2089000000,-0.52903944
2090000000,-0.54194552
2091000000,-0.56420994
2092000000,-0.54806989
2093000000,-0.54495841
2094000000,-0.540205
2095000000,-0.5133965
2096000000,-0.54819691
2097000000,-0.56906885
2098000000,-0.51973206
2099000000,-0.55959773
2100000000,-0.53004831
2101000000,-0.51316869
2102000000,-0.54184014
2103000000,-0.56046516
2104000000,-0.5391773
2105000000,-0.54571575
2106000000,-0.57600045
2107000000,-0.53950101
2108000000,-0.56114417
2109000000,-0.5652985
2110000000,-0.57396322
2111000000,-0.5402841
2112000000,-0.54978186
2113000000,-0.56191033
2114000000,-0.55581033
2115000000,-0.50917625
2116000000,-0.572891
2117000000,-0.55648494
2118000000,-0.5167529
2119000000,-0.54969138
2120000000,-0.54006654
2121000000,-0.54334968
2122000000,-0.52724797
2123000000,-0.54246545
2124000000,-0.55089718
2125000000,-0.56337571
2126000000,-0.56074679
2127000000,-0.55583191
2128000000,-0.55632675
2129000000,-0.55573386
2130000000,-0.56786537
2131000000,-0.53273183
2132000000,-0.55513191
2133000000,-0.53551769
2134000000,-0.53554732
2135000000,-0.55811679
2136000000,-0.57572556
2137000000,-0.5238803
2138000000,-0.56344169
2139000000,-0.55258143
2140000000,-0.57226413
2141000000,-0.52936482
2142000000,-0.55930322
2143000000,-0.53021133
2144000000,-0.5729481
2145000000,-0.56995642
2146000000,-0.53082448
2147000000,-0.50930685
2148000000,-0.55627692
2149000000,-0.5700593
2150000000,-0.53778595
2151000000,-0.54379696
2152000000,-0.54398131
2153000000,-0.55662346
2154000000,-0.58678532
2155000000,-0.53660965
2156000000,-0.53597087
2157000000,-0.52968436
2158000000,-0.54497224
2159000000,-0.58295685
2160000000,-0.56653738
2161000000,-0.55241758
2162000000,-0.53112662
2163000000,-0.55406201
2164000000,-0.557033
2165000000,-0.56651121
2166000000,-0.5453186
2167000000,-0.58072299
2168000000,-0.55746418
2169000000,-0.55898672
2170000000,-0.56598544
2171000000,-0.56489289
2172000000,-0.53841227
2173000000,-0.58497024
2174000000,-0.55417717
2175000000,-0.5447855
2176000000,-0.5623672
2177000000,-0.57761669
2178000000,-0.56554151
2179000000,-0.54161555
2180000000,-0.54462439
2181000000,-0.56708801
2182000000,-0.56592488
2183000000,-0.57531136
2184000000,-0.55762732
2185000000,-0.57384294
2186000000,-0.57787639
2187000000,-0.55959344
2188000000,-0.56827009
2189000000,-0.60062933
2190000000,-0.58585745
2191000000,-0.59813315
2192000000,-0.58336943
2193000000,-0.58141708
2194000000,-0.56658882
2195000000,-0.56118542
2196000000,-0.58817923
2197000000,-0.55802256
2198000000,-0.54254687
2199000000,-0.58176535
2200000000,-0.56520593
2201000000,-0.56447637
2202000000,-0.53767926
2203000000,-0.56430727
2204000000,-0.58960682
2205000000,-0.54697019
2206000000,-0.56704849
2207000000,-0.57662779
2208000000,-0.58139133
2209000000,-0.58765107
2210000000,-0.5764733
2211000000,-0.57109112
2212000000,-0.57019097
2213000000,-0.57643574
2214000000,-0.54565847
2215000000,-0.59249985
2216000000,-0.58317357
2217000000,-0.56976283
2218000000,-0.57721323
2219000000,-0.5678969
2220000000,-0.55726558
2221000000,-0.57451922
2222000000,-0.5644812
2223000000,-0.56346405
2224000000,-0.60375565
2225000000,-0.57982969
2226000000,-0.58200186
2227000000,-0.56229597
2228000000,-0.55675107
2229000000,-0.5264073
2230000000,-0.55549711
2231000000,-0.56589717
2232000000,-0.57933617
2233000000,-0.53759283
2234000000,-0.56025165
2235000000,-0.56697917
2236000000,-0.59462315
2237000000,-0.59311396
2238000000,-0.55025709
2239000000,-0.55256647
2240000000,-0.56597149
2241000000,-0.55663967
2242000000,-0.5523473
2243000000,-0.55450273
2244000000,-0.56677306
2245000000,-0.58415818
2246000000,-0.57103223
2247000000,-0.57963365
2248000000,-0.60318536
2249000000,-0.59191602
2250000000,-0.59978974
2251000000,-0.53940099
2252000000,-0.56426179
2253000000,-0.5701862
2254000000,-0.58967298
2255000000,-0.60122168
2256000000,-0.5933919
2257000000,-0.59387887
2258000000,-0.58023745
2259000000,-0.59106433
2260000000,-0.59879839
2261000000,-0.59423584
2262000000,-0.58722186
2263000000,-0.59106189
2264000000,-0.61229247
2265000000,-0.60505021
2266000000,-0.59615964
2267000000,-0.59823865
2268000000,-0.59400886
2269000000,-0.56059998
2270000000,-0.60252076
2271000000,-0.60660928
2272000000,-0.56760561
2273000000,-0.60969222
2274000000,-0.61161894
2275000000,-0.59499288
2276000000,-0.60910791
2277000000,-0.57791626
2278000000,-0.56999838
2279000000,-0.59375328
2280000000,-0.61045784
2281000000,-0.59986502
2282000000,-0.57315969
2283000000,-0.59210092
2284000000,-0.57456404
2285000000,-0.60414535
2286000000,-0.58948112
2287000000,-0.59439075
2288000000,-0.58902538
2289000000,-0.61846226
2290000000,-0.57494712
2291000000,-0.58612144
2292000000,-0.61271012
2293000000,-0.54770172
2294000000,-0.58023316
2295000000,-0.61070251
2296000000,-0.60461825
2297000000,-0.57506371
2298000000,-0.6119346
2299000000,-0.60098273
2300000000,-0.61129069
2301000000,-0.59705091
2302000000,-0.58389199
2303000000,-0.59430122
2304000000,-0.60702533
2305000000,-0.57199943
2306000000,-0.60572815
2307000000,-0.58129531
2308000000,-0.58188319
2309000000,-0.61488795
2310000000,-0.59566957
2311000000,-0.5932067
2312000000,-0.59706175
2313000000,-0.60839462
2314000000,-0.58195454
2315000000,-0.58524591
2316000000,-0.56925732
2317000000,-0.60245001
2318000000,-0.57705539
2319000000,-0.60984129
2320000000,-0.60216475
2321000000,-0.61114246
2322000000,-0.61208999
2323000000,-0.61807489
2324000000,-0.58452088
2325000000,-0.60736018
2326000000,-0.57595438
2327000000,-0.6049009
2328000000,-0.5817883
2329000000,-0.59432083
2330000000,-0.58907372
2331000000,-0.58069211
2332000000,-0.5816434
2333000000,-0.6223644
2334000000,-0.60229605
2335000000,-0.58341229
2336000000,-0.57858729
2337000000,-0.59217107
2338000000,-0.62443364
2339000000,-0.61012429
2340000000,-0.60074514
2341000000,-0.56618887
2342000000,-0.60209996
2343000000,-0.61547703
2344000000,-0.60593277
2345000000,-0.61588663
2346000000,-0.59985209
2347000000,-0.60246104
2348000000,-0.60821873
2349000000,-0.59474987
2350000000,-0.59846634
2351000000,-0.61079764
2352000000,-0.61462843
2353000000,-0.62861627
2354000000,-0.60733628
2355000000,-0.61610609
2356000000,-0.59922785
2357000000,-0.59556389
2358000000,-0.60221446
2359000000,-0.57603478
2360000000,-0.60366327
2361000000,-0.59948444
2362000000,-0.60263443
2363000000,-0.57581896
2364000000,-0.57883298
2365000000,-0.60166508
2366000000,-0.62154973
2367000000,-0.63410449
2368000000,-0.61471653
2369000000,-0.61005247
2370000000,-0.59508568
2371000000,-0.60014641
2372000000,-0.61169922
2373000000,-0.61155617
2374000000,-0.59346884
2375000000,-0.60796106
2376000000,-0.63491428
2377000000,-0.6035558
2378000000,-0.62102175
2379000000,-0.60525495
2380000000,-0.607113
2381000000,-0.61856472
2382000000,-0.60515326
2383000000,-0.60937822
2384000000,-0.59810889
2385000000,-0.61829203
2386000000,-0.62391597
2387000000,-0.62210673
2388000000,-0.59349108
2389000000,-0.6009059
2390000000,-0.62514341
2391000000,-0.59761155
2392000000,-0.6089139
2393000000,-0.59733254
2394000000,-0.60632908
2395000000,-0.59610337
2396000000,-0.62678009
2397000000,-0.56951326
2398000000,-0.6278196
2399000000,-0.62571305
2400000000,-0.59139395
2401000000,-0.62327951
2402000000,-0.60161102
2403000000,-0.6502555
2404000000,-0.60677463
2405000000,-0.60736853
2406000000,-0.59547234
2407000000,-0.60394824
2408000000,-0.60745037
2409000000,-0.57136267
2410000000,-0.57105386
2411000000,-0.61457652
2412000000,-0.63539273
2413000000,-0.62238598
2414000000,-0.62541002
2415000000,-0.60106415
2416000000,-0.62081689
2417000000,-0.63983351
2418000000,-0.60820287
2419000000,-0.58588636
2420000000,-0.62777334
2421000000,-0.60955662
2422000000,-0.60498482
2423000000,-0.60991269
2424000000,-0.61120129
2425000000,-0.63503337
2426000000,-0.63325042
2427000000,-0.61945373
2428000000,-0.62922442
2429000000,-0.6222195
2430000000,-0.62088805
2431000000,-0.61023337
2432000000,-0.63689339
2433000000,-0.61707228
2434000000,-0.64979279
2435000000,-0.62397355
2436000000,-0.60456687
2437000000,-0.62749809
2438000000,-0.64057779
2439000000,-0.59161007
2440000000,-0.5963667
2441000000,-0.59176272
2442000000,-0.62152791
2443000000,-0.61350423
2444000000,-0.59753019
2445000000,-0.62583274
2446000000,-0.62060678
2447000000,-0.65185833
2448000000,-0.624354
2449000000,-0.637335
2450000000,-0.62128264
2451000000,-0.61525345
2452000000,-0.64240384
2453000000,-0.63253081
2454000000,-0.6070925
2455000000,-0.6276449
2456000000,-0.61892557
2457000000,-0.61146361
2458000000,-0.63147706
2459000000,-0.60713607
2460000000,-0.62960297
2461000000,-0.63014621
2462000000,-0.6225158
2463000000,-0.61783665
2464000000,-0.63835162
2465000000,-0.63409799
2466000000,-0.6241954
2467000000,-0.62090242
2468000000,-0.62192118
2469000000,-0.62493432
2470000000,-0.61228305
2471000000,-0.6370216
2472000000,-0.62942725
2473000000,-0.62487853
2474000000,-0.61507529
2475000000,-0.63205332
2476000000,-0.60424572
2477000000,-0.59450269
2478000000,-0.65160286
2479000000,-0.63563526
2480000000,-0.6334905
2481000000,-0.66263181
2482000000,-0.64900333
2483000000,-0.64621985
2484000000,-0.6153248
2485000000,-0.62236214
2486000000,-0.60962313
2487000000,-0.61336315
2488000000,-0.63703763
2489000000,-0.60988879
2490000000,-0.65203953
2491000000,-0.62339115
2492000000,-0.63131464
2493000000,-0.62971663
2494000000,-0.64941084
2495000000,-0.64190656
2496000000,-0.65228307
2497000000,-0.64174271
2498000000,-0.63089758
2499000000,-0.63168681
2500000000,-0.61771709
2501000000,-0.64654315
2502000000,-0.64372885
2503000000,-0.62132984
2504000000,-0.63911283
2505000000,-0.61868894
2506000000,-0.6378876
2507000000,-0.63860887
2508000000,-0.61423904
2509000000,-0.61268991
2510000000,-0.62489867
2511000000,-0.62902135
2512000000,-0.64978367
2513000000,-0.65305436
2514000000,-0.63931
2515000000,-0.64763474
2516000000,-0.61088353
2517000000,-0.62827367
2518000000,-0.63251448
2519000000,-0.6245054
2520000000,-0.62780231
2521000000,-0.62322611
2522000000,-0.6305843
2523000000,-0.6432097
2524000000,-0.64317459
2525000000,-0.65520948
2526000000,-0.64847428
2527000000,-0.65173423
2528000000,-0.64685422
2529000000,-0.65875709
2530000000,-0.63868177
2531000000,-0.64981198
2532000000,-0.6664905
2533000000,-0.62523478
2534000000,-0.63789731
2535000000,-0.63858658
2536000000,-0.62252343
2537000000,-0.66042346
2538000000,-0.65432203
2539000000,-0.67102492
2540000000,-0.62884754
2541000000,-0.64335912
2542000000,-0.66204548
2543000000,-0.62937164
2544000000,-0.64702731
2545000000,-0.64089692
2546000000,-0.65946949
2547000000,-0.63690186
2548000000,-0.64628929
2549000000,-0.64651716
2550000000,-0.70491612
2551000000,-0.64946955
2552000000,-0.6526714
2553000000,-0.63307309
2554000000,-0.65562946
2555000000,-0.65481073
2556000000,-0.65737629
2557000000,-0.66956484
2558000000,-0.6540398
2559000000,-0.63628453
2560000000,-0.64911109
2561000000,-0.69635451
2562000000,-0.67403042
2563000000,-0.64031738
2564000000,-0.6163075
2565000000,-0.67524081
2566000000,-0.64602333
2567000000,-0.66660404
2568000000,-0.67188507
2569000000,-0.66586226
2570000000,-0.63705993
2571000000,-0.63406366
2572000000,-0.63819653
2573000000,-0.62456059
2574000000,-0.67346102
2575000000,-0.67446691
2576000000,-0.68672901
2577000000,-0.67165011
2578000000,-0.65702987
2579000000,-0.68927306
2580000000,-0.67525083
2581000000,-0.68225062
2582000000,-0.66487086
2583000000,-0.65253937
2584000000,-0.66481835
2585000000,-0.62704325
2586000000,-0.6325255
2587000000,-0.65373361
2588000000,-0.67309982
2589000000,-0.65380561
2590000000,-0.66894466
2591000000,-0.65195251
2592000000,-0.63976103
2593000000,-0.64912516
2594000000,-0.65100354
2595000000,-0.64704466
2596000000,-0.62472105
2597000000,-0.63285595
2598000000,-0.64922428
2599000000,-0.65700507
2600000000,-0.67505074
2601000000,-0.67644894
2602000000,-0.69399798
2603000000,-0.69267344
2604000000,-0.67850423
2605000000,-0.70326483
2606000000,-0.66633689
2607000000,-0.65556782
2608000000,-0.65037519
2609000000,-0.7010929
2610000000,-0.67707509
2611000000,-0.68859041
2612000000,-0.66365343
2613000000,-0.70401114
2614000000,-0.70065016
2615000000,-0.70066476
2616000000,-0.67539001
2617000000,-0.68794465
2618000000,-0.70857376
2619000000,-0.66313171
2620000000,-0.67718852
2621000000,-0.71311921
2622000000,-0.67943859
2623000000,-0.72629493
2624000000,-0.67893428
2625000000,-0.68568641
2626000000,-0.66018039
2627000000,-0.67799002
2628000000,-0.68870509
2629000000,-0.66207224
2630000000,-0.70468736
2631000000,-0.68245482
2632000000,-0.67942739
2633000000,-0.67135471
2634000000,-0.664258
2635000000,-0.673015
2636000000,-0.67379808
2637000000,-0.69476748
2638000000,-0.68789756
2639000000,-0.68424565
2640000000,-0.72072935
2641000000,-0.70734298
2642000000,-0.67726487
2643000000,-0.72337633
2644000000,-0.66893941
2645000000,-0.7104255
2646000000,-0.69306076
2647000000,-0.67686152
2648000000,-0.67086929
2649000000,-0.73032612
2650000000,-0.70604867
2651000000,-0.69581723
2652000000,-0.72376722
2653000000,-0.71804655
2654000000,-0.70071238
2655000000,-0.73175263
2656000000,-0.70452422
2657000000,-0.72234315
2658000000,-0.70475376
2659000000,-0.69556624
2660000000,-0.69701731
2661000000,-0.73461932
2662000000,-0.71300954
2663000000,-0.67566812
2664000000,-0.7058956
2665000000,-0.73175138
2666000000,-0.70455784
2667000000,-0.7472983
2668000000,-0.69770938
2669000000,-0.72536957
2670000000,-0.73573339
2671000000,-0.69966948
2672000000,-0.71048802
2673000000,-0.68885326
2674000000,-0.71743935
2675000000,-0.72301531
2676000000,-0.72819155
2677000000,-0.71867305
2678000000,-0.73672217
2679000000,-0.73019373
2680000000,-0.7123577
2681000000,-0.73093724
2682000000,-0.72337228
2683000000,-0.75196213
2684000000,-0.70376879
2685000000,-0.71717519
2686000000,-0.72505105
2687000000,-0.70986217
2688000000,-0.74443287
2689000000,-0.73936504
2690000000,-0.76438683
2691000000,-0.75694126
2692000000,-0.73006797
2693000000,-0.73180234
2694000000,-0.71393687
2695000000,-0.73277402
2696000000,-0.73192328
2697000000,-0.73375332
2698000000,-0.71919471
2699000000,-0.71449286
2700000000,-0.73834068
2701000000,-0.74964374
2702000000,-0.74091309
2703000000,-0.75462514
2704000000,-0.72388881
2705000000,-0.75571477
2706000000,-0.75335652
2707000000,-0.77909714
2708000000,-0.7289775
2709000000,-0.73148382
2710000000,-0.74875814
2711000000,-0.74166024
2712000000,-0.73872495
2713000000,-0.76766282
2714000000,-0.75975823
2715000000,-0.72397494
2716000000,-0.75082582
2717000000,-0.70319861
2718000000,-0.73652971
2719000000,-0.75132948
2720000000,-0.77530801
2721000000,-0.75564623
2722000000,-0.75842631
2723000000,-0.75179344
2724000000,-0.76839674
2725000000,-0.72998571
2726000000,-0.7934072
2727000000,-0.76969254
2728000000,-0.75283015
2729000000,-0.73352778
2730000000,-0.73981041
2731000000,-0.77656835
2732000000,-0.80324829
2733000000,-0.75292259
2734000000,-0.74372828
2735000000,-0.7755177
2736000000,-0.75469106
2737000000,-0.75181538
2738000000,-0.73232871
2739000000,-0.7626394
2740000000,-0.78349012
2741000000,-0.72706008
2742000000,-0.77388918
2743000000,-0.77225584
2744000000,-0.77118051
2745000000,-0.72677684
2746000000,-0.76830125
2747000000,-0.75895679
2748000000,-0.78011996
2749000000,-0.77029467
2750000000,-0.76528662
2751000000,-0.79654366
2752000000,-0.73996896
2753000000,-0.76030505
2754000000,-0.78109038
2755000000,-0.75989199
2756000000,-0.74979061
2757000000,-0.77390802
2758000000,-0.76941639
2759000000,-0.77084625
2760000000,-0.80500585
2761000000,-0.77493697
2762000000,-0.80068129
2763000000,-0.78906637
2764000000,-0.76915687
2765000000,-0.74881369
2766000000,-0.80898988
2767000000,-0.79312056
2768000000,-0.81198448
2769000000,-0.77620751
2770000000,-0.77966261
2771000000,-0.79044116
2772000000,-0.80077821
2773000000,-0.76718247
2774000000,-0.78023231
2775000000,-0.80890429
2776000000,-0.79356247
2777000000,-0.80847192
2778000000,-0.76928037
2779000000,-0.80516618
2780000000,-0.81634986
2781000000,-0.78858459
2782000000,-0.80726737
2783000000,-0.80824113
2784000000,-0.81616455
2785000000,-0.76661074
2786000000,-0.79179138
2787000000,-0.81642914
2788000000,-0.78734928
2789000000,-0.8077606
2790000000,-0.81293499
2791000000,-0.81231558
2792000000,-0.79816085
2793000000,-0.79494518
2794000000,-0.80788606
2795000000,-0.82761788
2796000000,-0.79428482
2797000000,-0.8356244
2798000000,-0.79830599
2799000000,-0.81017047
2800000000,-0.83050483
2801000000,-0.81112033
2802000000,-0.80357605
2803000000,-0.812576
2804000000,-0.8238188
2805000000,-0.81775767
2806000000,-0.81924564
2807000000,-0.82410818
2808000000,-0.83328205
2809000000,-0.81571919
2810000000,-0.7966038
2811000000,-0.82469451
2812000000,-0.82946008
2813000000,-0.81930441
2814000000,-0.78831786
2815000000,-0.80491579
2816000000,-0.83309293
2817000000,-0.85357916
2818000000,-0.84068453
2819000000,-0.83713377
2820000000,-0.85000449
2821000000,-0.83014554
2822000000,-0.82107645
2823000000,-0.84306455
2824000000,-0.8211199
2825000000,-0.82991892
2826000000,-0.83207095
2827000000,-0.83277726
2828000000,-0.83805078
2829000000,-0.86601418
2830000000,-0.85607761
2831000000,-0.80511677
2832000000,-0.84195113
2833000000,-0.87320942
2834000000,-0.85086107
2835000000,-0.84981745
2836000000,-0.82156241
2837000000,-0.83273393
2838000000,-0.82684678
2839000000,-0.85341877
2840000000,-0.86558878
2841000000,-0.87612677
2842000000,-0.83798403
2843000000,-0.84208697
2844000000,-0.85527194
2845000000,-0.83249885
2846000000,-0.84961998
2847000000,-0.82506907
2848000000,-0.8744784
2849000000,-0.86461693
2850000000,-0.84655917
2851000000,-0.85188776
2852000000,-0.84412271
2853000000,-0.87695307
2854000000,-0.84868062
2855000000,-0.87420827
2856000000,-0.86312544
2857000000,-0.91430795
2858000000,-0.87526524
2859000000,-0.88533401
2860000000,-0.85370106
2861000000,-0.860744
2862000000,-0.8511821
2863000000,-0.87754595
2864000000,-0.90391999
2865000000,-0.88144451
2866000000,-0.88062745
2867000000,-0.8732034
2868000000,-0.86070836
2869000000,-0.92155129
2870000000,-0.88658422
2871000000,-0.8828221
2872000000,-0.86567944
2873000000,-0.87064326
2874000000,-0.87663656
2875000000,-0.83912683
2876000000,-0.87736303
2877000000,-0.88670254
2878000000,-0.85159063
2879000000,-0.87288469
2880000000,-0.86940342
2881000000,-0.87931228
2882000000,-0.88350379
2883000000,-0.8751995
2884000000,-0.90680528
2885000000,-0.89534068
2886000000,-0.90156984
2887000000,-0.87630004
2888000000,-0.88522506
2889000000,-0.88735288
2890000000,-0.91348159
2891000000,-0.91416484
2892000000,-0.86867774
2893000000,-0.88246661
2894000000,-0.89138025
2895000000,-0.89223975
2896000000,-0.8950032
2897000000,-0.88869256
2898000000,-0.89490241
2899000000,-0.90232843
2900000000,-0.91800159
2901000000,-0.89673674
2902000000,-0.89493638
2903000000,-0.90985823
2904000000,-0.90614313
2905000000,-0.90582252
2906000000,-0.93814033
2907000000,-0.90522844
2908000000,-0.90276265
2909000000,-0.89171207
2910000000,-0.91990793
2911000000,-0.92139375
2912000000,-0.91786456
2913000000,-0.9356851
2914000000,-0.90508938
2915000000,-0.92180735
2916000000,-0.89288467
2917000000,-0.92803234
2918000000,-0.94824892
2919000000,-0.92247444
2920000000,-0.94455934
2921000000,-0.93845958
2922000000,-0.93560225
2923000000,-0.90209526
2924000000,-0.91060615
2925000000,-0.89889377
2926000000,-0.94062632
2927000000,-0.94033808
2928000000,-0.95140201
2929000000,-0.93182379
2930000000,-0.95880431
2931000000,-0.96494544
2932000000,-0.94410825
2933000000,-0.92634106
2934000000,-0.92753136
2935000000,-0.92259699
2936000000,-0.94644833
2937000000,-0.94222182
2938000000,-0.96411711
2939000000,-0.93942851
2940000000,-0.95513052
2941000000,-0.95778233
2942000000,-0.93972468
2943000000,-0.92909926
2944000000,-0.96219951
2945000000,-0.94203478
2946000000,-0.95739031
2947000000,-0.94479412
2948000000,-0.95161849
2949000000,-0.98953819
2950000000,-0.94659591
2951000000,-0.96309835
2952000000,-0.9569422
2953000000,-0.96278977
2954000000,-0.97810376
2955000000,-0.99615568
2956000000,-0.99704272
2957000000,-0.99818742
2958000000,-0.97286785
2959000000,-0.96946418
2960000000,-0.97185445
2961000000,-0.95523918
2962000000,-0.9791137
2963000000,-1.0128101
2964000000,-0.9945733
2965000000,-0.97784686
2966000000,-0.98405719
2967000000,-0.98161572
2968000000,-0.98955923
2969000000,-0.97486138
2970000000,-0.95804381
2971000000,-1.0068477
2972000000,-0.98244888
2973000000,-0.98545372
2974000000,-0.97931832
2975000000,-0.99598569
2976000000,-0.99876881
2977000000,-0.99843758
2978000000,-0.98585814
2979000000,-1.0175632
2980000000,-1.0191854
2981000000,-1.0090653
2982000000,-1.0242802
2983000000,-1.0031878
2984000000,-0.98925257
2985000000,-0.98864394
2986000000,-0.99294597
2987000000,-1.0161456
2988000000,-1.0257738
2989000000,-1.0280828
2990000000,-0.98463219
2991000000,-1.0356092
2992000000,-0.99021018
2993000000,-0.99401873
2994000000,-1.0151891
2995000000,-1.0339582
2996000000,-1.0086384
2997000000,-0.97810644
2998000000,-1.0024204
2999000000,-1.0147611
3000000000,-1.0219847
3001000000,-1.0142734
3002000000,-1.0289172
3003000000,-1.0266176
3004000000,-1.0247861
3005000000,-1.0244303
3006000000,-1.02133
3007000000,-1.0224252
3008000000,-1.0198579
3009000000,-1.038642
3010000000,-1.0199661
3011000000,-1.0277948
3012000000,-1.0176182
3013000000,-1.0350151
3014000000,-1.0271274
3015000000,-1.0423144
3016000000,-1.0382358
3017000000,-1.0419351
3018000000,-1.0307425
3019000000,-1.036199
3020000000,-1.0350125
3021000000,-1.0751178
3022000000,-1.0125102
3023000000,-1.0449237
3024000000,-1.0700551
3025000000,-1.0634911
3026000000,-1.0582505
3027000000,-1.0276966
3028000000,-1.033444
3029000000,-1.0367872
3030000000,-1.0719179
3031000000,-1.0560087
3032000000,-1.0431144
3033000000,-1.0671784
3034000000,-1.0760084
3035000000,-1.0406989
3036000000,-1.0697944
3037000000,-1.1049997
3038000000,-1.0910386
3039000000,-1.0879486
3040000000,-1.0492977
3041000000,-1.0739262
3042000000,-1.0903075
3043000000,-1.0889004
3044000000,-1.0793632
3045000000,-1.0608091
3046000000,-1.0975163
3047000000,-1.1045111
3048000000,-1.0797347
3049000000,-1.1039281
3050000000,-1.1285385
3051000000,-1.1022111
3052000000,-1.1137118
3053000000,-1.0898033
3054000000,-1.0663257
3055000000,-1.0745038
3056000000,-1.1121663
3057000000,-1.077934
3058000000,-1.0924226
3059000000,-1.126484
3060000000,-1.0930471
3061000000,-1.0855668
3062000000,-1.0994176
3063000000,-1.1338301
3064000000,-1.0937455
3065000000,-1.1301783
3066000000,-1.1065592
3067000000,-1.1162184
3068000000,-1.1221715
3069000000,-1.1177659
3070000000,-1.1179538
3071000000,-1.1662533
3072000000,-1.1187479
3073000000,-1.1103967
3074000000,-1.1368316
3075000000,-1.1166424
3076000000,-1.1157813
3077000000,-1.116364
3078000000,-1.1319411
3079000000,-1.136189
3080000000,-1.1103927
3081000000,-1.1322401
3082000000,-1.1286705
3083000000,-1.119736
3084000000,-1.1236844
3085000000,-1.1261951
3086000000,-1.1404033
3087000000,-1.1482693
3088000000,-1.1157709
3089000000,-1.1398777
3090000000,-1.1399276
3091000000,-1.141261
3092000000,-1.1486601
3093000000,-1.1671923
3094000000,-1.1399305
3095000000,-1.1813791
3096000000,-1.1530386
3097000000,-1.1449677
3098000000,-1.150673
3099000000,-1.1897907
3100000000,-1.14726
3101000000,-1.1983986
3102000000,-1.1912467
3103000000,-1.1579903
3104000000,-1.1802633
3105000000,-1.1814504
3106000000,-1.1785523
3107000000,-1.1882902
3108000000,-1.1860557
3109000000,-1.1817589
3110000000,-1.2025084
3111000000,-1.1822971
3112000000,-1.1976191
3113000000,-1.1952082
3114000000,-1.200804
3115000000,-1.2033333
3116000000,-1.1898824
3117000000,-1.1899881
3118000000,-1.1820735
3119000000,-1.1670442
3120000000,-1.2002088
3121000000,-1.212762
3122000000,-1.1849654
3123000000,-1.2094671
3124000000,-1.1986741
3125000000,-1.2051721
3126000000,-1.2083459
3127000000,-1.2330524
3128000000,-1.1755236
3129000000,-1.2541192
3130000000,-1.23403
3131000000,-1.2160025
3132000000,-1.2178841
3133000000,-1.229495
3134000000,-1.242111
3135000000,-1.2213874
3136000000,-1.2630951
3137000000,-1.2124414
3138000000,-1.218601
3139000000,-1.2402602
3140000000,-1.2383476
3141000000,-1.2622972
3142000000,-1.2304735
3143000000,-1.2575908
3144000000,-1.2349726
3145000000,-1.2533809
3146000000,-1.2210089
3147000000,-1.2288533
3148000000,-1.2237639
3149000000,-1.2529463
3150000000,-1.2721456
3151000000,-1.2506163
3152000000,-1.2575232
3153000000,-1.2469152
3154000000,-1.237412
3155000000,-1.2618926
3156000000,-1.2868799
3157000000,-1.2753818
3158000000,-1.2908874
3159000000,-1.2762904
3160000000,-1.286613
3161000000,-1.2908161
3162000000,-1.267114
3163000000,-1.2829388
3164000000,-1.2509443
3165000000,-1.2497087
3166000000,-1.2701309
3167000000,-1.2471833
3168000000,-1.2873155
3169000000,-1.2515589
3170000000,-1.2999148
3171000000,-1.2968379
3172000000,-1.2951624
3173000000,-1.2788478
3174000000,-1.2869376
3175000000,-1.2890545
3176000000,-1.2811419
3177000000,-1.3231889
3178000000,-1.313066
3179000000,-1.2721381
3180000000,-1.307408
3181000000,-1.3084416
3182000000,-1.3320528
3183000000,-1.3337761
3184000000,-1.3252797
3185000000,-1.3309894
3186000000,-1.3301359
3187000000,-1.342455
3188000000,-1.3221612
3189000000,-1.3166192
3190000000,-1.3253481
3191000000,-1.3515742
3192000000,-1.3404373
3193000000,-1.310581
3194000000,-1.342723
3195000000,-1.3107747
3196000000,-1.3173555
3197000000,-1.3530694
3198000000,-1.3249347
3199000000,-1.3264072
3200000000,-1.331594
3201000000,-1.3337164
3202000000,-1.3308535
3203000000,-1.3541471
3204000000,-1.3451591
3205000000,-1.3658774
3206000000,-1.3363527
3207000000,-1.3505473
3208000000,-1.3501384
3209000000,-1.350842
3210000000,-1.3492535
3211000000,-1.3493544
3212000000,-1.349617
3213000000,-1.3695552
3214000000,-1.3699777
3215000000,-1.3712264
3216000000,-1.3877567
3217000000,-1.364782
3218000000,-1.4028322
3219000000,-1.386361
3220000000,-1.3807232
3221000000,-1.3796927
3222000000,-1.3867137
3223000000,-1.362164
3224000000,-1.3944943
3225000000,-1.4065859
3226000000,-1.3902389
3227000000,-1.4079021
3228000000,-1.4063258
3229000000,-1.3802395
3230000000,-1.4145806
3231000000,-1.379705
3232000000,-1.4172542
3233000000,-1.4064839
3234000000,-1.3977745
3235000000,-1.3795824
3236000000,-1.4139541
3237000000,-1.4126186
3238000000,-1.4357461
3239000000,-1.4006982
3240000000,-1.4299968
3241000000,-1.4202855
3242000000,-1.4403887
3243000000,-1.4233608
3244000000,-1.4121649
3245000000,-1.4358928
3246000000,-1.4724506
3247000000,-1.4052306
3248000000,-1.452117
3249000000,-1.4530219
3250000000,-1.4428365
3251000000,-1.4305849
3252000000,-1.4402889
3253000000,-1.4271555
3254000000,-1.4559237
3255000000,-1.4275528
3256000000,-1.4500557
3257000000,-1.4456867
3258000000,-1.4555705
3259000000,-1.4498159
3260000000,-1.4458926
3261000000,-1.4631047
3262000000,-1.470529
3263000000,-1.4614185
3264000000,-1.4741503
3265000000,-1.4916528
3266000000,-1.4606702
3267000000,-1.4860725
3268000000,-1.4700736
3269000000,-1.4578865
3270000000,-1.4824183
3271000000,-1.4592643
3272000000,-1.4909078
3273000000,-1.494769
3274000000,-1.5003949
3275000000,-1.5061271
3276000000,-1.5149628
3277000000,-1.4807054
3278000000,-1.5048829
3279000000,-1.4454389
3280000000,-1.5200257
3281000000,-1.517563
3282000000,-1.5082012
3283000000,-1.5215253
3284000000,-1.5114723
3285000000,-1.5331646
3286000000,-1.5293542
3287000000,-1.5332384
3288000000,-1.5144508
3289000000,-1.5449597
3290000000,-1.5237322
3291000000,-1.5467194
3292000000,-1.5277904
3293000000,-1.5186757
3294000000,-1.5491664
3295000000,-1.5465372
3296000000,-1.520259
3297000000,-1.5226588
3298000000,-1.5671729
3299000000,-1.5294615
3300000000,-1.5574613
3301000000,-1.542382
3302000000,-1.5724553
3303000000,-1.5632381
3304000000,-1.5754573
3305000000,-1.5677665
3306000000,-1.5799202
3307000000,-1.5642794
3308000000,-1.6059045
3309000000,-1.5628043
3310000000,-1.5674318
3311000000,-1.5702803
3312000000,-1.569549
3313000000,-1.6078277
3314000000,-1.561228
3315000000,-1.5781167
3316000000,-1.5757056
3317000000,-1.5891953
3318000000,-1.6024594
3319000000,-1.6058805
3320000000,-1.6072968
3321000000,-1.5756308
3322000000,-1.6038934
3323000000,-1.6207892
3324000000,-1.6135685
3325000000,-1.5870596
3326000000,-1.6338168
3327000000,-1.6505609
3328000000,-1.6266958
3329000000,-1.6374693
3330000000,-1.6303602
3331000000,-1.6207757
3332000000,-1.6371958
3333000000,-1.6292251
3334000000,-1.6353542
3335000000,-1.6473445
3336000000,-1.6301359
3337000000,-1.6025265
3338000000,-1.6633323
3339000000,-1.6396668
3340000000,-1.6710826
3341000000,-1.6277784
3342000000,-1.6432618
3343000000,-1.6725215
3344000000,-1.6565087
3345000000,-1.684369
3346000000,-1.6640985
3347000000,-1.6708113
3348000000,-1.7065865
3349000000,-1.6666611
3350000000,-1.678929
3351000000,-1.6552809
3352000000,-1.6869652
3353000000,-1.6554078
3354000000,-1.6841341
3355000000,-1.6889173
3356000000,-1.7161863
3357000000,-1.6708554
3358000000,-1.7292386
3359000000,-1.7201604
3360000000,-1.6778306
3361000000,-1.7195823
3362000000,-1.6894644
3363000000,-1.6927629
3364000000,-1.728233
3365000000,-1.7281804
3366000000,-1.7087669
3367000000,-1.722726
3368000000,-1.7222902
3369000000,-1.7176955
3370000000,-1.7276111
3371000000,-1.730343
3372000000,-1.743266
3373000000,-1.7667311
3374000000,-1.7570784
3375000000,-1.7374972
3376000000,-1.7674986
3377000000,-1.7719282
3378000000,-1.7754477
3379000000,-1.7568531
3380000000,-1.7416408
3381000000,-1.7615087
3382000000,-1.7670653
3383000000,-1.798774
3384000000,-1.7658539
3385000000,-1.7862881
3386000000,-1.7785
3387000000,-1.7709972
3388000000,-1.8197367
3389000000,-1.767648
3390000000,-1.8084177
3391000000,-1.7950317
3392000000,-1.8104099
3393000000,-1.807134
3394000000,-1.7800477
3395000000,-1.8041196
3396000000,-1.8005853
3397000000,-1.8082331
3398000000,-1.807906
3399000000,-1.7937274
3400000000,-1.8221413
3401000000,-1.8105481
3402000000,-1.8395975
3403000000,-1.8327258
3404000000,-1.8118432
3405000000,-1.8233243
3406000000,-1.8467323
3407000000,-1.823096
3408000000,-1.8243787
3409000000,-1.8506559
3410000000,-1.8498024
3411000000,-1.8524534
3412000000,-1.8411613
3413000000,-1.8499799
3414000000,-1.8601303
3415000000,-1.8612424
3416000000,-1.8818413
3417000000,-1.8554034
3418000000,-1.8680743
3419000000,-1.8602084
3420000000,-1.873004
3421000000,-1.8470044
3422000000,-1.9055723
3423000000,-1.8679056
3424000000,-1.8767221
3425000000,-1.899984
3426000000,-1.8913196
3427000000,-1.8766022
3428000000,-1.8852211
3429000000,-1.92391
3430000000,-1.8796763
3431000000,-1.9135634
3432000000,-1.9081692
3433000000,-1.9196074
3434000000,-1.9277533
3435000000,-1.9384749
3436000000,-1.9094746
3437000000,-1.9451964
3438000000,-1.9336923
3439000000,-1.9390246
3440000000,-1.9566613
3441000000,-1.9547764
3442000000,-1.9406879
3443000000,-1.9677149
3444000000,-1.9341111
3445000000,-1.933463
3446000000,-1.9802783
3447000000,-1.9633662
3448000000,-1.9828945
3449000000,-1.9682592
3450000000,-1.9597522
3451000000,-2.008544
3452000000,-1.9636855
3453000000,-1.9721409
3454000000,-1.9852377
3455000000,-1.9905421
3456000000,-2.0048494
3457000000,-1.9462236
3458000000,-2.0103631
3459000000,-1.9877138
3460000000,-1.9918685
3461000000,-2.0015123
3462000000,-1.9958465
3463000000,-1.9976237
3464000000,-1.9942296
3465000000,-2.0329702
3466000000,-2.0051796
3467000000,-2.0183899
3468000000,-2.0038581
3469000000,-2.0248518
3470000000,-2.0187726
3471000000,-2.0310285
3472000000,-2.0603721
3473000000,-2.0289388
3474000000,-2.0552435
3475000000,-2.0586681
3476000000,-2.0516739
3477000000,-2.051739
3478000000,-2.0654714
3479000000,-2.0634656
3480000000,-2.0550454
3481000000,-2.049253
3482000000,-2.0559299
3483000000,-2.0597439
3484000000,-2.0381625
3485000000,-2.0787728
3486000000,-2.0600979
3487000000,-2.0863366
3488000000,-2.0984669
3489000000,-2.0990474
3490000000,-2.0836108
3491000000,-2.1010213
3492000000,-2.1086133
3493000000,-2.1244955
3494000000,-2.0897202
3495000000,-2.1082489
3496000000,-2.107836
3497000000,-2.1060426
3498000000,-2.0864224
3499000000,-2.142931
3500000000,-2.1465039
3501000000,-2.1186571
3502000000,-2.1292779
3503000000,-2.122422
3504000000,-2.0949152
3505000000,-2.1206281
3506000000,-2.1232581
3507000000,-2.1542485
3508000000,-2.134335
3509000000,-2.1335721
3510000000,-2.1308212
3511000000,-2.1687169
3512000000,-2.1706889
3513000000,-2.179482
3514000000,-2.1427412
3515000000,-2.154573
3516000000,-2.1545002
3517000000,-2.1457999
3518000000,-2.1834579
3519000000,-2.1928186
3520000000,-2.176991
3521000000,-2.2059875
3522000000,-2.2072451
3523000000,-2.1703286
3524000000,-2.1958346
3525000000,-2.1705921
3526000000,-2.191087
3527000000,-2.2082491
3528000000,-2.2266195
3529000000,-2.2390485
3530000000,-2.237509
3531000000,-2.2195265
3532000000,-2.222173
3533000000,-2.223773
3534000000,-2.2639003
3535000000,-2.2225664
3536000000,-2.2235119
3537000000,-2.2499332
3538000000,-2.2554064
3539000000,-2.2367122
3540000000,-2.2217255
3541000000,-2.2440469
3542000000,-2.2793295
3543000000,-2.2482383
3544000000,-2.2895143
3545000000,-2.2563703
3546000000,-2.2729297
3547000000,-2.2842526
3548000000,-2.2816014
3549000000,-2.2685633
3550000000,-2.2918985
3551000000,-2.2688277
3552000000,-2.3032942
3553000000,-2.280968
3554000000,-2.339221
3555000000,-2.2840793
3556000000,-2.3108406
3557000000,-2.3088715
3558000000,-2.3217843
3559000000,-2.3180821
3560000000,-2.3227282
3561000000,-2.3407192
3562000000,-2.3105898
3563000000,-2.3278866
3564000000,-2.3375628
3565000000,-2.3510149
3566000000,-2.3661008
3567000000,-2.3258135
3568000000,-2.3551853
3569000000,-2.3364985
3570000000,-2.3673632
3571000000,-2.3735366
3572000000,-2.3873034
3573000000,-2.3568776
3574000000,-2.3714759
3575000000,-2.3874109
3576000000,-2.3592489
3577000000,-2.3675392
3578000000,-2.3982313
3579000000,-2.3845634
3580000000,-2.4061899
3581000000,-2.4002736
3582000000,-2.3944073
3583000000,-2.4090919
3584000000,-2.4095719
3585000000,-2.3932664
3586000000,-2.4082208
3587000000,-2.4186952
3588000000,-2.4139442
3589000000,-2.4456816
3590000000,-2.4154651
3591000000,-2.4272895
3592000000,-2.4262867
3593000000,-2.4420948
3594000000,-2.4360058
3595000000,-2.4479072
3596000000,-2.4555404
3597000000,-2.4358828
3598000000,-2.4764299
3599000000,-2.4808702
3600000000,-2.4837732
3601000000,-2.4734557
3602000000,-2.4609296
3603000000,-2.4685316
3604000000,-2.4827807
3605000000,-2.4791965
3606000000,-2.4978688
3607000000,-2.4931817
3608000000,-2.5140011
3609000000,-2.4920952
3610000000,-2.5078537
3611000000,-2.4993458
3612000000,-2.5183914
3613000000,-2.4904153
3614000000,-2.5138643
3615000000,-2.5322683
3616000000,-2.5053122
3617000000,-2.5189004
3618000000,-2.5405931
3619000000,-2.5468092
3620000000,-2.5483308
3621000000,-2.5143142
3622000000,-2.5528927
3623000000,-2.5472009
3624000000,-2.5701127
3625000000,-2.543257
3626000000,-2.5494869
3627000000,-2.5789955
3628000000,-2.5870795
3629000000,-2.5475168
3630000000,-2.5844815
3631000000,-2.6255352
3632000000,-2.5677216
3633000000,-2.6137362
3634000000,-2.6055839
3635000000,-2.5808804
3636000000,-2.6166134
3637000000,-2.5452535
3638000000,-2.6247375
3639000000,-2.6075094
3640000000,-2.6058741
3641000000,-2.6240511
3642000000,-2.623935
3643000000,-2.6345341
3644000000,-2.6275795
3645000000,-2.6229014
3646000000,-2.6258299
3647000000,-2.6298497
3648000000,-2.6449873
3649000000,-2.6451643
3650000000,-2.6463366
3651000000,-2.6789131
3652000000,-2.6502597
3653000000,-2.6606228
3654000000,-2.6775997
3655000000,-2.6799166
3656000000,-2.6771884
3657000000,-2.6674125
3658000000,-2.6720688
3659000000,-2.6811483
3660000000,-2.6654325
3661000000,-2.7113073
3662000000,-2.7240074
3663000000,-2.7127347
3664000000,-2.7239575
3665000000,-2.6958015
3666000000,-2.7287159
3667000000,-2.6731341
3668000000,-2.6954284
3669000000,-2.7398612
3670000000,-2.7286217
3671000000,-2.7250102
3672000000,-2.7451649
3673000000,-2.6937597
3674000000,-2.7243207
3675000000,-2.7299731
3676000000,-2.7450943
3677000000,-2.7205675
3678000000,-2.7788703
3679000000,-2.757128
3680000000,-2.7668788
3681000000,-2.7809725
3682000000,-2.7452295
3683000000,-2.7757142
3684000000,-2.7518661
3685000000,-2.767997
3686000000,-2.7643063
3687000000,-2.7731817
3688000000,-2.7884717
3689000000,-2.8038759
3690000000,-2.7990386
3691000000,-2.798588
3692000000,-2.7925158
3693000000,-2.8212869
3694000000,-2.7805736
3695000000,-2.8055215
3696000000,-2.8122439
3697000000,-2.8146274
3698000000,-2.8288596
3699000000,-2.8348005
3700000000,-2.8262045
3701000000,-2.8601537
3702000000,-2.8515663
3703000000,-2.8411493
3704000000,-2.8419588
3705000000,-2.8512213
3706000000,-2.8721318
3707000000,-2.8352649
3708000000,-2.8469679
3709000000,-2.8672578
3710000000,-2.8631597
3711000000,-2.8801475
3712000000,-2.8585505
3713000000,-2.8624213
3714000000,-2.9031091
3715000000,-2.9075685
3716000000,-2.9067421
3717000000,-2.890064
3718000000,-2.9108706
3719000000,-2.903765
3720000000,-2.9304392
3721000000,-2.9011681
3722000000,-2.8909173
3723000000,-2.9342797
3724000000,-2.9343429
3725000000,-2.9233644
3726000000,-2.9228585
3727000000,-2.9291625
3728000000,-2.9494693
3729000000,-2.9423394
3730000000,-2.9607143
3731000000,-2.9691575
3732000000,-2.9732444
3733000000,-2.9699991
3734000000,-2.9675949
3735000000,-2.9543841
3736000000,-3.0017142
3737000000,-2.9541223
3738000000,-3.0059865
3739000000,-3.0016854
3740000000,-2.9667757
3741000000,-2.9594653
3742000000,-3.0013821
3743000000,-2.9892535
3744000000,-2.9812455
3745000000,-3.0308163
3746000000,-2.9894774
3747000000,-3.0189164
3748000000,-3.0198536
3749000000,-3.0209832
3750000000,-3.0442255
3751000000,-2.9916124
3752000000,-3.0221558
3753000000,-3.0435355
3754000000,-3.0355511
3755000000,-3.0385046
3756000000,-3.0401382
3757000000,-3.0302019
3758000000,-3.0679843
3759000000,-3.0680714
3760000000,-3.0521965
3761000000,-3.0746272
3762000000,-3.0702331
3763000000,-3.0701787
3764000000,-3.0668526
3765000000,-3.0694156
3766000000,-3.1033916
3767000000,-3.099915
3768000000,-3.1001494
3769000000,-3.1065991
3770000000,-3.0797799
3771000000,-3.1145685
3772000000,-3.1289349
3773000000,-3.1462362
3774000000,-3.1015902
3775000000,-3.1054895
3776000000,-3.1445227
3777000000,-3.1415222
3778000000,-3.1485209
3779000000,-3.178231
3780000000,-3.1595917
3781000000,-3.1697271
3782000000,-3.1555693
3783000000,-3.1478314
3784000000,-3.1821275
3785000000,-3.1414909
3786000000,-3.1573143
3787000000,-3.1246862
3788000000,-3.1512861
3789000000,-3.1726482
3790000000,-3.1853957
3791000000,-3.1918168
3792000000,-3.1968093
3793000000,-3.1813631
3794000000,-3.1835284
3795000000,-3.2034364
3796000000,-3.2101984
3797000000,-3.1943753
3798000000,-3.223954
3799000000,-3.2140408
3800000000,-3.2437901
3801000000,-3.2155128
3802000000,-3.2368305
3803000000,-3.2438972
3804000000,-3.2357681
3805000000,-3.2706501
3806000000,-3.2638495
3807000000,-3.2871497
3808000000,-3.2785087
3809000000,-3.2297385
3810000000,-3.2719672
3811000000,-3.2882242
3812000000,-3.3012066
3813000000,-3.2942543
3814000000,-3.331686
3815000000,-3.3094807
3816000000,-3.3176417
3817000000,-3.3133893
3818000000,-3.311636
3819000000,-3.318527
3820000000,-3.3021982
3821000000,-3.2891333
3822000000,-3.3226733
3823000000,-3.3310616
3824000000,-3.3539774
3825000000,-3.3432407
3826000000,-3.3199952
3827000000,-3.347033
3828000000,-3.3653119
3829000000,-3.3460705
3830000000,-3.359755
3831000000,-3.3634553
3832000000,-3.3814888
3833000000,-3.3741693
3834000000,-3.3459959
3835000000,-3.3782852
3836000000,-3.3753433
3837000000,-3.3707066
3838000000,-3.386795
3839000000,-3.3802731
3840000000,-3.4145548
3841000000,-3.4014144
3842000000,-3.4354708
3843000000,-3.4202476
3844000000,-3.4260826
3845000000,-3.4540992
3846000000,-3.4508846
3847000000,-3.4505482
3848000000,-3.4320579
3849000000,-3.4276874
3850000000,-3.4397781
3851000000,-3.4388347
3852000000,-3.4630802
3853000000,-3.4555757
3854000000,-3.4834251
3855000000,-3.462435
3856000000,-3.4664891
3857000000,-3.5040758
3858000000,-3.4801226
3859000000,-3.4886634
3860000000,-3.4939995
3861000000,-3.4853976
3862000000,-3.4816771
3863000000,-3.5209053
3864000000,-3.5410697
3865000000,-3.4720159
3866000000,-3.5150094
3867000000,-3.5305145
3868000000,-3.5301237
3869000000,-3.5428398
3870000000,-3.5345099
3871000000,-3.5764906
3872000000,-3.5658064
3873000000,-3.5796449
3874000000,-3.5564222
3875000000,-3.5522594
3876000000,-3.5734704
3877000000,-3.6056464
3878000000,-3.5491662
3879000000,-3.5782592
3880000000,-3.5689909
3881000000,-3.5842898
3882000000,-3.5942376
3883000000,-3.6292131
3884000000,-3.5996687
3885000000,-3.5945148
3886000000,-3.6187527
3887000000,-3.6276455
3888000000,-3.6439514
3889000000,-3.6266377
3890000000,-3.6124136
3891000000,-3.6311734
3892000000,-3.640367
3893000000,-3.6297181
3894000000,-3.6429043
3895000000,-3.674279
3896000000,-3.684232
3897000000,-3.6633914
3898000000,-3.667572
3899000000,-3.6739171
3900000000,-3.6728094
3901000000,-3.6759424
3902000000,-3.6902843
3903000000,-3.6971867
3904000000,-3.683471
3905000000,-3.7013102
3906000000,-3.7204833
3907000000,-3.707535
3908000000,-3.7214892
3909000000,-3.7656813
3910000000,-3.7358544
3911000000,-3.7337408
3912000000,-3.7308059
3913000000,-3.7276757
3914000000,-3.7776096
3915000000,-3.7763941
3916000000,-3.7747014
3917000000,-3.7646072
3918000000,-3.7806754
3919000000,-3.78334
3920000000,-3.7656066
3921000000,-3.8092384
3922000000,-3.7932534
3923000000,-3.8188536
3924000000,-3.8362224
3925000000,-3.8351321
3926000000,-3.8321469
3927000000,-3.8150456
3928000000,-3.8536942
3929000000,-3.8418076
3930000000,-3.8549027
3931000000,-3.8660479
3932000000,-3.8680761
3933000000,-3.8673823
3934000000,-3.8463657
3935000000,-3.8571815
3936000000,-3.878238
3937000000,-3.8545761
3938000000,-3.9139228
3939000000,-3.9197981
3940000000,-3.9004645
3941000000,-3.9235044
3942000000,-3.9272032
3943000000,-3.9163857
3944000000,-3.9042165
3945000000,-3.9230437
3946000000,-3.9357867
3947000000,-3.9436467
3948000000,-3.9484365
3949000000,-3.9320099
3950000000,-3.984781
3951000000,-3.9675453
3952000000,-3.9548051
3953000000,-4.0010877
3954000000,-4.0100079
3955000000,-4.0063362
3956000000,-4.0040827
3957000000,-3.9694812
3958000000,-4.0109272
3959000000,-4.0201554
3960000000,-4.0518627
3961000000,-4.0547428
3962000000,-4.0361586
3963000000,-4.0388851
3964000000,-4.0456915
3965000000,-4.0774903
3966000000,-4.025681
3967000000,-4.0518937
3968000000,-4.0670834
3969000000,-4.0827827
3970000000,-4.0469484
3971000000,-4.0708828
3972000000,-4.1121306
3973000000,-4.0969787
3974000000,-4.0829768
3975000000,-4.0940471
3976000000,-4.1386576
3977000000,-4.1209297
3978000000,-4.1204553
3979000000,-4.1324854
3980000000,-4.120347
3981000000,-4.1393065
3982000000,-4.1298113
3983000000,-4.1390309
3984000000,-4.1674242
3985000000,-4.1791463
3986000000,-4.1711187
3987000000,-4.2077026
3988000000,-4.181571
3989000000,-4.179225
3990000000,-4.2351484
3991000000,-4.208364
3992000000,-4.227777
3993000000,-4.2233405
3994000000,-4.2006545
3995000000,-4.2242112
3996000000,-4.224679
3997000000,-4.2596073
3998000000,-4.2462025
3999000000,-4.2828965
4000000000,-4.3008118
4001000000,-4.2430673
4002000000,-4.2655411
4003000000,-4.2901564
4004000000,-4.2821112
4005000000,-4.2876773
4006000000,-4.3402843
4007000000,-4.3088789
4008000000,-4.3061337
4009000000,-4.2942986
4010000000,-4.359838
4011000000,-4.3461704
4012000000,-4.3296332
4013000000,-4.3422017
4014000000,-4.3412461
4015000000,-4.3771162
4016000000,-4.3843622
4017000000,-4.3791628
4018000000,-4.3915672
4019000000,-4.3779283
4020000000,-4.4150276
4021000000,-4.3982964
4022000000,-4.3969579
4023000000,-4.409708
4024000000,-4.4319353
4025000000,-4.4232545
4026000000,-4.4173312
4027000000,-4.470613
4028000000,-4.4409947
4029000000,-4.419745
4030000000,-4.4482293
4031000000,-4.4481587
4032000000,-4.4737144
4033000000,-4.4453502
4034000000,-4.4774022
4035000000,-4.4821758
4036000000,-4.4558082
4037000000,-4.477345
4038000000,-4.5198441
4039000000,-4.5428295
4040000000,-4.5206017
4041000000,-4.5047131
4042000000,-4.5139012
4043000000,-4.5670495
4044000000,-4.5144801
4045000000,-4.5552464
4046000000,-4.5409174
4047000000,-4.5583062
4048000000,-4.58283
4049000000,-4.5881968
4050000000,-4.5892973
4051000000,-4.6045566
4052000000,-4.5714288
4053000000,-4.5879292
4054000000,-4.612258
4055000000,-4.6112938
4056000000,-4.6128926
4057000000,-4.6118798
4058000000,-4.6517043
4059000000,-4.6396303
4060000000,-4.6524334
4061000000,-4.6530967
4062000000,-4.6641645
4063000000,-4.6666441
4064000000,-4.6963758
4065000000,-4.6780343
4066000000,-4.7011647
4067000000,-4.6887302
4068000000,-4.6912184
4069000000,-4.7270713
4070000000,-4.710309
4071000000,-4.6997027
4072000000,-4.7220507
4073000000,-4.7501202
4074000000,-4.7148848
4075000000,-4.7562237
4076000000,-4.7725534
4077000000,-4.7429938
4078000000,-4.7537746
4079000000,-4.8119383
4080000000,-4.7844677
4081000000,-4.8065658
4082000000,-4.8046665
4083000000,-4.8369513
4084000000,-4.7782993
4085000000,-4.8445573
4086000000,-4.819653
4087000000,-4.8513722
4088000000,-4.8597937
4089000000,-4.8515911
4090000000,-4.8878498
4091000000,-4.8792887
4092000000,-4.872828
4093000000,-4.898839
4094000000,-4.8982086
4095000000,-4.8835855
4096000000,-4.9317932
4097000000,-4.9349775
4098000000,-4.9012694
4099000000,-4.9009924
4100000000,-4.9436426
4101000000,-4.929215
4102000000,-4.9395738
4103000000,-4.9987602
4104000000,-4.9736805
4105000000,-4.9551625
4106000000,-4.96597
4107000000,-4.9811959
4108000000,-4.982976
4109000000,-5.0207829
4110000000,-5.0419507
4111000000,-5.0302854
4112000000,-5.0404224
4113000000,-5.0165586
4114000000,-5.0220785
4115000000,-5.0221057
4116000000,-5.0434093
4117000000,-5.0539756
4118000000,-5.0954576
4119000000,-5.1076274
4120000000,-5.0862527
4121000000,-5.0902777
4122000000,-5.1001635
4123000000,-5.0936179
4124000000,-5.0936832
4125000000,-5.0980368
4126000000,-5.1195331
4127000000,-5.1396513
4128000000,-5.0983496
4129000000,-5.1415424
4130000000,-5.1408396
4131000000,-5.1532927
4132000000,-5.1494823
4133000000,-5.194212
4134000000,-5.1655059
4135000000,-5.1892872
4136000000,-5.2188177
4137000000,-5.212348
4138000000,-5.2434664
4139000000,-5.2260942
4140000000,-5.2060065
4141000000,-5.2341461
4142000000,-5.2395301
4143000000,-5.219388
4144000000,-5.2986465
4145000000,-5.2486157
4146000000,-5.2535424
4147000000,-5.2487559
4148000000,-5.3204741
4149000000,-5.2874084
4150000000,-5.290545
4151000000,-5.3110943
4152000000,-5.2947888
4153000000,-5.3201332
4154000000,-5.3420467
4155000000,-5.350884
4156000000,-5.3589735
4157000000,-5.3132286
4158000000,-5.3607922
4159000000,-5.3725781
4160000000,-5.3568134
4161000000,-5.3829389
4162000000,-5.3961926
4163000000,-5.4027758
4164000000,-5.4207335
4165000000,-5.4087882
4166000000,-5.4199815
4167000000,-5.4363074
4168000000,-5.445086
4169000000,-5.4489703
4170000000,-5.4521003
4171000000,-5.4440246
4172000000,-5.4950175
4173000000,-5.4982734
4174000000,-5.4762759
4175000000,-5.4805803
4176000000,-5.5214596
4177000000,-5.5030999
4178000000,-5.5128217
4179000000,-5.5210814
4180000000,-5.5388603
4181000000,-5.5135446
4182000000,-5.5039587
4183000000,-5.5170112
4184000000,-5.5381832
4185000000,-5.5853329
4186000000,-5.546371
4187000000,-5.5947385
4188000000,-5.5587821
4189000000,-5.5773778
4190000000,-5.5576386
4191000000,-5.5808344
4192000000,-5.6233497
4193000000,-5.581214
4194000000,-5.6207137
4195000000,-5.6233559
4196000000,-5.6361604
4197000000,-5.6523972
4198000000,-5.6729517
4199000000,-5.6872573
4200000000,-5.6641483
4201000000,-5.6829748
4202000000,-5.6893749
4203000000,-5.6788864
4204000000,-5.7008767
4205000000,-5.7034879
4206000000,-5.712657
4207000000,-5.7449121
4208000000,-5.7021508
4209000000,-5.7383375
4210000000,-5.7760487
4211000000,-5.7627487
4212000000,-5.7563949
4213000000,-5.7797751
4214000000,-5.7469869
4215000000,-5.767487
4216000000,-5.7716923
4217000000,-5.808847
4218000000,-5.7969728
4219000000,-5.8181882
4220000000,-5.837975
4221000000,-5.8115354
4222000000,-5.8407187
4223000000,-5.8569102
4224000000,-5.8346243
4225000000,-5.8616118
4226000000,-5.8731952
4227000000,-5.8511171
4228000000,-5.8625431
4229000000,-5.8986268
4230000000,-5.8614755
4231000000,-5.8944249
4232000000,-5.9036689
4233000000,-5.9010062
4234000000,-5.9119077
4235000000,-5.9390483
4236000000,-5.9207754
4237000000,-5.9232793
4238000000,-5.9321308
4239000000,-5.9320526
4240000000,-5.9884224
4241000000,-5.9548926
4242000000,-5.960258
4243000000,-6.0015726
4244000000,-5.9799662
4245000000,-5.9832458
4246000000,-6.001689
4247000000,-6.003675
4248000000,-6.0101748
4249000000,-6.0602846
4250000000,-6.0327835
4251000000,-6.0544343
4252000000,-6.0377216
4253000000,-6.0536642
4254000000,-6.0594664
4255000000,-6.0456648
4256000000,-6.0746112
4257000000,-6.0867457
4258000000,-6.0635715
4259000000,-6.0663686
4260000000,-6.1100941
4261000000,-6.1131725
4262000000,-6.1013551
4263000000,-6.1190681
4264000000,-6.0805979
4265000000,-6.0936484
4266000000,-6.1144476
4267000000,-6.1130266
4268000000,-6.1414266
4269000000,-6.1420655
4270000000,-6.161994
4271000000,-6.1348772
4272000000,-6.1687007
4273000000,-6.2013178
4274000000,-6.1839523
4275000000,-6.18609
4276000000,-6.186769
4277000000,-6.1919479
4278000000,-6.2016087
4279000000,-6.2293639
4280000000,-6.1909218
4281000000,-6.2134871
4282000000,-6.2476406
4283000000,-6.2440095
4284000000,-6.2518253
4285000000,-6.2383227
4286000000,-6.2732944
4287000000,-6.2647524
4288000000,-6.2573891
4289000000,-6.280437
4290000000,-6.2972841
4291000000,-6.2891507
4292000000,-6.3096685
4293000000,-6.3066421
4294000000,-6.3090844
4295000000,-6.3088379
4296000000,-6.3109698
4297000000,-6.3383145
4298000000,-6.3035955
4299000000,-6.3311892
4300000000,-6.3352833
4301000000,-6.3426752
4302000000,-6.3553915
4303000000,-6.3722243
4304000000,-6.3528514
4305000000,-6.3882852
4306000000,-6.3849721
4307000000,-6.3974819
4308000000,-6.3713732
4309000000,-6.3802586
4310000000,-6.4178395
4311000000,-6.412302
4312000000,-6.4209852
4313000000,-6.40733
4314000000,-6.4463611
4315000000,-6.4336462
4316000000,-6.4256611
4317000000,-6.4259963
4318000000,-6.4649734
4319000000,-6.4474239
4320000000,-6.4524884
4321000000,-6.463975
4322000000,-6.4701996
4323000000,-6.4598804
4324000000,-6.4774308
4325000000,-6.4526124
4326000000,-6.4999385
4327000000,-6.5009279
4328000000,-6.4874635
4329000000,-6.5300622
4330000000,-6.5373521
4331000000,-6.4713273
4332000000,-6.525444
4333000000,-6.5362597
4334000000,-6.5298963
4335000000,-6.5640206
4336000000,-6.5552125
4337000000,-6.5564713
4338000000,-6.5711765
4339000000,-6.5860033
4340000000,-6.5547686
4341000000,-6.5928626
4342000000,-6.5988898
4343000000,-6.6105738
4344000000,-6.6038871
4345000000,-6.5612559
4346000000,-6.5903912
4347000000,-6.591701
4348000000,-6.596015
4349000000,-6.6051016
4350000000,-6.6193686
4351000000,-6.632184
4352000000,-6.6125207
4353000000,-6.6413665
4354000000,-6.6177711
4355000000,-6.6337895
4356000000,-6.6384592
4357000000,-6.6429796
4358000000,-6.6781549
4359000000,-6.7154799
4360000000,-6.6644788
4361000000,-6.6875238
4362000000,-6.6828742
4363000000,-6.6664352
4364000000,-6.7306323
4365000000,-6.7103157
4366000000,-6.6975036
4367000000,-6.7243047
4368000000,-6.7195234
4369000000,-6.7162814
4370000000,-6.7413688
4371000000,-6.717061
4372000000,-6.7300854
4373000000,-6.7583823
4374000000,-6.7396111
4375000000,-6.7530766
4376000000,-6.7956905
4377000000,-6.7501984
4378000000,-6.7589731
4379000000,-6.7791719
4380000000,-6.7738547
4381000000,-6.7850833
4382000000,-6.7635093
4383000000,-6.7956748
4384000000,-6.8432913
4385000000,-6.8152394
4386000000,-6.8032503
4387000000,-6.8160181
4388000000,-6.8293395
4389000000,-6.8179331
4390000000,-6.8622055
4391000000,-6.8392806
4392000000,-6.8320255
4393000000,-6.8232388
4394000000,-6.8529963
4395000000,-6.8654375
4396000000,-6.8707175
4397000000,-6.866632
4398000000,-6.8597684
4399000000,-6.8590913
4400000000,-6.8693185
4401000000,-6.8941865
4402000000,-6.9208784
4403000000,-6.9067106
4404000000,-6.8822799
4405000000,-6.8943939
4406000000,-6.9023304
4407000000,-6.91892
4408000000,-6.9044514
4409000000,-6.9206824
4410000000,-6.9142065
4411000000,-6.9446063
4412000000,-6.9708476
4413000000,-6.9461317
4414000000,-6.9568558
4415000000,-6.979825
4416000000,-6.9677172
4417000000,-6.9820213
4418000000,-6.9668598
4419000000,-6.9776783
4420000000,-7.0107312
4421000000,-6.9740014
4422000000,-7.0112939
4423000000,-6.9963408
4424000000,-7.0017409
4425000000,-6.99475
4426000000,-7.0137053
4427000000,-7.0259953
4428000000,-7.0052266
4429000000,-7.0041447
4430000000,-7.0445323
4431000000,-7.040381
4432000000,-7.0271239
4433000000,-7.0486479
4434000000,-7.0456238
4435000000,-7.0625682
4436000000,-7.0648985
4437000000,-7.0896926
4438000000,-7.0402217
4439000000,-7.0538049
4440000000,-7.0675192
4441000000,-7.0599594
4442000000,-7.1154175
4443000000,-7.1125779
4444000000,-7.1284466
4445000000,-7.1085863
4446000000,-7.1149311
4447000000,-7.0902448
4448000000,-7.1118145
4449000000,-7.1533432
4450000000,-7.1493216
4451000000,-7.1251678
4452000000,-7.131495
4453000000,-7.1541524
4454000000,-7.1499786
4455000000,-7.1384611
4456000000,-7.1635299
4457000000,-7.1408744
4458000000,-7.1537228
4459000000,-7.1910057
4460000000,-7.1700125
4461000000,-7.1938272
4462000000,-7.2179451
4463000000,-7.188385
4464000000,-7.1946759
4465000000,-7.2012372
4466000000,-7.2238455
4467000000,-7.2292862
4468000000,-7.2296624
4469000000,-7.2208943
4470000000,-7.2414727
4471000000,-7.257709
4472000000,-7.2491059
4473000000,-7.2517939
4474000000,-7.2451944
4475000000,-7.265831
4476000000,-7.2711782
4477000000,-7.2763329
4478000000,-7.2699857
4479000000,-7.2814393
4480000000,-7.3191118
4481000000,-7.3185248
4482000000,-7.3108997
4483000000,-7.3331285
4484000000,-7.3295174
4485000000,-7.344923
4486000000,-7.3604341
4487000000,-7.3237624
4488000000,-7.333509
4489000000,-7.3443871
4490000000,-7.3501163
4491000000,-7.3377128
4492000000,-7.3835773
4493000000,-7.3805647
4494000000,-7.383924
4495000000,-7.4130335
4496000000,-7.392899
4497000000,-7.4016042
4498000000,-7.4079437
4499000000,-7.3982348
4500000000,-7.4427223
4501000000,-7.4209418
4502000000,-7.4531035
4503000000,-7.4443831
4504000000,-7.4864879
4505000000,-7.4813309
4506000000,-7.4743752
4507000000,-7.4785652
4508000000,-7.5029283
4509000000,-7.5158529
4510000000,-7.5230784
4511000000,-7.4963889
4512000000,-7.5212202
4513000000,-7.5205269
4514000000,-7.550386
4515000000,-7.5684471
4516000000,-7.5857692
4517000000,-7.5605445
4518000000,-7.5924101
4519000000,-7.6034498
4520000000,-7.5861034
4521000000,-7.6151276
4522000000,-7.6199198
4523000000,-7.6527553
4524000000,-7.6399336
4525000000,-7.6629014
4526000000,-7.684238
4527000000,-7.6901879
4528000000,-7.6527562
4529000000,-7.7170463
4530000000,-7.7318745
4531000000,-7.7251024
4532000000,-7.7258978
4533000000,-7.7467508
4534000000,-7.7768989
4535000000,-7.7739768
4536000000,-7.8138428
4537000000,-7.8209848
4538000000,-7.833169
4539000000,-7.8239532
4540000000,-7.853981
4541000000,-7.8425055
4542000000,-7.88028
4543000000,-7.8581667
4544000000,-7.9055295
4545000000,-7.9014039
4546000000,-7.8905039
4547000000,-7.9653792
4548000000,-7.9528031
4549000000,-7.966423
4550000000,-8.0004425
4551000000,-7.9707866
4552000000,-8.0051336
4553000000,-8.0350599
4554000000,-8.0549002
4555000000,-8.0549488
4556000000,-8.0955706
4557000000,-8.1132851
4558000000,-8.1326504
4559000000,-8.1667862
4560000000,-8.1411686
4561000000,-8.1738338
4562000000,-8.2296925
4563000000,-8.2463131
4564000000,-8.2617664
4565000000,-8.2914162
4566000000,-8.3117371
4567000000,-8.3170967
4568000000,-8.3457985
4569000000,-8.3721905
4570000000,-8.3885899
4571000000,-8.400692
4572000000,-8.4484291
4573000000,-8.4689465
4574000000,-8.4838877
4575000000,-8.5011806
4576000000,-8.5173693
4577000000,-8.5418653
4578000000,-8.5931396
4579000000,-8.5967674
4580000000,-8.6348658
4581000000,-8.6436567
4582000000,-8.660387
4583000000,-8.717495
4584000000,-8.7669849
4585000000,-8.7679319
4586000000,-8.8040409
4587000000,-8.8113041
4588000000,-8.8694429
4589000000,-8.8746595
4590000000,-8.9159317
4591000000,-8.9248934
4592000000,-8.9666243
4593000000,-8.982831
4594000000,-9.0612755
4595000000,-9.0742369
4596000000,-9.1271572
4597000000,-9.1249084
4598000000,-9.1778212
4599000000,-9.2212181
4600000000,-9.2592716
4601000000,-9.2692184
4602000000,-9.2926664
4603000000,-9.331192
4604000000,-9.3533602
4605000000,-9.4319534
4606000000,-9.47124
4607000000,-9.4907379
4608000000,-9.5007343
4609000000,-9.5840292
4610000000,-9.6484747
4611000000,-9.6591787
4612000000,-9.6721497
4613000000,-9.7425156
4614000000,-9.7463303
4615000000,-9.7704649
4616000000,-9.8430014
4617000000,-9.8991222
4618000000,-9.9604225
4619000000,-9.9719667
4620000000,-10.003827
4621000000,-10.041808
4622000000,-10.101678
4623000000,-10.126637
4624000000,-10.180593
4625000000,-10.216599
4626000000,-10.294244
4627000000,-10.348399
4628000000,-10.357942
4629000000,-10.441985
4630000000,-10.467042
4631000000,-10.526227
4632000000,-10.570516
4633000000,-10.618959
4634000000,-10.627279
4635000000,-10.700788
4636000000,-10.769013
4637000000,-10.810108
4638000000,-10.882011
4639000000,-10.979329
4640000000,-10.98472
4641000000,-11.038191
4642000000,-11.096312
4643000000,-11.150896
4644000000,-11.210303
4645000000,-11.253095
4646000000,-11.30969
4647000000,-11.363629
4648000000,-11.436235
4649000000,-11.461871
4650000000,-11.523058
4651000000,-11.594088
4652000000,-11.656915
4653000000,-11.722502
4654000000,-11.808238
4655000000,-11.826757
4656000000,-11.877066
4657000000,-11.919578
4658000000,-11.99771
4659000000,-12.041144
4660000000,-12.144602
4661000000,-12.171966
4662000000,-12.23791
4663000000,-12.292392
4664000000,-12.356022
4665000000,-12.436974
4666000000,-12.513258
4667000000,-12.565224
4668000000,-12.630589
4669000000,-12.689326
4670000000,-12.73087
4671000000,-12.818655
4672000000,-12.8893
4673000000,-12.949451
4674000000,-13.00542
4675000000,-13.087298
4676000000,-13.168196
4677000000,-13.219328
4678000000,-13.276548
4679000000,-13.410603
4680000000,-13.431127
4681000000,-13.486053
4682000000,-13.59634
4683000000,-13.629573
4684000000,-13.72687
4685000000,-13.808726
4686000000,-13.870855
4687000000,-13.9046
4688000000,-14.000855
4689000000,-14.087422
4690000000,-14.173983
4691000000,-14.237583
4692000000,-14.299157
4693000000,-14.386683
4694000000,-14.443301
4695000000,-14.525229
4696000000,-14.588101
4697000000,-14.647141
4698000000,-14.724984
4699000000,-14.796567
4700000000,-14.930455
4701000000,-15.017119
4702000000,-15.100313
4703000000,-15.132288
4704000000,-15.201433
4705000000,-15.281804
4706000000,-15.383687
4707000000,-15.467772
4708000000,-15.557223
4709000000,-15.638975
4710000000,-15.703935
4711000000,-15.781723
4712000000,-15.868254
4713000000,-15.958475
4714000000,-16.056711
4715000000,-16.121992
4716000000,-16.199892
4717000000,-16.280785
4718000000,-16.375444
4719000000,-16.451948
4720000000,-16.53471
4721000000,-16.617935
4722000000,-16.684248
4723000000,-16.796896
4724000000,-16.874989
4725000000,-16.96022
4726000000,-17.084602
4727000000,-17.153986
4728000000,-17.269629
4729000000,-17.347857
4730000000,-17.446426
4731000000,-17.52318
4732000000,-17.607145
4733000000,-17.703821
4734000000,-17.830252
4735000000,-17.878321
4736000000,-17.982084
4737000000,-18.070587
4738000000,-18.173792
4739000000,-18.256985
4740000000,-18.371155
4741000000,-18.471373
4742000000,-18.53064
4743000000,-18.648268
4744000000,-18.721109
4745000000,-18.844837
4746000000,-18.921549
4747000000,-19.04615
4748000000,-19.129009
4749000000,-19.225897
4750000000,-19.300377
4751000000,-19.421621
4752000000,-19.530775
4753000000,-19.610769
4754000000,-19.71954
4755000000,-19.759232
4756000000,-19.907988
4757000000,-19.984091
4758000000,-20.062565
4759000000,-20.178902
4760000000,-20.264395
4761000000,-20.365261
4762000000,-20.467464
4763000000,-20.531622
4764000000,-20.621735
4765000000,-20.723936
4766000000,-20.809385
4767000000,-20.903917
4768000000,-20.968624
4769000000,-21.067169
4770000000,-21.122843
4771000000,-21.232439
4772000000,-21.297432
4773000000,-21.404888
4774000000,-21.455769
4775000000,-21.557701
4776000000,-21.634403
4777000000,-21.657511
4778000000,-21.775421
4779000000,-21.818445
4780000000,-21.918055
4781000000,-21.971905
4782000000,-22.015371
4783000000,-22.055756
4784000000,-22.138271
4785000000,-22.177839
4786000000,-22.226358
4787000000,-22.286531
4788000000,-22.327816
4789000000,-22.353682
4790000000,-22.394674
4791000000,-22.445982
4792000000,-22.427757
4793000000,-22.47864
4794000000,-22.471823
4795000000,-22.540531
4796000000,-22.541973
4797000000,-22.563017
4798000000,-22.546896
4799000000,-22.549391
4800000000,-22.579411
4801000000,-22.535366
4802000000,-22.536608
4803000000,-22.497244
4804000000,-22.513023
4805000000,-22.477364
4806000000,-22.473024
4807000000,-22.424517
4808000000,-22.373793
4809000000,-22.354523
4810000000,-22.308266
4811000000,-22.287134
4812000000,-22.240992
4813000000,-22.214529
4814000000,-22.134604
4815000000,-22.05052
4816000000,-22.016687
4817000000,-21.983776
4818000000,-21.896938
4819000000,-21.839834
4820000000,-21.782461
4821000000,-21.681839
4822000000,-21.645348
4823000000,-21.567949
4824000000,-21.46529
4825000000,-21.387041
4826000000,-21.320105
4827000000,-21.230434
4828000000,-21.16725
4829000000,-21.076136
4830000000,-21.030203
4831000000,-20.912498
4832000000,-20.845144
4833000000,-20.76582
4834000000,-20.698837
4835000000,-20.591803
4836000000,-20.514338
4837000000,-20.416042
4838000000,-20.315639
4839000000,-20.247507
4840000000,-20.158573
4841000000,-20.066189
4842000000,-19.993185
4843000000,-19.873741
4844000000,-19.808319
4845000000,-19.686419
4846000000,-19.607819
4847000000,-19.53228
4848000000,-19.411982
4849000000,-19.344215
4850000000,-19.247726
4851000000,-19.144899
4852000000,-19.043104
4853000000,-18.971212
4854000000,-18.874615
4855000000,-18.798155
4856000000,-18.716259
4857000000,-18.614481
4858000000,-18.527637
4859000000,-18.428761
4860000000,-18.330618
4861000000,-18.280235
4862000000,-18.170618
4863000000,-18.117952
4864000000,-17.999475
4865000000,-17.92107
4866000000,-17.832142
4867000000,-17.754946
4868000000,-17.680288
4869000000,-17.596764
4870000000,-17.503527
4871000000,-17.41724
4872000000,-17.353289
4873000000,-17.260624
4874000000,-17.15947
4875000000,-17.093353
4876000000,-17.039265
4877000000,-16.930794
4878000000,-16.861113
4879000000,-16.816807
4880000000,-16.708752
4881000000,-16.666973
4882000000,-16.566143
4883000000,-16.444366
4884000000,-16.414312
4885000000,-16.337297
4886000000,-16.243231
4887000000,-16.184488
4888000000,-16.08629
4889000000,-15.980724
4890000000,-15.946045
4891000000,-15.882454
4892000000,-15.80516
4893000000,-15.719558
4894000000,-15.658051
4895000000,-15.592154
4896000000,-15.519948
4897000000,-15.44733
4898000000,-15.355178
4899000000,-15.290383
4900000000,-15.208407
4901000000,-15.174586
4902000000,-15.109402
4903000000,-15.021552
4904000000,-14.951745
4905000000,-14.896397
4906000000,-14.825483
4907000000,-14.75836
4908000000,-14.691234
4909000000,-14.618844
4910000000,-14.559593
4911000000,-14.495469
4912000000,-14.439713
4913000000,-14.381785
4914000000,-14.314535
4915000000,-14.265725
4916000000,-14.179307
4917000000,-14.10715
4918000000,-14.055774
4919000000,-13.970937
4920000000,-13.917708
4921000000,-13.871454
4922000000,-13.818411
4923000000,-13.732186
4924000000,-13.668777
4925000000,-13.625643
4926000000,-13.552896
4927000000,-13.486921
4928000000,-13.486468
4929000000,-13.414146
4930000000,-13.366142
4931000000,-13.293036
4932000000,-13.263902
4933000000,-13.142922
4934000000,-13.10807
4935000000,-13.025518
4936000000,-12.967234
4937000000,-12.960589
4938000000,-12.891563
4939000000,-12.82717
4940000000,-12.773619
4941000000,-12.747592
4942000000,-12.662701
4943000000,-12.628936
4944000000,-12.565979
4945000000,-12.519111
4946000000,-12.462212
4947000000,-12.403928
4948000000,-12.339769
4949000000,-12.323223
4950000000,-12.251976
4951000000,-12.203929
4952000000,-12.129227
4953000000,-12.103867
4954000000,-12.057796
4955000000,-11.999672
4956000000,-11.957825
4957000000,-11.902051
4958000000,-11.858968
4959000000,-11.80577
4960000000,-11.757935
4961000000,-11.684885
4962000000,-11.626872
4963000000,-11.599055
4964000000,-11.563458
4965000000,-11.500522
4966000000,-11.438562
4967000000,-11.419588
4968000000,-11.391929
4969000000,-11.304278
4970000000,-11.253464
4971000000,-11.227207
4972000000,-11.172565
4973000000,-11.135167
4974000000,-11.105039
4975000000,-11.052415
4976000000,-10.975616
4977000000,-10.956157
4978000000,-10.895259
4979000000,-10.875789
4980000000,-10.817055
4981000000,-10.756444
4982000000,-10.699404
4983000000,-10.685212
4984000000,-10.62541
4985000000,-10.571361
4986000000,-10.534752
4987000000,-10.51557
4988000000,-10.45417
4989000000,-10.409719
4990000000,-10.374809
4991000000,-10.307935
4992000000,-10.319069
4993000000,-10.250694
4994000000,-10.219713
4995000000,-10.148591
4996000000,-10.115266
4997000000,-10.118314
4998000000,-10.056098
4999000000,-10.017833
5000000000,-9.9650517
END,
