!CSV A.01.01
!Agilent Technologies,E8362C,MY49020225,A.09.42.22
!Agilent E8362C: A.09.42.22
!Date: Friday, March 04, 2016 13:40:04
!Source: Standard

BEGIN CH1_DATA
Freq(Hz),S11 Phase(°),S21 Phase(°)
1000000000,-78.45813,-154.69916
1001000000,-78.279053,-154.79616
1002000000,-78.985214,-155.0061
1003000000,-78.787361,-155.10805
1004000000,-79.277069,-155.34901
1005000000,-78.97406,-155.42992
1006000000,-79.183479,-155.57449
1007000000,-79.485268,-155.74161
1008000000,-80.052101,-155.94353
1009000000,-79.871552,-156.14255
1010000000,-79.886734,-156.08461
1011000000,-80.130493,-156.41716
1012000000,-80.28009,-156.64728
1013000000,-80.541176,-156.64967
1014000000,-80.447624,-156.93436
1015000000,-80.621223,-157.07161
1016000000,-80.426636,-157.22661
1017000000,-80.947624,-157.43013
1018000000,-81.243561,-157.38988
1019000000,-81.200233,-157.73294
1020000000,-81.436127,-157.63127
1021000000,-81.616631,-157.94339
1022000000,-81.233986,-158.02296
1023000000,-81.839188,-158.22197
1024000000,-81.941689,-158.27364
1025000000,-82.230621,-158.52052
1026000000,-82.309059,-158.6852
1027000000,-82.55146,-158.85455
1028000000,-82.324532,-159.07283
1029000000,-82.559517,-158.98308
1030000000,-82.950111,-159.24449
1031000000,-82.880424,-159.51614
1032000000,-83.087463,-159.60667
1033000000,-83.0662,-159.78358
1034000000,-83.45005,-160.12589
1035000000,-83.264671,-160.20557
1036000000,-83.320747,-160.1761
1037000000,-83.593277,-160.2849
1038000000,-83.686943,-160.48714
1039000000,-83.882103,-160.71179
1040000000,-83.74897,-160.8205
1041000000,-84.107521,-160.92404
1042000000,-84.191849,-161.08109
1043000000,-84.337318,-161.2934
1044000000,-84.293724,-161.37845
1045000000,-84.45314,-161.5872
1046000000,-84.890953,-161.81656
1047000000,-85.099625,-162.14505
1048000000,-85.172653,-162.19919
1049000000,-85.167496,-162.2254
1050000000,-85.155106,-162.26353
1051000000,-85.515305,-162.63789
1052000000,-85.754143,-162.7236
1053000000,-85.956985,-162.99051
1054000000,-86.110794,-162.80588
1055000000,-86.438049,-163.13132
1056000000,-86.512337,-163.36377
1057000000,-86.654434,-163.52917
1058000000,-86.532593,-163.71111
1059000000,-86.724899,-163.69258
1060000000,-86.981567,-163.79744
1061000000,-87.180122,-163.95898
1062000000,-86.943451,-164.01717
1063000000,-87.259079,-164.41881
1064000000,-87.720497,-164.61119
1065000000,-87.830551,-164.6637
1066000000,-87.840012,-164.67598
1067000000,-87.889191,-164.97795
1068000000,-87.843521,-164.93509
1069000000,-88.407623,-165.38484
1070000000,-88.336823,-165.38083
1071000000,-88.510826,-165.53351
1072000000,-88.446259,-165.63567
1073000000,-89.083847,-166.13126
1074000000,-88.929016,-165.83789
1075000000,-89.084167,-166.20975
1076000000,-89.149452,-166.23793
1077000000,-89.367874,-166.30081
1078000000,-89.679459,-166.59875
1079000000,-89.713455,-166.80128
1080000000,-89.71051,-166.929
1081000000,-90.120255,-167.22057
1082000000,-90.146431,-167.33507
1083000000,-90.448471,-167.39012
1084000000,-90.423851,-167.58218
1085000000,-90.762115,-167.85815
1086000000,-90.807175,-167.88248
1087000000,-90.944359,-167.99875
1088000000,-91.105843,-168.13992
1089000000,-91.15802,-168.19334
1090000000,-91.420181,-168.57915
1091000000,-91.524536,-168.55759
1092000000,-91.697662,-168.97307
1093000000,-92.004433,-168.89496
1094000000,-92.061058,-168.96075
1095000000,-92.254066,-169.28238
1096000000,-92.550499,-169.34746
1097000000,-92.732887,-169.73784
1098000000,-92.539055,-169.7646
1099000000,-92.920578,-169.71991
1100000000,-93.044571,-170.03172
1101000000,-93.369911,-170.2531
1102000000,-93.393349,-170.32306
1103000000,-93.509872,-170.58778
1104000000,-93.59079,-170.5995
1105000000,-93.806549,-170.79597
1106000000,-93.994621,-170.90385
1107000000,-94.107895,-171.1163
1108000000,-94.279655,-171.2334
1109000000,-94.480637,-171.46095
1110000000,-94.534645,-171.5007
1111000000,-94.627426,-171.6096
1112000000,-94.817924,-171.81239
1113000000,-95.114098,-172.00545
1114000000,-95.326492,-172.31841
1115000000,-95.236595,-172.3224
1116000000,-95.432838,-172.39464
1117000000,-95.632683,-172.72601
1118000000,-95.760361,-172.69698
1119000000,-95.846077,-172.89397
1120000000,-96.036964,-173.12331
1121000000,-96.203476,-173.18617
1122000000,-96.208458,-173.26012
1123000000,-96.660942,-173.53337
1124000000,-96.45179,-173.58289
1125000000,-96.797722,-173.8
1126000000,-96.802368,-173.82712
1127000000,-97.118698,-174.17572
1128000000,-97.290688,-174.09975
1129000000,-97.479942,-174.49142
1130000000,-97.584595,-174.66544
1131000000,-97.528328,-174.7375
1132000000,-97.970833,-174.9937
1133000000,-98.217102,-175.11311
1134000000,-98.232765,-175.3802
1135000000,-98.319214,-175.36816
1136000000,-98.57618,-175.56279
1137000000,-98.442368,-175.7747
1138000000,-98.741936,-175.88383
1139000000,-98.993584,-176.06601
1140000000,-99.181763,-176.07208
1141000000,-99.368889,-176.3968
1142000000,-99.328972,-176.61797
1143000000,-99.481789,-176.72813
1144000000,-99.748856,-176.80495
1145000000,-99.661461,-176.95436
1146000000,-99.962662,-177.21323
1147000000,-99.941956,-177.1496
1148000000,-100.18745,-177.53384
1149000000,-100.56176,-177.68538
1150000000,-100.5415,-177.75531
1151000000,-100.57825,-177.83223
1152000000,-100.82547,-177.97795
1153000000,-100.90803,-178.16422
1154000000,-101.09378,-178.28366
1155000000,-101.00214,-178.35507
1156000000,-101.37251,-178.6562
1157000000,-101.50126,-178.7849
1158000000,-101.53583,-178.84866
1159000000,-101.59004,-178.99431
1160000000,-101.85839,-179.06342
1161000000,-101.98229,-179.50385
1162000000,-102.04167,-179.52197
1163000000,-102.18745,-179.56154
1164000000,-102.43414,-179.81137
1165000000,-102.77341,179.86714
1166000000,-102.71114,179.88129
1167000000,-102.90134,179.63268
1168000000,-103.16857,179.45163
1169000000,-103.12775,179.53287
1170000000,-103.22302,179.19778
1171000000,-103.4094,179.06326
1172000000,-103.55078,179.01712
1173000000,-103.6908,178.87148
1174000000,-103.97122,178.62346
1175000000,-103.98608,178.64796
1176000000,-104.1131,178.44942
1177000000,-104.19946,178.21828
1178000000,-104.40816,178.21707
1179000000,-104.62443,177.88797
1180000000,-104.67088,177.82909
1181000000,-104.72013,177.69984
1182000000,-105.03235,177.52965
1183000000,-105.24099,177.30463
1184000000,-105.45397,177.21089
1185000000,-105.46411,176.95306
1186000000,-105.63705,176.85095
1187000000,-105.72692,176.84338
1188000000,-105.90284,176.53659
1189000000,-106.07936,176.27051
1190000000,-106.06006,176.23129
1191000000,-106.31603,176.00072
1192000000,-106.51482,175.91469
1193000000,-106.52469,175.81648
1194000000,-106.65525,175.6218
1195000000,-106.93757,175.36958
1196000000,-107.1132,175.32343
1197000000,-107.30159,175.20958
1198000000,-107.32996,175.11069
1199000000,-107.49606,174.80179
1200000000,-107.65013,174.61293
1201000000,-107.67986,174.52301
1202000000,-107.9072,174.29361
1203000000,-108.07901,174.25868
1204000000,-108.07721,174.15031
1205000000,-108.37768,173.89444
1206000000,-108.45037,173.89607
1207000000,-108.86547,173.57346
1208000000,-108.78503,173.3239
1209000000,-108.86234,173.36505
1210000000,-109.03211,173.13066
1211000000,-109.14824,173.12846
1212000000,-109.20827,172.8891
1213000000,-109.51695,172.69574
1214000000,-109.62807,172.68474
1215000000,-109.55675,172.52264
1216000000,-110.06635,172.16394
1217000000,-110.29362,172.01675
1218000000,-110.25488,172.03577
1219000000,-110.21214,172.05629
1220000000,-110.5195,171.80672
1221000000,-110.71364,171.49524
1222000000,-110.84203,171.39966
1223000000,-111.25538,171.20349
1224000000,-111.35058,170.89499
1225000000,-111.4191,170.72003
1226000000,-111.36113,170.86955
1227000000,-111.77495,170.44084
1228000000,-111.80126,170.39888
1229000000,-112.03147,170.24019
1230000000,-111.93866,170.22829
1231000000,-112.24754,170.23598
1232000000,-112.34414,169.89859
1233000000,-112.64922,169.63905
1234000000,-112.84135,169.38953
1235000000,-112.97209,169.50395
1236000000,-113.15285,169.25856
1237000000,-113.31069,169.01411
1238000000,-113.50544,168.8291
1239000000,-113.65048,168.61392
1240000000,-113.87482,168.50204
1241000000,-113.85989,168.42648
1242000000,-113.99622,168.2569
1243000000,-114.04481,168.2726
1244000000,-114.38852,167.7579
1245000000,-114.57559,167.67805
1246000000,-114.43588,167.87508
1247000000,-114.67795,167.42789
1248000000,-114.7133,167.55151
1249000000,-115.01476,167.32532
1250000000,-115.06673,167.18404
1251000000,-115.40964,167.02292
1252000000,-115.49101,166.82648
1253000000,-115.56143,166.68713
1254000000,-115.66043,166.58386
1255000000,-116.11886,166.37035
1256000000,-116.10688,166.23973
1257000000,-116.35343,166.10562
1258000000,-116.3448,165.93147
1259000000,-116.80031,165.79045
1260000000,-116.86929,165.46344
1261000000,-116.91238,165.45511
1262000000,-117.29063,165.20369
1263000000,-117.2042,165.22295
1264000000,-117.36479,165.01529
1265000000,-117.55418,164.80205
1266000000,-117.49477,165.05048
1267000000,-118.07743,164.3586
1268000000,-118.05105,164.44371
1269000000,-118.23111,164.23477
1270000000,-118.38685,163.94354
1271000000,-118.53004,163.88441
1272000000,-118.45335,163.9321
1273000000,-118.83793,163.56029
1274000000,-119.09723,163.34224
1275000000,-119.22318,163.16545
1276000000,-119.35338,162.9366
1277000000,-119.56837,162.93066
1278000000,-119.558,162.85724
1279000000,-119.77338,162.55164
1280000000,-119.66859,162.50885
1281000000,-120.1891,162.35182
1282000000,-120.03955,162.42766
1283000000,-120.37333,162.10423
1284000000,-120.44199,161.90302
1285000000,-120.73839,161.49651
1286000000,-120.74168,161.69344
1287000000,-120.93632,161.56271
1288000000,-121.07961,161.25813
1289000000,-121.2433,161.19884
1290000000,-121.49504,160.95645
1291000000,-121.56989,160.7843
1292000000,-121.7436,160.6398
1293000000,-121.77554,160.6059
1294000000,-121.79514,160.39665
1295000000,-121.95152,160.32814
1296000000,-122.23107,160.06361
1297000000,-122.1026,159.80969
1298000000,-122.35394,159.89441
1299000000,-122.83196,159.57758
1300000000,-122.83557,159.37137
1301000000,-122.93824,159.38536
1302000000,-123.12759,159.35422
1303000000,-123.17343,159.15442
1304000000,-123.4117,158.97745
1305000000,-123.36897,158.76454
1306000000,-123.95018,158.5103
1307000000,-123.81467,158.45465
1308000000,-123.99258,158.22293
1309000000,-124.12631,158.06705
1310000000,-124.15916,158.09923
1311000000,-124.31533,157.77191
1312000000,-124.36993,157.84839
1313000000,-124.67332,157.51033
1314000000,-124.95116,157.27359
1315000000,-125.09805,157.31067
1316000000,-125.09846,157.02058
1317000000,-125.43409,156.84483
1318000000,-125.49246,156.64346
1319000000,-125.61068,156.56187
1320000000,-125.75161,156.50858
1321000000,-126.1266,156.10397
1322000000,-126.06123,156.16927
1323000000,-126.39447,155.95755
1324000000,-126.4524,155.79039
1325000000,-126.48046,155.65717
1326000000,-126.71941,155.45944
1327000000,-126.80753,155.63159
1328000000,-126.9068,155.27484
1329000000,-127.03152,155.13593
1330000000,-127.16549,155.18593
1331000000,-127.4156,154.78497
1332000000,-127.34303,154.69716
1333000000,-127.64579,154.50438
1334000000,-127.81083,154.39893
1335000000,-127.97562,154.22023
1336000000,-128.21742,154.07968
1337000000,-128.39009,153.72929
1338000000,-128.30022,153.82069
1339000000,-128.54756,153.61621
1340000000,-128.71803,153.31915
1341000000,-128.78036,153.27824
1342000000,-128.98396,153.07034
1343000000,-129.32306,152.80504
1344000000,-129.23087,152.71614
1345000000,-129.26695,152.78212
1346000000,-129.72552,152.42159
1347000000,-129.50938,152.53244
1348000000,-129.89305,152.19586
1349000000,-130.15173,152.00682
1350000000,-130.0851,151.92212
1351000000,-130.22133,151.95293
1352000000,-130.51515,151.50606
1353000000,-130.49083,151.39328
1354000000,-130.85628,151.13036
1355000000,-130.82869,151.1694
1356000000,-131.27554,150.9388
1357000000,-131.12775,150.83586
1358000000,-131.44196,150.71278
1359000000,-131.44765,150.46948
1360000000,-131.56705,150.33372
1361000000,-131.75197,150.08049
1362000000,-132.05359,149.9471
1363000000,-132.09062,149.88847
1364000000,-132.50201,149.59703
1365000000,-132.16689,149.54933
1366000000,-132.52734,149.44188
1367000000,-132.68687,149.28154
1368000000,-132.78703,149.16707
1369000000,-132.763,148.98068
1370000000,-132.93999,148.83864
1371000000,-133.19789,148.69336
1372000000,-133.45053,148.53168
1373000000,-133.57246,148.39478
1374000000,-133.58803,148.26047
1375000000,-133.30321,148.28963
1376000000,-134.04237,147.79219
1377000000,-134.12657,147.86888
1378000000,-134.20647,147.64409
1379000000,-134.46257,147.36574
1380000000,-134.37331,147.55054
1381000000,-134.70355,147.21455
1382000000,-135.00998,146.93599
1383000000,-135.10411,146.9071
1384000000,-135.21288,146.64854
1385000000,-135.38193,146.58766
1386000000,-135.74541,146.43454
1387000000,-135.57568,146.18512
1388000000,-135.90962,146.01527
1389000000,-135.99229,145.91277
1390000000,-135.87283,145.72046
1391000000,-136.36342,145.4463
1392000000,-136.43053,145.4574
1393000000,-136.67796,145.22615
1394000000,-136.5466,145.1333
1395000000,-136.83118,144.85466
1396000000,-136.84282,144.85243
1397000000,-137.03938,144.66202
1398000000,-137.00067,144.79558
1399000000,-137.45711,144.35797
1400000000,-137.50954,144.29123
1401000000,-137.61995,144.14513
1402000000,-137.72568,143.87787
1403000000,-138.04309,143.83783
1404000000,-138.19287,143.60689
1405000000,-138.27785,143.55267
1406000000,-138.64148,143.32497
1407000000,-138.69402,143.14226
1408000000,-138.58374,142.99336
1409000000,-138.80501,142.7558
1410000000,-139.09439,142.70197
1411000000,-139.0045,142.5224
1412000000,-138.90523,142.49316
1413000000,-139.66478,142.11925
1414000000,-139.53662,142.05492
1415000000,-139.55334,142.0005
1416000000,-139.79742,141.73192
1417000000,-139.86687,141.63176
1418000000,-140.15416,141.57198
1419000000,-140.14493,141.44061
1420000000,-140.45589,141.14774
1421000000,-140.48453,141.05704
1422000000,-140.89676,140.89232
1423000000,-140.92284,140.71619
1424000000,-140.94214,140.72523
1425000000,-141.07207,140.51997
1426000000,-141.42946,140.34081
1427000000,-141.58154,140.11464
1428000000,-141.87973,139.83331
1429000000,-141.69913,139.96573
1430000000,-141.93303,139.59557
1431000000,-141.91959,139.53047
1432000000,-142.52672,139.29048
1433000000,-142.34386,139.15349
1434000000,-142.7867,139.02629
1435000000,-142.61066,138.87598
1436000000,-142.73676,138.85623
1437000000,-142.8979,138.64069
1438000000,-143.55423,138.23337
1439000000,-143.50069,138.19714
1440000000,-143.22354,138.29848
1441000000,-143.70447,137.88542
1442000000,-143.99638,137.65637
1443000000,-144.15977,137.60504
1444000000,-144.50938,137.39119
1445000000,-144.09732,137.36949
1446000000,-144.33708,137.28862
1447000000,-144.65399,137.03217
1448000000,-144.75182,136.88927
1449000000,-144.86798,136.90166
1450000000,-144.63284,136.67499
1451000000,-145.11589,136.46495
1452000000,-144.92511,136.45554
1453000000,-145.52509,136.13422
1454000000,-145.81221,135.98347
1455000000,-145.74648,135.84395
1456000000,-145.73495,135.78215
1457000000,-145.61252,135.58144
1458000000,-145.96739,135.5014
1459000000,-145.93536,135.28268
1460000000,-146.42383,135.14911
1461000000,-146.75623,134.6416
1462000000,-146.76501,134.62218
1463000000,-147.09396,134.37967
1464000000,-146.99579,134.55095
1465000000,-146.79166,134.39188
1466000000,-147.235,134.25574
1467000000,-147.21672,134.00757
1468000000,-147.52878,133.78691
1469000000,-147.94345,133.63493
1470000000,-148.02289,133.56406
1471000000,-148.56641,133.17847
1472000000,-148.22835,133.07378
1473000000,-148.37482,133.18713
1474000000,-148.29904,132.99326
1475000000,-148.81236,132.61127
1476000000,-149.3911,132.33565
1477000000,-148.95041,132.46533
1478000000,-148.66791,132.3295
1479000000,-149.18082,132.10432
1480000000,-149.30983,131.90775
1481000000,-149.54329,131.72778
1482000000,-149.63779,131.65776
1483000000,-150.22328,131.49741
1484000000,-149.67114,131.22913
1485000000,-150.26376,131.13528
1486000000,-150.28221,131.07295
1487000000,-150.44234,130.92609
1488000000,-150.39125,130.72365
1489000000,-150.71204,130.60457
1490000000,-150.88858,130.50656
1491000000,-150.85774,130.35263
1492000000,-151.02808,130.33417
1493000000,-151.03955,129.76459
1494000000,-151.47177,129.93169
1495000000,-151.60411,129.71309
1496000000,-151.70784,129.42474
1497000000,-151.96274,129.30078
1498000000,-151.94232,129.16643
1499000000,-151.70412,129.142
1500000000,-151.9012,129.07237
1501000000,-152.32719,128.6951
1502000000,-152.14769,128.76826
1503000000,-152.77077,128.30272
1504000000,-152.94246,128.29652
1505000000,-152.75816,128.17581
1506000000,-152.91658,127.99348
1507000000,-153.46838,127.74153
1508000000,-153.51552,127.74013
1509000000,-153.6956,127.43143
1510000000,-153.6208,127.33755
1511000000,-154.06918,127.18561
1512000000,-154.18951,127.1203
1513000000,-154.05208,126.9405
1514000000,-154.60457,126.64835
1515000000,-154.46266,126.71223
1516000000,-154.13152,126.66656
1517000000,-154.85471,126.29576
1518000000,-154.96991,126.29812
1519000000,-155.32315,125.84988
1520000000,-154.84729,125.9053
1521000000,-154.98822,125.73412
1522000000,-155.63123,125.52227
1523000000,-155.88751,125.29785
1524000000,-155.96806,125.07694
1525000000,-155.61873,125.14707
1526000000,-155.9673,124.81248
1527000000,-156.18712,124.83185
1528000000,-155.93732,124.67244
1529000000,-156.35225,124.25897
1530000000,-156.57452,124.21545
1531000000,-156.60841,124.27102
1532000000,-156.63744,124.08827
1533000000,-157.22537,123.61849
1534000000,-156.87723,123.76009
1535000000,-157.16399,123.46995
1536000000,-157.27019,123.38227
1537000000,-157.66127,123.04697
1538000000,-157.68976,123.12309
1539000000,-157.66879,122.88389
1540000000,-158.36246,122.71089
1541000000,-158.2205,122.60878
1542000000,-157.89241,122.5568
1543000000,-158.41148,122.29518
1544000000,-158.53008,122.07924
1545000000,-159.14972,121.76595
1546000000,-158.87036,121.92326
1547000000,-159.0269,121.69552
1548000000,-159.44846,121.43465
1549000000,-159.13219,121.33569
1550000000,-159.58755,121.31494
1551000000,-159.5307,121.01797
1552000000,-159.66762,120.91605
1553000000,-159.85959,120.81584
1554000000,-159.79842,120.74744
1555000000,-160.03952,120.51762
1556000000,-160.8703,120.27194
1557000000,-160.53278,120.12785
1558000000,-160.48233,120.033
1559000000,-160.98009,119.78767
1560000000,-161.0881,119.65692
1561000000,-160.86278,119.63435
1562000000,-161.40128,119.18059
1563000000,-161.46696,119.22032
1564000000,-161.29541,119.25065
1565000000,-161.81644,118.78144
1566000000,-161.45605,118.75202
1567000000,-161.72072,118.62801
1568000000,-161.85912,118.29738
1569000000,-162.20328,118.21111
1570000000,-162.92979,118.05495
1571000000,-162.4353,117.85582
1572000000,-162.48224,117.88653
1573000000,-162.75755,117.6721
1574000000,-163.04659,117.47622
1575000000,-162.97636,117.35883
1576000000,-163.33597,117.24012
1577000000,-163.92706,117.01267
1578000000,-163.75145,116.88153
1579000000,-163.69432,116.77312
1580000000,-163.74866,116.60387
1581000000,-163.83911,116.55159
1582000000,-163.89207,116.25522
1583000000,-164.6908,116.05153
1584000000,-164.98364,116.02302
1585000000,-164.59137,115.73735
1586000000,-165.00897,115.73937
1587000000,-164.63275,115.54892
1588000000,-165.32704,115.28331
1589000000,-165.32324,115.14669
1590000000,-165.73589,115.17326
1591000000,-165.17824,115.04826
1592000000,-165.12836,114.86411
1593000000,-165.48804,114.62967
1594000000,-165.7133,114.33784
1595000000,-165.67999,114.36681
1596000000,-166.13559,114.1217
1597000000,-166.45926,113.98241
1598000000,-166.44453,113.84654
1599000000,-165.95419,113.71169
1600000000,-167.05824,113.54607
1601000000,-166.89259,113.26941
1602000000,-167.37741,113.1412
1603000000,-166.86154,113.05947
1604000000,-167.49147,112.86805
1605000000,-167.37531,112.79179
1606000000,-167.50256,112.51259
1607000000,-167.49792,112.55935
1608000000,-168.04008,112.42566
1609000000,-168.48779,112.08173
1610000000,-168.65173,111.83521
1611000000,-168.59914,111.70306
1612000000,-168.71376,111.70111
1613000000,-168.47804,111.50152
1614000000,-168.79015,111.24914
1615000000,-168.71378,111.35963
1616000000,-169.6474,111.07722
1617000000,-168.93513,110.76009
1618000000,-168.94691,110.68057
1619000000,-170.05667,110.72502
1620000000,-169.42044,110.54289
1621000000,-169.72174,110.27966
1622000000,-169.91183,110.15733
1623000000,-169.93898,109.84389
1624000000,-170.90141,109.67402
1625000000,-170.72836,109.66079
1626000000,-170.62218,109.54139
1627000000,-170.20207,109.29359
1628000000,-171.26379,109.11098
1629000000,-170.72928,109.0143
1630000000,-170.28194,108.97276
1631000000,-170.85205,108.62635
1632000000,-171.59019,108.5394
1633000000,-170.98531,108.53252
1634000000,-171.5527,108.17004
1635000000,-171.94057,108.10348
1636000000,-172.55594,108.07536
1637000000,-172.22462,107.565
1638000000,-171.99947,107.56363
1639000000,-172.39238,107.33379
1640000000,-172.39569,107.40708
1641000000,-172.3792,107.00163
1642000000,-171.60027,106.82105
1643000000,-172.76755,106.81895
1644000000,-172.51822,106.84518
1645000000,-173.17743,106.39157
1646000000,-172.98148,106.36069
1647000000,-172.28419,106.25635
1648000000,-172.14223,106.0806
1649000000,-173.32384,105.88156
1650000000,-173.75706,105.84727
1651000000,-173.44037,105.5515
1652000000,-174.43964,105.41032
1653000000,-173.59941,105.31454
1654000000,-173.73787,105.10408
1655000000,-174.86617,104.94067
1656000000,-174.81828,104.72377
1657000000,-173.8465,104.74631
1658000000,-173.83859,104.41035
1659000000,-174.44638,104.52348
1660000000,-175.32167,104.14147
1661000000,-175.6144,103.91683
1662000000,-175.04794,103.85736
1663000000,-175.59439,103.64256
1664000000,-175.97742,103.6436
1665000000,-175.02249,103.40571
1666000000,-175.05577,103.24101
1667000000,-175.68661,103.08883
1668000000,-175.73418,103.19233
1669000000,-175.12598,102.78312
1670000000,-177.38968,102.63663
1671000000,-176.42943,102.57118
1672000000,-176.14217,102.40871
1673000000,-176.72871,102.14581
1674000000,-177.04735,101.92782
1675000000,-176.66939,101.78569
1676000000,-175.44691,101.79752
1677000000,-175.72166,101.72645
1678000000,-176.59618,101.36629
1679000000,-177.17207,101.28093
1680000000,-177.4037,101.04149
1681000000,-176.06966,100.96648
1682000000,-176.78056,100.51873
1683000000,-177.44493,100.60055
1684000000,-178.2196,100.57169
1685000000,-177.06436,100.20385
1686000000,-177.47392,100.15049
1687000000,-176.96449,100.0946
1688000000,-177.18768,99.732391
1689000000,-177.05396,99.713226
1690000000,-177.25809,99.501839
1691000000,-177.06213,99.285561
1692000000,-177.36086,99.139473
1693000000,-178.90756,98.949776
1694000000,-176.79144,98.979195
1695000000,-176.7059,98.695335
1696000000,-178.72755,98.554039
1697000000,-178.8546,98.372154
1698000000,-176.94081,98.236603
1699000000,-178.26439,98.142578
1700000000,-178.58101,97.889641
1701000000,-178.36362,97.775032
1702000000,-178.26175,97.568581
1703000000,-179.08067,97.33213
1704000000,179.75653,97.203705
1705000000,-177.2834,97.201279
1706000000,-178.93446,96.954971
1707000000,-179.07304,96.899078
1708000000,-178.60144,96.601418
1709000000,-178.51822,96.726044
1710000000,-178.51852,96.561752
1711000000,-179.55496,96.300293
1712000000,-179.15955,96.177345
1713000000,-178.7178,95.805298
1714000000,-178.89566,95.763779
1715000000,-179.22191,95.627449
1716000000,-177.28909,95.445686
1717000000,-178.18823,95.302757
1718000000,-177.35854,95.244797
1719000000,-178.2527,94.970657
1720000000,-179.29216,94.703575
1721000000,-178.65346,94.843323
1722000000,-179.31877,94.379135
1723000000,-179.42456,94.323006
1724000000,-179.097,94.166138
1725000000,-178.60863,94.130753
1726000000,-179.35591,93.990257
1727000000,-177.98093,93.765442
1728000000,-178.0428,93.562401
1729000000,-178.12282,93.38147
1730000000,-177.28583,93.360481
1731000000,-177.98003,93.250809
1732000000,-178.61766,92.961136
1733000000,-177.64555,92.938469
1734000000,-177.22789,92.743935
1735000000,-176.30179,92.503479
1736000000,-178.80937,92.139343
1737000000,-178.39693,92.071503
1738000000,-177.1862,92.013977
1739000000,-177.43402,91.855278
1740000000,-176.38654,91.632278
1741000000,-174.4594,91.636452
1742000000,-175.81781,91.404694
1743000000,-173.21738,91.202011
1744000000,-176.93959,91.022751
1745000000,-177.80667,90.919441
1746000000,-175.12213,90.697006
1747000000,-176.85097,90.555389
1748000000,-177.04854,90.398666
1749000000,-176.431,90.354759
1750000000,-174.90361,90.29924
1751000000,-178.2747,90.141769
1752000000,-171.81073,89.990211
1753000000,-173.64577,89.759087
1754000000,-173.94638,89.526131
1755000000,-173.2112,89.385628
1756000000,-173.82927,89.17482
1757000000,-172.24599,89.081001
1758000000,-168.5743,88.963814
1759000000,-171.69196,88.734283
1760000000,-170.58299,88.50293
1761000000,-166.22037,88.423767
1762000000,-163.45255,88.249054
1763000000,-164.70654,88.156471
1764000000,-161.75031,88.14637
1765000000,-162.42674,87.918213
1766000000,-164.12718,87.746048
1767000000,-158.81129,87.313988
1768000000,-159.37054,87.450058
1769000000,-154.23157,87.20916
1770000000,-152.98988,87.011047
1771000000,-152.84291,87.024101
1772000000,-148.67169,86.655983
1773000000,-151.57649,86.803062
1774000000,-147.82756,86.507561
1775000000,-143.80719,86.414032
1776000000,-140.88834,86.01564
1777000000,-138.22278,85.813446
1778000000,-134.1564,85.803963
1779000000,-133.7825,85.678154
1780000000,-124.41312,85.629433
1781000000,-127.56599,85.410889
1782000000,-121.13625,84.960968
1783000000,-115.98447,85.156227
1784000000,-113.20231,84.859306
1785000000,-107.1151,84.823364
1786000000,-99.146667,84.475578
1787000000,-101.01874,84.46209
1788000000,-103.51229,84.129951
1789000000,-90.568459,84.263535
1790000000,-86.691833,84.036514
1791000000,-87.877365,83.751015
1792000000,-82.207535,83.591736
1793000000,-80.858086,83.531151
1794000000,-82.55275,83.438156
1795000000,-72.411507,83.108978
1796000000,-66.970146,82.945122
1797000000,-72.828476,83.06794
1798000000,-70.11969,82.942978
1799000000,-72.879807,82.554604
1800000000,-66.395676,82.467583
1801000000,-58.86417,82.406517
1802000000,-61.915359,82.135246
1803000000,-60.488354,81.901588
1804000000,-60.300461,81.725677
1805000000,-58.530247,81.539253
1806000000,-58.866718,81.490746
1807000000,-56.667278,81.238907
1808000000,-56.543842,81.18428
1809000000,-57.496048,80.847313
1810000000,-54.99691,80.788177
1811000000,-53.021805,80.626923
1812000000,-53.88456,80.408646
1813000000,-51.303654,80.330856
1814000000,-53.288605,80.398148
1815000000,-51.173229,80.096481
1816000000,-49.769989,79.869095
1817000000,-54.296455,79.920776
1818000000,-48.159687,79.4701
1819000000,-51.145321,79.543823
1820000000,-49.668911,79.300491
1821000000,-48.022171,79.043938
1822000000,-48.109928,78.987579
1823000000,-49.430511,78.883255
1824000000,-48.91597,78.761353
1825000000,-50.351227,78.314659
1826000000,-48.456043,78.532509
1827000000,-50.563927,78.425018
1828000000,-46.741791,77.867355
1829000000,-48.079895,77.938614
1830000000,-47.912697,77.651321
1831000000,-46.310394,77.532913
1832000000,-49.217148,77.426399
1833000000,-46.583916,77.354362
1834000000,-44.652554,77.0811
1835000000,-47.302727,76.908127
1836000000,-45.58091,76.821205
1837000000,-45.260422,76.708618
1838000000,-46.151054,76.600533
1839000000,-45.053143,76.352676
1840000000,-45.864628,76.077522
1841000000,-45.866478,76.124657
1842000000,-44.503765,75.977325
1843000000,-46.377064,75.723251
1844000000,-47.010551,75.410622
1845000000,-46.653831,75.365463
1846000000,-44.781345,75.391479
1847000000,-45.218216,75.080826
1848000000,-46.134632,74.933136
1849000000,-45.818848,74.904129
1850000000,-45.17918,74.621567
1851000000,-46.597485,74.516907
1852000000,-46.937103,74.466476
1853000000,-45.318424,74.253433
1854000000,-44.68647,74.144798
1855000000,-46.454365,73.844719
1856000000,-47.140831,73.583374
1857000000,-46.981113,73.78714
1858000000,-45.735264,73.462158
1859000000,-46.694679,73.474915
1860000000,-46.755962,73.186424
1861000000,-46.485519,72.958992
1862000000,-45.229282,72.816933
1863000000,-46.592228,72.656303
1864000000,-47.04211,72.57621
1865000000,-45.643829,72.423973
1866000000,-46.317287,72.223763
1867000000,-46.223606,72.033188
1868000000,-46.800755,71.857147
1869000000,-47.321114,71.662628
1870000000,-46.649094,71.603897
1871000000,-46.569035,71.291588
1872000000,-47.867607,71.195724
1873000000,-47.405022,71.131744
1874000000,-46.205723,71.041466
1875000000,-47.506645,70.734367
1876000000,-47.306202,70.633286
1877000000,-47.945557,70.50647
1878000000,-47.876034,70.28418
1879000000,-47.6991,70.148071
1880000000,-47.265518,70.056786
1881000000,-47.867516,69.839256
1882000000,-48.366344,69.58828
1883000000,-48.24155,69.431503
1884000000,-48.103645,69.430206
1885000000,-48.27454,69.313026
1886000000,-48.472523,69.076927
1887000000,-48.33543,68.758163
1888000000,-47.710274,68.76561
1889000000,-48.11937,68.480858
1890000000,-48.842239,68.487228
1891000000,-49.081623,68.319847
1892000000,-48.108238,68.13768
1893000000,-48.370239,67.965965
1894000000,-48.879253,67.746124
1895000000,-49.382587,67.750114
1896000000,-48.878307,67.436325
1897000000,-48.436096,67.350227
1898000000,-49.482792,67.223633
1899000000,-49.174511,67.196251
1900000000,-49.5336,66.876709
1901000000,-50.005291,66.750641
1902000000,-49.914989,66.661385
1903000000,-51.252369,66.406738
1904000000,-49.8997,66.317657
1905000000,-49.938339,66.219383
1906000000,-50.425827,65.830391
1907000000,-50.826935,65.968163
1908000000,-50.591965,65.506348
1909000000,-50.681076,65.640022
1910000000,-51.392815,65.315285
1911000000,-50.703957,65.204674
1912000000,-51.1432,65.020615
1913000000,-51.554974,64.83152
1914000000,-51.633713,64.728088
1915000000,-51.825394,64.483932
1916000000,-51.938393,64.327026
1917000000,-51.399632,64.337135
1918000000,-51.937649,64.020294
1919000000,-52.446327,63.824348
1920000000,-53.649014,63.86977
1921000000,-51.792084,63.609955
1922000000,-52.954697,63.430145
1923000000,-52.828312,63.359142
1924000000,-52.042549,63.207649
1925000000,-53.247631,62.96505
1926000000,-53.802376,62.975159
1927000000,-53.449215,62.781284
1928000000,-53.004623,62.703377
1929000000,-54.686951,62.305832
1930000000,-54.350193,62.209198
1931000000,-53.729568,62.023911
1932000000,-54.000622,61.836655
1933000000,-53.601841,61.756775
1934000000,-55.048737,61.646893
1935000000,-55.625668,61.61628
1936000000,-54.916817,61.231457
1937000000,-54.436142,61.141792
1938000000,-54.464268,61.220467
1939000000,-55.072922,60.778263
1940000000,-54.694813,60.647697
1941000000,-55.65517,60.689995
1942000000,-55.390503,60.370136
1943000000,-55.262501,60.147739
1944000000,-56.505825,60.089573
1945000000,-55.639545,59.700691
1946000000,-56.480228,59.719227
1947000000,-56.521286,59.705357
1948000000,-56.420464,59.525528
1949000000,-56.844704,59.30497
1950000000,-56.800034,58.999142
1951000000,-56.792366,59.122417
1952000000,-56.441044,58.916405
1953000000,-56.967941,58.825577
1954000000,-57.31522,58.408344
1955000000,-56.619862,58.357098
1956000000,-57.936405,57.985641
1957000000,-58.097462,57.968014
1958000000,-57.800476,57.896954
1959000000,-57.513664,57.722927
1960000000,-57.97673,57.62492
1961000000,-58.72501,57.526463
1962000000,-57.562061,57.51524
1963000000,-58.364902,57.141029
1964000000,-59.131927,56.983109
1965000000,-59.305523,56.747658
1966000000,-59.164078,56.884499
1967000000,-58.956623,56.443569
1968000000,-58.875679,56.264618
1969000000,-59.668629,56.193775
1970000000,-59.720669,56.179356
1971000000,-60.00552,55.969032
1972000000,-60.668854,55.556866
1973000000,-60.459164,55.463715
1974000000,-60.471615,55.458714
1975000000,-60.58852,55.360241
1976000000,-60.596806,55.192505
1977000000,-61.394241,54.923599
1978000000,-61.1134,54.502258
1979000000,-61.666985,54.605793
1980000000,-61.834019,54.416553
1981000000,-61.95311,54.288544
1982000000,-62.215916,54.15036
1983000000,-62.283218,53.890686
1984000000,-62.482891,53.829746
1985000000,-62.174236,53.783531
1986000000,-62.501499,53.554539
1987000000,-63.454372,53.29652
1988000000,-63.596123,53.235828
1989000000,-63.135269,53.078007
1990000000,-63.357586,52.93161
1991000000,-63.121288,52.823257
1992000000,-63.161343,52.609329
1993000000,-63.427242,52.477081
1994000000,-64.297203,52.254803
1995000000,-63.325043,52.207127
1996000000,-63.910103,51.973591
1997000000,-63.904903,51.859608
1998000000,-64.664169,51.753468
1999000000,-65.108047,51.51107
2000000000,-65.420746,51.341709
2001000000,-65.20713,51.296486
2002000000,-65.368309,51.092937
2003000000,-64.817566,50.977093
2004000000,-65.420631,50.733032
2005000000,-65.850929,50.610332
2006000000,-65.994514,50.442604
2007000000,-66.211571,50.203945
2008000000,-65.698067,50.082256
2009000000,-66.389839,49.880688
2010000000,-66.408875,49.886612
2011000000,-66.68351,49.679222
2012000000,-67.029861,49.402142
2013000000,-66.395195,49.440144
2014000000,-66.860863,49.073608
2015000000,-67.500137,49.071388
2016000000,-67.021599,48.988674
2017000000,-67.666115,48.932972
2018000000,-67.364349,48.624615
2019000000,-68.256485,48.3936
2020000000,-68.611595,48.210773
2021000000,-68.420555,47.981743
2022000000,-68.43644,47.997742
2023000000,-68.899879,47.838928
2024000000,-68.443443,47.836994
2025000000,-69.173523,47.390617
2026000000,-68.917976,47.374275
2027000000,-70.093613,46.992336
2028000000,-69.356026,46.849701
2029000000,-69.534683,46.912098
2030000000,-69.7714,46.896732
2031000000,-69.974922,46.559895
2032000000,-70.252472,46.402328
2033000000,-70.173607,46.460407
2034000000,-70.677895,46.194168
2035000000,-70.822296,46.088799
2036000000,-70.630241,45.818321
2037000000,-70.807487,45.773136
2038000000,-71.7854,45.424267
2039000000,-71.418633,45.274559
2040000000,-71.181953,45.093605
2041000000,-71.840378,44.927551
2042000000,-71.688911,44.801292
2043000000,-72.156548,44.720966
2044000000,-71.760971,44.514633
2045000000,-72.411995,44.31459
2046000000,-71.992134,44.344624
2047000000,-72.809723,44.187157
2048000000,-72.798988,44.133343
2049000000,-73.369469,43.690842
2050000000,-73.003784,43.654491
2051000000,-73.307549,43.669239
2052000000,-72.825035,43.527821
2053000000,-73.589325,43.139675
2054000000,-73.835762,43.017529
2055000000,-74.198936,43.066845
2056000000,-73.798164,42.882027
2057000000,-74.57267,42.489227
2058000000,-74.202957,42.419357
2059000000,-74.687843,42.260094
2060000000,-75.082245,42.019463
2061000000,-75.149178,41.923462
2062000000,-75.085274,41.765568
2063000000,-75.813057,41.634697
2064000000,-75.427383,41.642715
2065000000,-75.625931,41.440201
2066000000,-75.887108,41.189888
2067000000,-76.022453,41.008205
2068000000,-75.608627,40.983841
2069000000,-76.158142,40.895599
2070000000,-76.534462,40.492916
2071000000,-76.906456,40.309071
2072000000,-76.953445,40.350159
2073000000,-77.505287,39.926037
2074000000,-76.965561,39.951347
2075000000,-77.495522,39.805576
2076000000,-77.405632,39.776951
2077000000,-77.59436,39.644234
2078000000,-77.662476,39.592293
2079000000,-78.54068,39.055943
2080000000,-78.417183,39.123882
2081000000,-78.660019,38.952129
2082000000,-79.092491,38.625942
2083000000,-79.158394,38.552345
2084000000,-79.395409,38.404327
2085000000,-78.767418,38.43634
2086000000,-79.620583,38.148815
2087000000,-79.445992,37.990993
2088000000,-79.231827,38.008404
2089000000,-80.031303,37.575665
2090000000,-80.349571,37.706165
2091000000,-80.842056,37.231152
2092000000,-81.257095,37.261002
2093000000,-80.283188,37.240246
2094000000,-80.815819,36.710781
2095000000,-81.23391,36.789303
2096000000,-81.482521,36.555553
2097000000,-81.146278,36.625072
2098000000,-82.364914,36.34367
2099000000,-81.853127,36.287239
2100000000,-82.123016,35.793678
2101000000,-82.229019,35.905773
2102000000,-82.331139,35.713955
2103000000,-82.904373,35.443913
2104000000,-82.891655,35.447208
2105000000,-83.366096,35.174625
2106000000,-83.523239,35.122005
2107000000,-83.255432,35.061646
2108000000,-83.385742,34.801018
2109000000,-83.720543,34.58168
2110000000,-84.04908,34.539951
2111000000,-84.051224,34.277718
2112000000,-84.248863,34.217518
2113000000,-84.516182,33.947712
2114000000,-85.145439,33.657024
2115000000,-84.474663,33.787159
2116000000,-85.230507,33.476116
2117000000,-85.278145,33.330509
2118000000,-85.428947,33.091587
2119000000,-85.353737,33.020927
2120000000,-85.915916,32.987118
2121000000,-86.019699,32.754833
2122000000,-86.105728,32.575382
2123000000,-86.447975,32.458473
2124000000,-86.826401,32.300144
2125000000,-86.713333,32.203865
2126000000,-87.184746,31.900967
2127000000,-87.112053,31.95253
2128000000,-87.562988,31.721493
2129000000,-87.278008,31.617472
2130000000,-87.930931,31.342041
2131000000,-87.948624,31.247747
2132000000,-88.617691,30.882967
2133000000,-88.536751,30.978006
2134000000,-88.818161,30.807005
2135000000,-88.862854,30.55381
2136000000,-88.755051,30.607048
2137000000,-89.154282,30.458666
2138000000,-89.271317,30.209476
2139000000,-89.78949,29.933376
2140000000,-90.00576,29.721279
2141000000,-90.04567,29.769592
2142000000,-90.589264,29.241447
2143000000,-90.309982,29.244339
2144000000,-90.651253,29.331244
2145000000,-90.578369,29.25617
2146000000,-91.130737,28.831127
2147000000,-90.84848,28.900494
2148000000,-91.529091,28.60161
2149000000,-91.553482,28.491205
2150000000,-91.24913,28.272264
2151000000,-91.830093,28.251646
2152000000,-91.700241,28.300222
2153000000,-92.312508,27.74786
2154000000,-92.375053,27.740095
2155000000,-92.967964,27.622604
2156000000,-92.19426,27.52667
2157000000,-92.888466,27.379887
2158000000,-92.933846,27.147446
2159000000,-93.797462,26.694239
2160000000,-93.801392,26.50178
2161000000,-93.746475,26.579872
2162000000,-93.953896,26.503059
2163000000,-94.497398,26.201548
2164000000,-94.425957,26.255033
2165000000,-94.443741,26.053062
2166000000,-94.939064,25.816027
2167000000,-95.167877,25.645447
2168000000,-94.94812,25.692268
2169000000,-95.43528,25.5364
2170000000,-95.607277,25.301439
2171000000,-95.983185,25.042139
2172000000,-96.282196,24.859531
2173000000,-96.181694,24.738384
2174000000,-96.369118,24.62524
2175000000,-96.930176,24.360592
2176000000,-97.20787,24.249388
2177000000,-96.983086,24.061728
2178000000,-97.191704,23.969843
2179000000,-97.493362,23.938559
2180000000,-97.294632,23.752705
2181000000,-98.197342,23.490238
2182000000,-98.406342,23.300444
2183000000,-98.525108,23.222116
2184000000,-98.651733,23.172565
2185000000,-98.722633,22.823156
2186000000,-98.958092,22.746044
2187000000,-98.787308,22.756573
2188000000,-99.513275,22.417942
2189000000,-99.449883,22.450752
2190000000,-99.177116,22.415403
2191000000,-100.24178,21.943129
2192000000,-100.62336,21.761641
2193000000,-100.63655,21.581602
2194000000,-100.66838,21.607904
2195000000,-100.81684,21.36228
2196000000,-101.07714,21.254835
2197000000,-101.40152,21.130737
2198000000,-101.77547,20.765079
2199000000,-101.95112,20.789167
2200000000,-101.89093,20.711317
2201000000,-102.69039,20.341747
2202000000,-102.94185,20.23369
2203000000,-102.92997,20.203075
2204000000,-102.90659,20.029604
2205000000,-103.59984,19.826468
2206000000,-103.34338,19.814741
2207000000,-103.54404,19.53224
2208000000,-103.99355,19.479778
2209000000,-104.19628,19.114889
2210000000,-104.36694,19.058323
2211000000,-104.88688,18.89633
2212000000,-104.68839,18.776041
2213000000,-104.66299,18.631941
2214000000,-105.1315,18.402649
2215000000,-105.86656,18.116938
2216000000,-105.50542,18.140636
2217000000,-105.4185,18.138462
2218000000,-105.17149,18.17482
2219000000,-106.42465,17.633364
2220000000,-106.682,17.639938
2221000000,-105.89826,17.605375
2222000000,-106.98374,17.182217
2223000000,-106.40488,17.068026
2224000000,-106.85981,16.94735
2225000000,-107.28979,16.613846
2226000000,-107.55972,16.619205
2227000000,-107.91773,16.400948
2228000000,-108.118,16.294159
2229000000,-107.50027,16.37587
2230000000,-108.40896,15.862967
2231000000,-108.72878,15.771895
2232000000,-109.00468,15.700807
2233000000,-108.56775,15.690887
2234000000,-109.73519,15.27885
2235000000,-109.81662,15.212568
2236000000,-110.00143,14.9981
2237000000,-109.98074,14.85581
2238000000,-110.43703,14.776349
2239000000,-110.94999,14.512546
2240000000,-110.39016,14.566987
2241000000,-111.32104,14.088092
2242000000,-111.18887,14.128318
2243000000,-111.3932,14.036336
2244000000,-111.44086,13.769487
2245000000,-111.56906,13.692477
2246000000,-112.1099,13.527877
2247000000,-112.37421,13.263843
2248000000,-112.57139,13.214716
2249000000,-112.7416,13.028136
2250000000,-112.8615,12.823943
2251000000,-113.34731,12.876398
2252000000,-113.76698,12.640162
2253000000,-114.20074,12.309146
2254000000,-113.67329,12.420859
2255000000,-114.56648,12.179589
2256000000,-114.36555,12.186854
2257000000,-114.48763,11.982954
2258000000,-114.6747,11.822627
2259000000,-115.28801,11.468587
2260000000,-115.30795,11.295117
2261000000,-115.18571,11.439897
2262000000,-115.48806,11.060792
2263000000,-116.27641,10.78754
2264000000,-116.14868,10.657891
2265000000,-116.57468,10.473191
2266000000,-116.61701,10.528363
2267000000,-117.05078,10.157309
2268000000,-116.54765,10.330925
2269000000,-117.79902,9.9155502
2270000000,-117.69814,9.8175268
2271000000,-117.46804,9.658844
2272000000,-117.57817,9.5918016
2273000000,-118.1371,9.4422293
2274000000,-118.83089,9.129427
2275000000,-118.78439,8.9890528
2276000000,-118.99489,8.8991661
2277000000,-119.05223,8.8085222
2278000000,-119.25035,8.7042389
2279000000,-119.82092,8.3800287
2280000000,-120.46651,8.1003036
2281000000,-120.61538,8.0021906
2282000000,-120.26669,8.012743
2283000000,-121.12923,7.6241398
2284000000,-120.88866,7.7592134
2285000000,-121.17731,7.6972346
2286000000,-121.31759,7.4370599
2287000000,-121.67999,7.1864662
2288000000,-121.60291,7.2165613
2289000000,-122.66875,6.7532911
2290000000,-122.45222,6.8589549
2291000000,-122.32585,6.6041827
2292000000,-122.65797,6.4331746
2293000000,-123.01459,6.4785056
2294000000,-123.54987,6.0794196
2295000000,-123.44054,6.1624188
2296000000,-123.87892,5.8420396
2297000000,-124.42413,5.6799083
2298000000,-124.073,5.6706605
2299000000,-124.60857,5.2590818
2300000000,-125.16703,5.1256456
2301000000,-125.70461,5.0031276
2302000000,-125.25015,5.1963816
2303000000,-125.98685,4.6726384
2304000000,-125.93797,4.5284805
2305000000,-126.24262,4.5406957
2306000000,-127.01627,4.315577
2307000000,-127.32086,3.9970694
2308000000,-126.67384,4.1757178
2309000000,-127.44674,3.7942772
2310000000,-128.06767,3.5541396
2311000000,-127.9725,3.4715576
2312000000,-128.54883,3.257658
2313000000,-128.81958,3.1185391
2314000000,-128.31708,3.06146
2315000000,-129.01299,2.7905877
2316000000,-129.16341,2.6083241
2317000000,-129.75246,2.5097511
2318000000,-129.39691,2.462148
2319000000,-130.23811,2.1696742
2320000000,-130.06058,2.1202013
2321000000,-130.18796,2.3142054
2322000000,-131.01387,1.6586443
2323000000,-130.86441,1.6071739
2324000000,-131.46478,1.3217046
2325000000,-131.25262,1.4091414
2326000000,-131.97989,1.204006
2327000000,-132.69948,0.71154112
2328000000,-132.38786,0.92091674
2329000000,-133.0032,0.55223042
2330000000,-132.41751,0.67507601
2331000000,-133.59593,0.28796583
2332000000,-133.58621,0.24567352
2333000000,-133.56725,0.17097385
2334000000,-133.58507,0.1292567
2335000000,-134.43472,-0.1551519
2336000000,-134.07832,-0.28973925
2337000000,-134.59665,-0.63313711
2338000000,-134.9543,-0.53922677
2339000000,-134.72772,-0.83081561
2340000000,-135.36539,-0.91222918
2341000000,-135.61864,-1.0975896
2342000000,-136.35933,-1.4164819
2343000000,-136.85811,-1.4869893
2344000000,-137.1927,-1.8185763
2345000000,-137.28275,-1.6906962
2346000000,-136.50014,-1.8156618
2347000000,-137.86247,-2.0875902
2348000000,-137.70631,-2.2451932
2349000000,-138.41373,-2.4688785
2350000000,-137.89146,-2.5082192
2351000000,-138.84682,-2.6980669
2352000000,-138.7341,-2.8147533
2353000000,-140.06189,-3.0004823
2354000000,-139.64789,-3.0138621
2355000000,-140.466,-3.5204749
2356000000,-140.10123,-3.406554
2357000000,-140.42053,-3.5740833
2358000000,-141.28352,-3.8031142
2359000000,-141.2075,-3.9932098
2360000000,-141.03499,-3.921207
2361000000,-142.04893,-4.222363
2362000000,-141.68256,-4.203032
2363000000,-142.65909,-4.4463387
2364000000,-142.77032,-4.5505581
2365000000,-143.13963,-4.8814125
2366000000,-143.73344,-5.0180678
2367000000,-143.83827,-5.1311202
2368000000,-143.80693,-5.1796465
2369000000,-144.23021,-5.4811478
2370000000,-144.58047,-5.572217
2371000000,-144.80441,-5.6618571
2372000000,-144.79147,-5.8749261
2373000000,-145.33575,-6.1535106
2374000000,-145.91379,-6.3526502
2375000000,-146.38919,-6.5396228
2376000000,-146.46027,-6.6413159
2377000000,-146.65152,-6.6681356
2378000000,-146.45721,-6.9240103
2379000000,-146.94385,-6.935051
2380000000,-148.00638,-7.4441223
2381000000,-148.25214,-7.4599471
2382000000,-147.52821,-7.4289236
2383000000,-148.36209,-7.6990275
2384000000,-148.89334,-7.7878904
2385000000,-149.01271,-8.0308809
2386000000,-148.44133,-8.1230936
2387000000,-149.59889,-8.2667141
2388000000,-149.27469,-8.2720032
2389000000,-150.64545,-8.7530308
2390000000,-151.02895,-8.7552433
2391000000,-151.33775,-8.9691391
2392000000,-150.77061,-8.9655695
2393000000,-151.69415,-9.2209196
2394000000,-151.73904,-9.2932129
2395000000,-151.85559,-9.4154997
2396000000,-152.43524,-9.6830606
2397000000,-152.68816,-9.6824389
2398000000,-152.892,-9.8085871
2399000000,-154.10783,-10.250443
2400000000,-153.675,-10.259624
2401000000,-154.93988,-10.740755
2402000000,-154.48944,-10.547887
2403000000,-154.16136,-10.513396
2404000000,-155.48567,-11.016255
2405000000,-155.74358,-11.150836
2406000000,-156.16296,-11.195367
2407000000,-156.21877,-11.213696
2408000000,-157.75978,-11.760939
2409000000,-157.55492,-11.733139
2410000000,-157.34682,-11.848785
2411000000,-157.84984,-11.894575
2412000000,-158.58627,-12.344049
2413000000,-159.17355,-12.171
2414000000,-158.63,-12.415437
2415000000,-159.96065,-12.666509
2416000000,-159.32777,-12.661496
2417000000,-160.4274,-12.873422
2418000000,-160.41536,-13.118061
2419000000,-159.98373,-13.103306
2420000000,-160.92342,-13.345289
2421000000,-161.95213,-13.584299
2422000000,-162.25598,-14.03356
2423000000,-162.23056,-14.008716
2424000000,-162.09471,-13.983439
2425000000,-162.9173,-14.312502
2426000000,-163.24051,-14.578874
2427000000,-162.71129,-14.370381
2428000000,-163.15277,-14.560085
2429000000,-163.22159,-14.556885
2430000000,-163.6817,-14.873173
2431000000,-164.6463,-15.00106
2432000000,-165.24275,-15.194528
2433000000,-165.64653,-15.556364
2434000000,-165.62305,-15.563025
2435000000,-165.53082,-15.484921
2436000000,-165.84636,-15.856585
2437000000,-166.18507,-16.0124
2438000000,-167.00044,-16.143158
2439000000,-167.8109,-16.584686
2440000000,-167.19821,-16.585766
2441000000,-168.35001,-16.696671
2442000000,-168.86649,-16.840908
2443000000,-168.97044,-16.941345
2444000000,-168.38463,-16.947813
2445000000,-170.08771,-17.30736
2446000000,-170.00334,-17.456242
2447000000,-170.95987,-17.689611
2448000000,-170.87907,-17.856062
2449000000,-171.57271,-18.010733
2450000000,-171.60527,-18.101633
2451000000,-172.2052,-18.317963
2452000000,-172.76825,-18.450211
2453000000,-173.06541,-18.588741
2454000000,-173.73499,-18.637283
2455000000,-174.42064,-18.980251
2456000000,-174.6653,-19.037153
2457000000,-174.39774,-18.938171
2458000000,-175.10785,-19.496794
2459000000,-175.52725,-19.405016
2460000000,-175.23656,-19.639902
2461000000,-175.82727,-19.801929
2462000000,-176.47229,-20.027285
2463000000,-177.02942,-20.084223
2464000000,-177.48351,-20.205742
2465000000,-176.88135,-20.21813
2466000000,-178.61302,-20.653475
2467000000,-177.64174,-20.603409
2468000000,-177.97736,-20.596161
2469000000,-178.4794,-20.786768
2470000000,-179.8709,-21.183769
2471000000,-179.47292,-21.353983
2472000000,-179.54283,-21.356621
2473000000,179.86154,-21.672306
2474000000,178.35925,-21.927567
2475000000,179.02498,-21.793293
2476000000,177.99171,-22.06568
2477000000,177.29588,-22.337744
2478000000,177.52272,-22.436449
2479000000,177.002,-22.609777
2480000000,176.49414,-22.701286
2481000000,175.50694,-22.833277
2482000000,176.1618,-23.013277
2483000000,175.67616,-23.068293
2484000000,174.91844,-23.431578
2485000000,174.37056,-23.46863
2486000000,174.74699,-23.63644
2487000000,173.19662,-23.804668
2488000000,173.39604,-23.911167
2489000000,173.73572,-23.918085
2490000000,172.33,-24.242266
2491000000,171.53343,-24.349308
2492000000,171.32741,-24.745991
2493000000,171.43826,-24.784758
2494000000,170.39418,-25.118961
2495000000,170.44048,-25.064817
2496000000,171.0417,-25.134434
2497000000,170.27271,-25.46349
2498000000,169.28239,-25.591246
2499000000,168.97868,-25.72467
2500000000,168.35643,-25.794088
2501000000,167.7673,-26.099726
2502000000,167.33704,-26.063513
2503000000,167.59351,-26.122665
2504000000,168.45029,-26.129232
2505000000,164.99451,-26.58889
2506000000,166.03909,-26.638906
2507000000,163.18311,-27.074415
2508000000,163.79056,-27.044485
2509000000,164.31929,-27.061428
2510000000,164.24426,-27.349329
2511000000,162.88905,-27.420359
2512000000,164.02219,-27.813482
2513000000,162.48648,-27.824242
2514000000,161.50439,-28.071276
2515000000,159.72179,-28.25766
2516000000,161.51665,-28.329252
2517000000,161.06006,-28.583363
2518000000,160.38132,-28.685057
2519000000,160.02069,-28.773531
2520000000,159.0545,-29.117519
2521000000,159.57018,-29.055479
2522000000,158.29543,-29.250504
2523000000,158.29387,-29.367023
2524000000,156.86053,-29.76523
2525000000,157.57719,-29.743723
2526000000,156.0322,-29.873693
2527000000,156.53358,-29.872622
2528000000,155.70757,-30.203817
2529000000,154.78787,-30.387539
2530000000,154.76979,-30.377283
2531000000,153.7865,-30.524509
2532000000,153.67497,-30.869635
2533000000,153.69476,-30.744345
2534000000,152.6657,-30.822281
2535000000,152.45837,-31.151711
2536000000,151.78949,-31.207869
2537000000,151.90422,-31.42095
2538000000,151.4384,-31.75466
2539000000,150.72681,-31.830488
2540000000,149.08725,-32.023949
2541000000,150.33769,-31.928707
2542000000,149.60887,-32.399773
2543000000,148.85721,-32.694263
2544000000,148.84467,-32.840153
2545000000,148.43559,-32.799366
2546000000,148.38579,-33.081432
2547000000,147.22649,-33.115631
2548000000,146.48552,-33.528301
2549000000,146.93475,-33.2425
2550000000,145.45734,-33.494205
2551000000,146.38411,-33.605541
2552000000,145.2243,-33.929024
2553000000,145.16148,-34.17981
2554000000,143.7569,-34.236858
2555000000,142.84424,-34.484581
2556000000,143.15828,-34.298374
2557000000,142.32433,-34.520889
2558000000,141.58069,-34.850445
2559000000,141.76393,-35.039917
2560000000,141.24275,-35.24308
2561000000,140.28185,-35.116531
2562000000,140.40808,-35.530964
2563000000,139.7887,-35.504333
2564000000,140.76971,-35.646458
2565000000,139.36748,-35.753494
2566000000,138.97076,-36.201164
2567000000,137.87196,-36.304337
2568000000,136.93582,-36.351318
2569000000,136.59193,-36.543495
2570000000,136.58563,-36.757133
2571000000,135.03261,-36.7901
2572000000,134.99254,-37.021343
2573000000,135.50537,-37.198151
2574000000,134.4191,-37.284019
2575000000,133.59935,-37.561058
2576000000,133.41423,-37.605537
2577000000,133.4758,-37.678329
2578000000,132.40915,-38.059048
2579000000,131.48111,-38.106117
2580000000,132.15979,-38.172058
2581000000,130.75476,-38.412209
2582000000,130.13171,-38.520748
2583000000,130.01692,-38.719997
2584000000,129.62761,-39.054718
2585000000,130.44275,-39.140354
2586000000,128.93973,-39.166157
2587000000,128.17598,-39.355358
2588000000,128.16386,-39.315491
2589000000,127.89733,-39.631161
2590000000,127.73643,-39.738724
2591000000,126.43021,-39.817131
2592000000,127.13675,-40.485641
2593000000,126.27242,-40.305145
2594000000,126.06106,-40.453037
2595000000,125.28139,-40.695736
2596000000,124.57836,-40.831703
2597000000,124.11059,-40.929985
2598000000,124.07413,-41.064835
2599000000,122.28089,-41.438671
2600000000,123.58132,-41.270882
2601000000,122.6936,-41.592205
2602000000,122.05872,-41.650539
2603000000,121.93814,-41.940308
2604000000,120.66781,-42.066086
2605000000,120.91427,-42.12447
2606000000,120.75298,-42.2864
2607000000,120.10268,-42.338181
2608000000,120.90907,-42.353905
2609000000,119.20591,-42.696537
2610000000,117.82507,-42.730888
2611000000,118.9558,-43.124386
2612000000,117.68956,-43.000999
2613000000,118.39981,-43.328285
2614000000,116.94378,-43.519455
2615000000,115.75363,-43.700489
2616000000,115.07724,-43.824043
2617000000,114.69341,-44.031086
2618000000,115.25597,-44.107841
2619000000,113.69602,-44.393593
2620000000,115.27376,-44.537445
2621000000,113.47781,-44.691933
2622000000,111.50663,-44.572716
2623000000,112.63225,-44.873173
2624000000,112.13905,-45.223511
2625000000,110.71425,-45.142937
2626000000,110.86031,-45.545876
2627000000,111.24959,-45.416744
2628000000,110.50751,-45.806236
2629000000,109.75372,-45.729099
2630000000,108.8476,-45.902405
2631000000,108.52932,-46.189178
2632000000,108.43863,-46.533241
2633000000,108.47391,-46.338024
2634000000,107.6198,-46.692623
2635000000,106.53331,-46.969265
2636000000,107.24568,-46.985455
2637000000,106.42974,-47.009758
2638000000,107.36828,-47.214874
2639000000,105.85822,-47.514389
2640000000,105.62992,-47.609772
2641000000,105.36478,-47.579967
2642000000,105.30914,-47.741962
2643000000,105.05717,-47.925331
2644000000,104.74642,-48.219158
2645000000,103.79705,-48.35878
2646000000,102.88819,-48.460522
2647000000,102.65015,-48.718403
2648000000,103.13635,-48.578678
2649000000,101.93924,-48.955318
2650000000,101.92989,-49.045818
2651000000,102.14539,-49.344017
2652000000,101.45217,-49.481441
2653000000,100.87166,-49.605564
2654000000,100.65166,-49.782585
2655000000,99.653694,-49.944393
2656000000,98.389603,-50.058292
2657000000,99.233353,-50.07502
2658000000,99.05925,-50.369972
2659000000,98.625893,-50.461624
2660000000,97.493324,-50.606827
2661000000,97.440514,-51.13496
2662000000,97.263565,-50.942661
2663000000,97.656219,-51.101654
2664000000,97.715172,-51.350101
2665000000,97.831383,-51.253422
2666000000,95.19503,-51.561085
2667000000,95.207153,-51.810802
2668000000,95.240852,-51.834953
2669000000,94.483261,-52.154434
2670000000,93.099159,-52.291435
2671000000,93.800812,-52.287235
2672000000,92.731171,-52.544712
2673000000,92.320923,-52.657478
2674000000,91.434738,-52.91412
2675000000,90.607094,-52.920101
2676000000,92.150169,-53.234283
2677000000,90.560677,-53.275948
2678000000,90.784447,-53.299587
2679000000,89.598137,-53.703403
2680000000,89.052948,-53.739262
2681000000,88.950722,-53.802891
2682000000,89.045021,-54.080368
2683000000,90.04937,-54.393078
2684000000,88.318459,-54.412052
2685000000,87.038689,-54.402603
2686000000,88.105408,-54.991482
2687000000,88.669357,-54.90979
2688000000,88.195488,-55.279015
2689000000,87.045731,-55.281376
2690000000,86.971603,-55.228584
2691000000,86.476158,-55.616997
2692000000,85.208382,-55.697075
2693000000,86.479027,-55.999435
2694000000,85.269966,-55.954704
2695000000,85.256599,-56.141808
2696000000,83.349182,-56.115913
2697000000,82.571434,-56.349606
2698000000,84.187462,-56.707119
2699000000,83.774246,-56.506123
2700000000,83.073151,-56.86536
2701000000,82.150726,-56.877903
2702000000,81.332695,-57.386185
2703000000,82.822182,-57.498112
2704000000,81.585396,-57.773067
2705000000,79.756592,-57.585762
2706000000,82.337944,-57.895725
2707000000,81.278656,-58.182907
2708000000,80.080902,-58.388103
2709000000,79.799004,-58.387573
2710000000,79.442848,-58.420399
2711000000,80.243347,-58.615543
2712000000,79.655731,-58.747414
2713000000,80.066719,-58.835381
2714000000,78.393959,-58.991444
2715000000,77.38266,-59.162777
2716000000,79.388306,-59.489632
2717000000,78.050644,-59.578724
2718000000,76.768738,-59.694336
2719000000,76.258766,-59.85363
2720000000,76.137466,-60.004982
2721000000,77.22612,-60.413742
2722000000,75.034798,-60.069023
2723000000,75.350838,-60.456238
2724000000,74.102669,-60.679188
2725000000,74.27536,-60.573841
2726000000,73.772476,-60.80542
2727000000,73.317413,-61.268307
2728000000,72.669609,-61.1493
2729000000,73.43235,-61.283314
2730000000,72.409325,-61.58007
2731000000,72.038139,-61.611584
2732000000,71.194031,-61.815834
2733000000,72.507439,-62.111752
2734000000,72.01226,-62.190308
2735000000,70.175461,-62.396202
2736000000,70.862709,-62.538094
2737000000,72.339844,-62.718937
2738000000,70.372406,-62.897182
2739000000,69.316147,-62.872307
2740000000,69.042374,-63.039513
2741000000,70.238914,-63.305553
2742000000,68.630913,-63.386429
2743000000,67.566414,-63.522961
2744000000,67.699051,-63.836819
2745000000,68.811981,-63.921024
2746000000,66.892441,-63.968395
2747000000,67.259262,-64.300499
2748000000,66.984535,-64.450821
2749000000,66.97451,-64.491402
2750000000,67.491302,-64.516624
2751000000,65.857147,-64.802704
2752000000,68.614334,-64.969612
2753000000,66.426941,-65.110176
2754000000,66.653831,-65.461197
2755000000,64.979149,-65.469391
2756000000,66.038185,-65.649757
2757000000,63.96529,-65.768486
2758000000,64.087723,-65.985313
2759000000,64.306847,-66.054794
2760000000,65.969894,-66.180267
2761000000,63.525677,-66.394173
2762000000,63.251152,-66.446594
2763000000,64.236961,-66.70224
2764000000,63.504349,-66.914734
2765000000,61.853218,-67.041306
2766000000,62.840946,-67.166283
2767000000,62.263992,-67.256058
2768000000,62.891998,-67.435379
2769000000,61.858086,-67.588295
2770000000,61.610184,-67.718437
2771000000,61.838554,-67.705063
2772000000,61.780899,-68.076027
2773000000,61.835445,-68.431549
2774000000,60.285744,-68.353088
2775000000,60.762859,-68.327103
2776000000,61.000706,-68.730652
2777000000,60.02248,-68.856323
2778000000,58.790684,-68.808456
2779000000,58.405563,-69.292
2780000000,58.541496,-69.150528
2781000000,59.082005,-69.414017
2782000000,58.434784,-69.685417
2783000000,56.701412,-69.827187
2784000000,57.28067,-69.981071
2785000000,57.852551,-70.102119
2786000000,56.785553,-70.200623
2787000000,57.461159,-70.481339
2788000000,57.190231,-70.59137
2789000000,56.122169,-70.765694
2790000000,56.155067,-71.029404
2791000000,55.449295,-70.951164
2792000000,54.748451,-71.1315
2793000000,54.454639,-71.433952
2794000000,54.002743,-71.410591
2795000000,55.308414,-71.747726
2796000000,53.330978,-71.708733
2797000000,54.947327,-71.986649
2798000000,54.983898,-71.931664
2799000000,54.707539,-72.252411
2800000000,52.716801,-72.48082
2801000000,53.637531,-72.598068
2802000000,53.779499,-72.51841
2803000000,53.41626,-72.921112
2804000000,51.361485,-73.058685
2805000000,51.755539,-73.152115
2806000000,54.009396,-73.573006
2807000000,52.008076,-73.766174
2808000000,53.133064,-73.7118
2809000000,51.977093,-73.838966
2810000000,51.064323,-74.199707
2811000000,51.187328,-74.124985
2812000000,49.475086,-74.285706
2813000000,52.104923,-74.512833
2814000000,51.564831,-74.624878
2815000000,50.273582,-74.77684
2816000000,50.502388,-75.017212
2817000000,49.04866,-75.07579
2818000000,49.423569,-75.229721
2819000000,49.623352,-75.491455
2820000000,49.851471,-75.640221
2821000000,49.111053,-75.658371
2822000000,49.399006,-75.8424
2823000000,49.401562,-75.952003
2824000000,49.032093,-76.214943
2825000000,47.396202,-76.423279
2826000000,47.163677,-76.458588
2827000000,48.627079,-76.554947
2828000000,46.17239,-77.040512
2829000000,47.240845,-76.890251
2830000000,45.959152,-77.120155
2831000000,46.545376,-77.285629
2832000000,45.663063,-77.362839
2833000000,44.465786,-77.511169
2834000000,46.205627,-77.680939
2835000000,43.276127,-77.904785
2836000000,46.844349,-77.844604
2837000000,45.675621,-78.265976
2838000000,44.436211,-78.265465
2839000000,43.610012,-78.334404
2840000000,44.421543,-78.723091
2841000000,43.579426,-78.771111
2842000000,43.798344,-78.885109
2843000000,43.919071,-79.072029
2844000000,42.275906,-79.259567
2845000000,42.925812,-79.268181
2846000000,42.537712,-79.448158
2847000000,43.500763,-79.929825
2848000000,43.513508,-79.839134
2849000000,41.647408,-79.898438
2850000000,40.945183,-80.348587
2851000000,43.503902,-80.328812
2852000000,43.748718,-80.463051
2853000000,41.014782,-80.61351
2854000000,41.796242,-80.707054
2855000000,40.396797,-80.83712
2856000000,41.390766,-80.961952
2857000000,41.037483,-81.421364
2858000000,41.915688,-81.446777
2859000000,40.473824,-81.493004
2860000000,40.070511,-81.694794
2861000000,40.678558,-81.824715
2862000000,39.709553,-82.127785
2863000000,40.161957,-82.366013
2864000000,39.818745,-82.381187
2865000000,38.728748,-82.563217
2866000000,40.40107,-82.75843
2867000000,38.517044,-82.848473
2868000000,39.685013,-83.0345
2869000000,38.054008,-83.2201
2870000000,35.915398,-83.114784
2871000000,36.687363,-83.334549
2872000000,38.640804,-83.909401
2873000000,38.655567,-83.74649
2874000000,39.375332,-83.909088
2875000000,38.840214,-84.087921
2876000000,35.980946,-84.202385
2877000000,34.88168,-84.35289
2878000000,36.192589,-84.563591
2879000000,37.140892,-84.747208
2880000000,36.16547,-84.98497
2881000000,37.666683,-84.956696
2882000000,36.608063,-85.253387
2883000000,38.211308,-85.192062
2884000000,36.126778,-85.446609
2885000000,34.404278,-85.747307
2886000000,33.77029,-85.750114
2887000000,37.434044,-85.874184
2888000000,37.475189,-86.142349
2889000000,36.601555,-86.398857
2890000000,37.546448,-86.356483
2891000000,31.534027,-86.514046
2892000000,36.397713,-86.748154
2893000000,37.347073,-86.806793
2894000000,36.316917,-87.088348
2895000000,33.921471,-87.074165
2896000000,32.619965,-87.310524
2897000000,32.868351,-87.571625
2898000000,33.994133,-87.775734
2899000000,32.458199,-87.858597
2900000000,33.789497,-88.223732
2901000000,31.851009,-88.090858
2902000000,31.941927,-88.214653
2903000000,36.209576,-88.529434
2904000000,32.053108,-88.616913
2905000000,28.1059,-88.761742
2906000000,33.361591,-89.012413
2907000000,35.660381,-89.064491
2908000000,31.41802,-89.229134
2909000000,33.550972,-89.445
2910000000,31.103634,-89.669029
2911000000,31.855343,-89.652496
2912000000,32.107216,-89.805267
2913000000,32.418594,-89.978584
2914000000,31.532497,-90.401337
2915000000,33.667057,-90.628395
2916000000,31.312975,-90.581223
2917000000,30.389475,-90.550621
2918000000,32.642712,-90.691818
2919000000,28.57991,-90.794113
2920000000,29.059553,-91.126091
2921000000,31.766394,-91.329216
2922000000,33.741264,-91.316963
2923000000,34.894466,-91.54995
2924000000,32.603218,-91.705841
2925000000,35.053951,-91.827736
2926000000,36.367939,-91.965271
2927000000,36.280491,-92.066254
2928000000,33.957474,-92.333855
2929000000,33.939335,-92.660851
2930000000,31.045372,-92.764977
2931000000,36.404312,-92.847321
2932000000,34.723713,-93.09008
2933000000,30.368425,-92.972359
2934000000,37.109535,-93.351967
2935000000,33.421829,-93.564003
2936000000,30.797626,-93.58004
2937000000,30.709213,-93.621048
2938000000,35.074135,-93.912369
2939000000,28.226234,-93.784485
2940000000,36.885342,-94.451607
2941000000,36.855705,-94.44931
2942000000,31.159628,-94.520164
2943000000,33.910934,-94.646393
2944000000,35.792259,-94.9039
2945000000,29.099442,-95.082352
2946000000,37.926998,-95.101295
2947000000,35.632084,-95.269279
2948000000,34.19173,-95.345726
2949000000,37.376579,-95.768631
2950000000,34.622089,-95.566002
2951000000,39.875862,-95.903175
2952000000,42.377132,-96.199409
2953000000,34.974411,-96.375015
2954000000,42.583073,-96.643906
2955000000,34.34317,-96.443787
2956000000,26.924612,-96.431236
2957000000,47.39357,-96.788368
2958000000,39.163792,-96.96019
2959000000,47.945454,-97.307648
2960000000,36.497131,-97.374657
2961000000,41.095306,-97.525436
2962000000,51.471798,-97.630455
2963000000,60.919495,-97.836296
2964000000,45.639378,-97.896904
2965000000,58.49482,-97.968613
2966000000,58.02243,-98.304451
2967000000,67.135254,-98.460159
2968000000,74.036331,-98.726494
2969000000,81.723915,-98.650276
2970000000,71.264854,-98.925201
2971000000,68.327301,-99.146179
2972000000,74.220016,-99.129128
2973000000,82.047218,-99.28582
2974000000,91.826843,-99.503448
2975000000,87.254967,-99.559471
2976000000,110.88621,-99.988441
2977000000,105.20542,-100.0457
2978000000,110.82642,-100.26246
2979000000,107.95949,-100.52322
2980000000,114.95211,-100.46301
2981000000,118.20837,-100.64538
2982000000,128.31496,-100.75953
2983000000,132.60599,-100.96225
2984000000,136.89658,-101.12286
2985000000,128.60007,-101.2696
2986000000,142.92195,-101.54655
2987000000,126.91193,-101.62451
2988000000,150.31133,-101.6471
2989000000,138.15782,-101.58903
2990000000,146.67911,-102.13605
2991000000,141.99478,-102.11925
2992000000,152.28824,-102.26503
2993000000,159.62199,-102.61864
2994000000,149.65959,-102.65057
2995000000,148.95134,-102.74004
2996000000,147.52171,-102.83303
2997000000,146.38531,-102.88183
2998000000,145.14981,-103.34155
2999000000,151.23651,-103.36297
3000000000,166.14355,-103.58783
3001000000,160.0623,-103.79048
3002000000,153.63445,-103.93734
3003000000,168.12962,-104.04324
3004000000,154.06151,-104.2289
3005000000,164.6817,-104.41715
3006000000,157.02011,-104.53021
3007000000,163.22556,-104.66836
3008000000,158.97316,-104.90182
3009000000,160.81049,-105.02267
3010000000,165.54927,-105.19138
3011000000,164.68445,-105.20982
3012000000,170.6115,-105.29729
3013000000,166.12769,-105.649
3014000000,158.13889,-105.64827
3015000000,164.80916,-106.06471
3016000000,160.76277,-106.07662
3017000000,165.74837,-106.30214
3018000000,165.22719,-106.37773
3019000000,168.70085,-106.61021
3020000000,163.41927,-106.83596
3021000000,169.14456,-107.05036
3022000000,167.33144,-106.95253
3023000000,162.49826,-107.30334
3024000000,164.49713,-107.19986
3025000000,165.58771,-107.39899
3026000000,165.22682,-107.57872
3027000000,167.93814,-107.90955
3028000000,166.26178,-108.03751
3029000000,167.68004,-108.20696
3030000000,166.01085,-108.49362
3031000000,165.34703,-108.28488
3032000000,165.96997,-108.61134
3033000000,165.10741,-108.81537
3034000000,166.41608,-108.86092
3035000000,166.07361,-108.87737
3036000000,166.13419,-109.22868
3037000000,165.01552,-109.35825
3038000000,163.7364,-109.56711
3039000000,164.74199,-109.52881
3040000000,165.92995,-109.9995
3041000000,169.5002,-109.86141
3042000000,166.94209,-110.41738
3043000000,166.69984,-110.48148
3044000000,163.12108,-110.68006
3045000000,164.82854,-110.54688
3046000000,165.8213,-110.61961
3047000000,164.85764,-110.91756
3048000000,164.67276,-111.21783
3049000000,164.59538,-111.14355
3050000000,164.40112,-111.48869
3051000000,164.3047,-111.60213
3052000000,166.34055,-111.69243
3053000000,165.36839,-111.92614
3054000000,163.42108,-111.93584
3055000000,168.09972,-112.28094
3056000000,166.15779,-112.36317
3057000000,164.6158,-112.3986
3058000000,164.96416,-112.64693
3059000000,165.83881,-112.86013
3060000000,165.937,-112.82351
3061000000,164.84328,-113.20776
3062000000,165.90146,-113.12121
3063000000,167.79498,-113.64478
3064000000,165.19579,-113.65495
3065000000,164.99663,-113.57053
3066000000,167.20883,-113.79354
3067000000,164.70647,-113.994
3068000000,166.03848,-114.46197
3069000000,164.81499,-114.36906
3070000000,163.77553,-114.67316
3071000000,162.16162,-114.81595
3072000000,164.02786,-114.88042
3073000000,164.85854,-114.99873
3074000000,164.67377,-115.10891
3075000000,162.91231,-115.24127
3076000000,162.81081,-115.51591
3077000000,163.14764,-115.36678
3078000000,163.00089,-115.76553
3079000000,162.49403,-115.83056
3080000000,163.36285,-116.08636
3081000000,162.77432,-116.19753
3082000000,161.55815,-116.24325
3083000000,165.01169,-116.63753
3084000000,162.11644,-116.69196
3085000000,161.39897,-116.91977
3086000000,162.84111,-117.01114
3087000000,161.21028,-117.22668
3088000000,162.82178,-117.21896
3089000000,161.47557,-117.64755
3090000000,162.55733,-117.72744
3091000000,161.81619,-117.70484
3092000000,161.40118,-117.74657
3093000000,161.33369,-118.23946
3094000000,159.77759,-118.18935
3095000000,161.72305,-118.39744
3096000000,161.82341,-118.50747
3097000000,162.36389,-118.72552
3098000000,162.16956,-119.04701
3099000000,160.65681,-119.10222
3100000000,161.23071,-119.19064
3101000000,161.67598,-119.5659
3102000000,161.23657,-119.47318
3103000000,161.57025,-119.62232
3104000000,161.90096,-119.67147
3105000000,161.05838,-120.13322
3106000000,160.43748,-120.09933
3107000000,162.00427,-120.2459
3108000000,161.64822,-120.51009
3109000000,160.97273,-120.71131
3110000000,161.03949,-120.76489
3111000000,160.86674,-120.9198
3112000000,160.13382,-120.95986
3113000000,160.72049,-121.27938
3114000000,160.13499,-121.2313
3115000000,158.61086,-121.4192
3116000000,160.33646,-121.73026
3117000000,160.02415,-121.79281
3118000000,158.39482,-122.02988
3119000000,158.4263,-122.06158
3120000000,159.09177,-122.45052
3121000000,158.8447,-122.42216
3122000000,159.75227,-122.58015
3123000000,159.82594,-122.69606
3124000000,158.2693,-123.05188
3125000000,157.4043,-123.14819
3126000000,158.17836,-123.42986
3127000000,156.62592,-123.32554
3128000000,157.70647,-123.62361
3129000000,157.32875,-123.86651
3130000000,156.70859,-123.84512
3131000000,157.40062,-124.05978
3132000000,157.13243,-124.32317
3133000000,156.59721,-124.40851
3134000000,156.86836,-124.51737
3135000000,157.84662,-124.58522
3136000000,157.01451,-124.88114
3137000000,155.78081,-124.82365
3138000000,156.12979,-124.95521
3139000000,155.90131,-125.09589
3140000000,156.08647,-125.26641
3141000000,155.5479,-125.65335
3142000000,154.79454,-125.85076
3143000000,155.60216,-125.79811
3144000000,156.34013,-125.96143
3145000000,154.84467,-126.14993
3146000000,154.88385,-126.29247
3147000000,154.72061,-126.3887
3148000000,155.48882,-126.71534
3149000000,154.43495,-126.79713
3150000000,154.82747,-127.04914
3151000000,154.71132,-127.02277
3152000000,153.8313,-127.26119
3153000000,154.53893,-127.56005
3154000000,153.44983,-127.68442
3155000000,154.01691,-127.74179
3156000000,153.6833,-127.95998
3157000000,154.12849,-128.09122
3158000000,153.33508,-128.21671
3159000000,152.76744,-128.55724
3160000000,152.78659,-128.52493
3161000000,151.83379,-128.72469
3162000000,152.96577,-128.78749
3163000000,153.42131,-129.20531
3164000000,152.27287,-129.06461
3165000000,152.43864,-129.33336
3166000000,151.39348,-129.68216
3167000000,151.84639,-129.5036
3168000000,151.07184,-129.66948
3169000000,151.04549,-129.98012
3170000000,151.6015,-130.10779
3171000000,150.38165,-130.07266
3172000000,151.49435,-130.63959
3173000000,150.33186,-130.465
3174000000,150.30045,-130.75056
3175000000,150.72316,-131.03421
3176000000,150.84624,-131.13657
3177000000,150.56151,-131.21446
3178000000,150.68877,-131.37201
3179000000,150.16417,-131.63699
3180000000,150.10776,-131.66957
3181000000,149.86777,-131.72653
3182000000,149.36395,-132.07317
3183000000,148.66505,-132.10135
3184000000,148.9973,-132.23726
3185000000,148.45467,-132.34767
3186000000,149.06599,-132.60855
3187000000,148.67325,-132.68886
3188000000,148.86069,-132.91292
3189000000,148.31686,-133.02074
3190000000,147.75826,-133.14716
3191000000,148.03761,-133.3176
3192000000,147.82262,-133.47311
3193000000,147.46492,-133.71701
3194000000,147.23813,-134.02066
3195000000,147.23515,-134.04395
3196000000,146.97485,-134.11003
3197000000,147.13176,-134.46179
3198000000,146.72296,-134.51863
3199000000,146.37805,-134.71071
3200000000,146.02466,-134.67172
3201000000,146.16611,-134.86169
3202000000,145.5022,-135.16902
3203000000,145.82396,-135.19612
3204000000,146.8584,-135.61221
3205000000,146.40668,-135.50111
3206000000,145.94984,-135.68393
3207000000,144.80342,-135.78412
3208000000,145.78249,-136.07845
3209000000,144.09865,-136.19914
3210000000,144.713,-136.52896
3211000000,144.5473,-136.50955
3212000000,144.81345,-136.5997
3213000000,144.8459,-136.96622
3214000000,144.04086,-137.10393
3215000000,144.14575,-137.13455
3216000000,143.87886,-137.2549
3217000000,144.4735,-137.47052
3218000000,143.91148,-137.68077
3219000000,143.88966,-137.78827
3220000000,143.61436,-137.87027
3221000000,143.67117,-138.18121
3222000000,143.51237,-138.22957
3223000000,143.37408,-138.39087
3224000000,143.34032,-138.43623
3225000000,142.47472,-138.64403
3226000000,143.19643,-138.71472
3227000000,143.17137,-139.10414
3228000000,142.21738,-138.93666
3229000000,142.08017,-139.1347
3230000000,142.323,-139.49919
3231000000,142.43483,-139.67343
3232000000,142.29712,-139.76459
3233000000,141.44635,-140.10092
3234000000,141.33478,-139.86958
3235000000,141.56396,-140.19307
3236000000,141.54883,-140.48526
3237000000,141.15625,-140.57474
3238000000,141.20291,-140.80612
3239000000,140.47589,-140.85411
3240000000,140.66019,-140.88138
3241000000,140.23659,-141.0789
3242000000,140.10159,-141.17802
3243000000,140.60164,-141.55829
3244000000,139.95566,-141.62573
3245000000,140.15862,-141.95047
3246000000,139.44989,-141.88832
3247000000,139.34399,-141.93872
3248000000,138.97495,-142.35461
3249000000,138.83646,-142.27216
3250000000,139.47218,-142.59317
3251000000,139.19221,-142.65005
3252000000,139.48074,-142.95941
3253000000,139.24251,-143.16969
3254000000,138.67195,-143.08037
3255000000,138.30731,-143.28908
3256000000,138.59372,-143.56343
3257000000,137.90543,-143.47951
3258000000,138.6349,-143.82178
3259000000,137.71329,-144.08183
3260000000,137.71504,-144.29445
3261000000,137.4697,-144.11369
3262000000,136.97639,-144.38498
3263000000,137.03015,-144.60947
3264000000,137.0614,-144.62497
3265000000,136.87442,-144.65948
3266000000,136.76225,-145.10622
3267000000,136.42287,-145.10579
3268000000,136.38467,-145.37939
3269000000,136.43263,-145.46173
3270000000,136.29918,-145.57332
3271000000,136.15404,-145.8703
3272000000,135.72876,-145.76111
3273000000,136.03136,-146.11664
3274000000,135.67155,-146.34297
3275000000,135.53104,-146.41431
3276000000,135.34467,-146.54507
3277000000,135.26787,-146.75858
3278000000,135.23102,-146.89171
3279000000,134.73395,-147.19141
3280000000,135.03214,-147.26105
3281000000,134.52023,-147.64359
3282000000,134.02219,-147.49907
3283000000,133.82776,-147.65202
3284000000,134.45377,-147.96672
3285000000,133.7453,-147.9549
3286000000,133.66827,-148.1945
3287000000,133.2991,-148.13179
3288000000,133.47101,-148.59099
3289000000,133.28102,-148.62958
3290000000,133.06538,-148.7821
3291000000,132.80431,-148.74881
3292000000,131.95683,-149.10898
3293000000,132.10522,-149.1947
3294000000,132.71715,-149.30035
3295000000,132.34312,-149.79179
3296000000,131.54919,-149.62469
3297000000,131.71538,-149.8141
3298000000,131.6953,-149.90184
3299000000,131.10114,-149.83496
3300000000,131.33136,-150.36977
3301000000,131.21211,-150.76645
3302000000,130.98601,-150.59048
3303000000,131.57593,-150.95341
3304000000,130.84067,-151.02846
3305000000,130.61787,-151.31342
3306000000,130.55312,-151.32053
3307000000,129.62996,-151.36458
3308000000,129.79497,-151.54831
3309000000,130.18042,-151.88364
3310000000,129.61937,-151.60046
3311000000,130.28647,-152.2193
3312000000,129.82518,-152.19647
3313000000,129.45909,-152.32585
3314000000,129.84085,-152.55519
3315000000,129.28767,-152.69672
3316000000,129.33237,-153.10535
3317000000,128.81248,-152.73363
3318000000,128.77438,-153.07837
3319000000,128.70099,-153.38553
3320000000,128.53677,-153.57712
3321000000,128.04292,-153.55008
3322000000,127.82919,-153.72351
3323000000,127.98335,-154.04167
3324000000,127.75342,-153.95944
3325000000,126.85905,-154.21738
3326000000,127.14759,-154.28761
3327000000,127.6338,-154.46922
3328000000,127.41435,-154.70483
3329000000,126.78597,-154.72743
3330000000,127.0179,-155.06256
3331000000,126.81313,-155.07712
3332000000,126.8999,-155.23155
3333000000,126.73114,-155.61227
3334000000,126.08703,-155.40208
3335000000,126.6444,-155.98174
3336000000,126.36456,-156.03084
3337000000,126.34106,-156.26997
3338000000,125.49032,-156.23198
3339000000,125.29465,-156.39401
3340000000,125.1587,-156.49646
3341000000,125.2589,-156.71846
3342000000,124.88982,-156.89384
3343000000,125.27861,-157.08333
3344000000,124.61446,-157.09641
3345000000,125.02436,-157.41254
3346000000,124.16844,-157.54095
3347000000,124.46971,-157.63806
3348000000,123.88929,-157.72318
3349000000,123.71239,-158.01823
3350000000,123.6538,-158.04492
3351000000,123.46945,-158.20959
3352000000,123.58725,-158.46048
3353000000,122.77483,-158.49339
3354000000,123.19487,-158.79182
3355000000,123.04501,-158.95381
3356000000,123.08963,-159.03316
3357000000,122.92148,-159.36507
3358000000,122.62614,-159.27643
3359000000,122.61023,-159.56879
3360000000,122.27367,-159.72491
3361000000,121.97233,-160.12331
3362000000,121.40984,-159.88326
3363000000,121.75318,-160.14101
3364000000,121.54606,-160.22694
3365000000,121.53783,-160.59709
3366000000,121.41586,-160.66693
3367000000,120.99169,-160.75018
3368000000,121.34078,-160.97716
3369000000,121.3277,-160.98172
3370000000,120.95355,-161.26187
3371000000,120.57813,-161.21513
3372000000,120.58054,-161.65381
3373000000,120.44969,-161.5405
3374000000,120.36008,-162.06537
3375000000,119.91348,-161.88559
3376000000,119.93371,-162.11198
3377000000,120.01733,-162.39075
3378000000,119.39038,-162.38478
3379000000,119.73579,-162.36029
3380000000,119.47911,-162.88492
3381000000,119.2515,-162.93443
3382000000,119.12584,-163.01591
3383000000,119.10113,-163.48825
3384000000,118.78535,-163.39291
3385000000,119.10419,-163.88736
3386000000,118.50714,-163.63795
3387000000,118.51263,-164.01411
3388000000,118.33203,-163.9213
3389000000,118.11851,-164.1783
3390000000,118.00788,-164.2843
3391000000,117.65191,-164.48886
3392000000,117.78272,-164.76505
3393000000,117.53217,-164.6062
3394000000,117.40184,-164.86328
3395000000,117.53844,-165.02867
3396000000,117.32336,-165.27443
3397000000,117.41714,-165.40056
3398000000,117.02377,-165.63324
3399000000,116.68192,-165.77748
3400000000,116.4313,-165.94972
3401000000,116.02618,-165.82275
3402000000,116.39072,-166.233
3403000000,116.35633,-166.28485
3404000000,115.7173,-166.38716
3405000000,115.84221,-166.70108
3406000000,115.77704,-166.69191
3407000000,116.23867,-167.01349
3408000000,115.20066,-167.21857
3409000000,114.98155,-167.35593
3410000000,114.56293,-167.47151
3411000000,114.84021,-167.63261
3412000000,114.50029,-167.63812
3413000000,114.54012,-167.82668
3414000000,115.125,-168.15317
3415000000,114.91741,-168.35281
3416000000,114.64627,-168.5264
3417000000,114.07132,-168.53767
3418000000,114.23042,-168.7227
3419000000,113.88434,-169.02133
3420000000,114.28024,-168.92636
3421000000,113.96525,-168.96767
3422000000,113.38138,-169.34296
3423000000,113.45651,-169.42395
3424000000,113.11539,-169.68405
3425000000,112.94296,-169.77658
3426000000,113.18939,-169.90424
3427000000,113.02234,-170.08748
3428000000,112.52554,-170.22675
3429000000,112.73332,-170.34377
3430000000,112.84377,-170.36443
3431000000,112.32104,-170.67261
3432000000,112.51496,-170.88365
3433000000,112.24934,-171.17288
3434000000,112.2029,-171.20955
3435000000,112.02577,-171.42514
3436000000,111.82072,-171.71634
3437000000,111.44251,-171.7724
3438000000,111.66226,-171.84399
3439000000,111.23357,-171.90788
3440000000,111.09089,-171.96185
3441000000,110.90363,-172.16248
3442000000,110.86878,-172.55916
3443000000,110.55225,-172.41444
3444000000,110.63497,-172.71423
3445000000,110.37862,-173.09196
3446000000,110.48994,-172.99684
3447000000,110.17014,-173.29152
3448000000,110.03658,-173.25137
3449000000,110.0682,-173.52675
3450000000,109.52371,-173.72951
3451000000,109.68774,-173.56229
3452000000,109.51865,-174.06583
3453000000,109.24802,-174.08951
3454000000,108.86388,-174.41125
3455000000,108.75594,-174.17395
3456000000,108.85983,-174.63779
3457000000,108.88636,-174.69302
3458000000,108.57545,-174.94136
3459000000,108.71983,-174.90703
3460000000,109.09465,-175.24869
3461000000,109.07484,-175.39586
3462000000,108.19178,-175.49042
3463000000,108.23488,-175.95595
3464000000,108.27442,-175.96606
3465000000,107.93891,-175.97795
3466000000,107.99769,-176.04874
3467000000,107.67928,-176.27725
3468000000,107.64194,-176.5553
3469000000,107.12193,-176.64632
3470000000,106.58154,-176.53224
3471000000,107.12329,-176.86995
3472000000,106.63783,-177.09862
3473000000,106.74191,-177.22188
3474000000,106.51361,-177.42101
3475000000,106.2591,-177.49883
3476000000,106.42049,-177.70572
3477000000,106.23934,-177.89299
3478000000,106.46327,-178.0309
3479000000,105.99419,-178.23843
3480000000,105.64032,-178.21384
3481000000,105.89935,-178.43352
3482000000,105.64986,-178.44756
3483000000,105.56789,-178.55167
3484000000,105.23988,-178.77585
3485000000,105.45106,-178.91386
3486000000,104.97181,-179.29047
3487000000,105.3441,-179.44801
3488000000,104.54768,-179.4429
3489000000,104.63124,-179.60927
3490000000,104.82562,-179.87234
3491000000,104.46911,-179.834
3492000000,104.07071,179.82022
3493000000,104.43182,179.57112
3494000000,103.84265,179.58556
3495000000,104.4229,179.39354
3496000000,104.00019,179.19958
3497000000,104.04527,179.20709
3498000000,103.79501,178.99556
3499000000,103.73717,178.80339
3500000000,103.76181,178.571
3501000000,103.59389,178.56151
3502000000,103.11189,178.34558
3503000000,103.16289,178.19717
3504000000,103.23223,177.94431
3505000000,103.23983,177.746
3506000000,102.68524,177.80713
3507000000,102.9052,177.77234
3508000000,102.58392,177.46941
3509000000,102.33899,177.36751
3510000000,102.36747,177.08211
3511000000,102.35838,177.00612
3512000000,102.23094,176.73776
3513000000,102.16051,176.50699
3514000000,101.77973,176.44638
3515000000,102.17851,176.20406
3516000000,101.97293,175.94334
3517000000,101.56012,175.96318
3518000000,101.36865,175.80968
3519000000,101.38109,175.71149
3520000000,100.9678,175.57216
3521000000,100.97816,175.45177
3522000000,100.53516,175.39268
3523000000,101.20346,174.91745
3524000000,100.70626,175.10526
3525000000,100.91813,174.8275
3526000000,100.85524,174.62442
3527000000,100.31338,174.58824
3528000000,99.826462,174.24844
3529000000,100.08648,174.03372
3530000000,100.47234,174.11758
3531000000,100.06623,173.63608
3532000000,100.09653,173.80397
3533000000,100.09586,173.56184
3534000000,100.09039,173.16707
3535000000,100.02071,173.35413
3536000000,99.981407,172.90964
3537000000,99.313217,173.09749
3538000000,99.561356,173.06624
3539000000,99.582184,172.72684
3540000000,99.519699,172.23503
3541000000,99.920898,172.29173
3542000000,99.292229,171.97812
3543000000,99.535675,171.85234
3544000000,98.812355,171.62732
3545000000,99.081169,171.65308
3546000000,99.18103,171.62717
3547000000,99.089691,171.28908
3548000000,98.563507,171.03169
3549000000,98.194794,171.08372
3550000000,98.109085,170.95273
3551000000,98.287987,170.65973
3552000000,98.187073,170.48265
3553000000,97.798073,170.43166
3554000000,98.307793,170.16043
3555000000,97.997177,169.99333
3556000000,97.897491,169.85985
3557000000,97.940376,169.75142
3558000000,97.326973,169.63095
3559000000,97.40345,169.39655
3560000000,97.368507,169.27049
3561000000,97.315804,169.17732
3562000000,97.542496,168.83301
3563000000,97.116714,168.69154
3564000000,96.910667,168.76653
3565000000,96.827614,168.55743
3566000000,96.833313,168.19104
3567000000,96.481163,168.36627
3568000000,96.763466,168.1068
3569000000,96.402802,168.00697
3570000000,96.540894,167.6927
3571000000,96.395866,167.70004
3572000000,96.365257,167.42657
3573000000,96.202705,167.50159
3574000000,96.593285,167.14136
3575000000,96.126305,166.91608
3576000000,96.168571,166.59567
3577000000,95.572952,166.72713
3578000000,95.305656,166.56792
3579000000,95.197487,166.31754
3580000000,95.698051,166.13478
3581000000,95.423386,165.90491
3582000000,95.737656,165.98729
3583000000,95.455345,165.68225
3584000000,95.11351,165.55447
3585000000,95.264214,165.36073
3586000000,94.945679,165.27032
3587000000,94.829544,165.17819
3588000000,95.257851,164.95703
3589000000,94.314346,164.89606
3590000000,95.352676,164.59537
3591000000,94.135147,164.5681
3592000000,94.546494,164.32927
3593000000,94.185524,164.08549
3594000000,93.943039,164.23962
3595000000,94.101791,163.90019
3596000000,94.195061,163.62712
3597000000,94.252159,163.51515
3598000000,94.178017,163.34492
3599000000,93.666336,163.12373
3600000000,93.934738,163.08858
3601000000,93.900612,163.16522
3602000000,94.059624,162.66483
3603000000,93.481995,162.66527
3604000000,93.300468,162.55293
3605000000,93.447586,162.32797
3606000000,93.10405,162.26898
3607000000,93.225945,162.14284
3608000000,93.151497,162.03352
3609000000,93.114983,161.72672
3610000000,92.604324,161.4958
3611000000,92.659592,161.3596
3612000000,92.624596,161.11501
3613000000,92.630112,160.99974
3614000000,92.884399,160.87828
3615000000,92.791969,160.49362
3616000000,93.502335,160.50798
3617000000,92.223854,160.49109
3618000000,93.022179,160.10632
3619000000,92.748611,160.22931
3620000000,91.977921,160.04123
3621000000,91.846886,160.03828
3622000000,92.026581,159.61565
3623000000,91.911018,159.61813
3624000000,92.091438,159.22772
3625000000,91.736687,159.26923
3626000000,91.603714,158.92633
3627000000,91.360962,158.99013
3628000000,91.374222,158.86432
3629000000,91.936417,158.53719
3630000000,91.576019,158.35704
3631000000,91.756233,158.18219
3632000000,91.565056,158.04897
3633000000,92.065628,157.99196
3634000000,91.537033,157.72067
3635000000,91.568459,157.67531
3636000000,91.954308,157.43948
3637000000,91.423119,157.10278
3638000000,90.181129,157.16409
3639000000,91.422676,157.00604
3640000000,91.074829,156.79807
3641000000,91.162971,156.76904
3642000000,90.15435,156.51825
3643000000,90.435188,156.44972
3644000000,90.945297,155.92911
3645000000,91.29866,156.09277
3646000000,89.604927,155.80606
3647000000,90.966248,155.78062
3648000000,90.760681,155.66646
3649000000,89.949249,155.48868
3650000000,90.299095,155.34045
3651000000,91.133362,155.37831
3652000000,91.132698,155.09772
3653000000,90.076744,154.80896
3654000000,90.508713,154.787
3655000000,90.416359,154.65952
3656000000,90.49379,154.30042
3657000000,90.61409,154.36423
3658000000,90.47583,154.02609
3659000000,90.320839,153.79872
3660000000,90.54821,153.82484
3661000000,90.371826,153.47195
3662000000,89.708267,153.53812
3663000000,90.395996,153.2572
3664000000,89.608017,153.13521
3665000000,90.609108,152.80666
3666000000,90.209488,152.83382
3667000000,90.251122,152.68736
3668000000,90.307495,152.39836
3669000000,89.770699,152.54399
3670000000,90.093903,152.16431
3671000000,90.323914,152.0105
3672000000,89.978958,151.85493
3673000000,89.580666,151.68172
3674000000,89.836182,151.58279
3675000000,89.968948,151.36424
3676000000,90.125023,151.29265
3677000000,88.988152,151.29526
3678000000,89.988281,150.82166
3679000000,89.948563,150.70935
3680000000,89.512817,150.60696
3681000000,90.11071,150.40834
3682000000,89.059822,150.19992
3683000000,89.333313,150.2431
3684000000,89.332176,150.11504
3685000000,89.485489,149.80052
3686000000,89.685577,149.85139
3687000000,89.304428,149.4007
3688000000,89.574883,149.45691
3689000000,89.859657,149.23848
3690000000,89.62838,149.10683
3691000000,89.665726,149.04408
3692000000,89.726715,148.88019
3693000000,89.486389,148.87466
3694000000,90.790077,148.41989
3695000000,90.117638,148.33275
3696000000,89.790085,148.24193
3697000000,89.764229,147.86205
3698000000,90.747948,147.87537
3699000000,90.0625,147.7735
3700000000,89.768021,147.59363
3701000000,89.372986,147.37244
3702000000,89.644348,147.12425
3703000000,89.545013,147.13461
3704000000,90.28627,146.88754
3705000000,90.626541,146.81491
3706000000,90.138596,146.48096
3707000000,90.252518,146.3907
3708000000,90.990295,146.36566
3709000000,90.419601,146.15457
3710000000,90.250641,145.71852
3711000000,90.26104,145.8315
3712000000,90.478523,145.52652
3713000000,90.247688,145.56618
3714000000,90.508499,145.43224
3715000000,89.913025,145.25098
3716000000,90.748634,144.88731
3717000000,90.352287,144.90575
3718000000,90.209557,144.69249
3719000000,90.358772,144.59854
3720000000,90.82489,144.43176
3721000000,90.159225,144.25162
3722000000,90.577171,144.11542
3723000000,90.463158,143.93651
3724000000,90.674133,143.76782
3725000000,91.717239,143.70224
3726000000,91.561134,143.44685
3727000000,91.115799,143.37607
3728000000,90.605072,143.16087
3729000000,90.566544,143.16359
3730000000,90.231796,142.81409
3731000000,91.575645,142.76138
3732000000,90.921036,142.51472
3733000000,92.268921,142.35164
3734000000,91.6315,142.35605
3735000000,92.019714,141.99831
3736000000,92.311043,141.87328
3737000000,92.92363,141.7001
3738000000,92.568855,141.57118
3739000000,92.935402,141.55881
3740000000,93.120369,141.26906
3741000000,93.506859,141.19133
3742000000,94.547585,140.91135
3743000000,93.785225,140.78113
3744000000,93.612663,140.57034
3745000000,93.982559,140.4783
3746000000,94.045471,140.17952
3747000000,92.687698,140.12737
3748000000,94.29705,140.07307
3749000000,95.601189,139.82416
3750000000,94.545174,139.62024
3751000000,93.681633,139.3979
3752000000,93.918671,139.33031
3753000000,95.40667,139.11163
3754000000,95.421494,138.96837
3755000000,94.836746,138.76167
3756000000,95.078499,138.82971
3757000000,96.158363,138.51704
3758000000,96.915565,138.49373
3759000000,97.68837,138.17264
3760000000,95.755333,138.0777
3761000000,98.407913,137.80551
3762000000,97.754936,137.63165
3763000000,96.79052,137.62671
3764000000,98.089325,137.49904
3765000000,97.77343,137.17984
3766000000,98.097923,137.25111
3767000000,98.46714,136.85818
3768000000,99.64122,136.79633
3769000000,99.38131,136.61163
3770000000,98.179657,136.68512
3771000000,100.98297,136.48322
3772000000,99.933151,136.12128
3773000000,101.55225,136.03185
3774000000,100.2777,135.99626
3775000000,102.81134,135.61914
3776000000,102.19676,135.64691
3777000000,100.59827,135.41064
3778000000,103.58071,135.22905
3779000000,103.26651,135.03018
3780000000,104.17197,134.78209
3781000000,104.83215,134.67825
3782000000,104.82864,134.69858
3783000000,106.13984,134.49825
3784000000,107.2415,134.18686
3785000000,107.26667,134.07225
3786000000,107.0904,133.88004
3787000000,106.78674,133.9335
3788000000,106.02303,133.7939
3789000000,108.31961,133.42206
3790000000,108.33339,133.31311
3791000000,109.82167,133.2612
3792000000,109.48304,133.17496
3793000000,110.81744,132.86363
3794000000,111.06683,132.75757
3795000000,114.72946,132.55917
3796000000,112.46801,132.41345
3797000000,113.99804,132.17082
3798000000,112.16951,132.07552
3799000000,113.41141,131.97836
3800000000,113.98125,131.87082
3801000000,114.67864,131.57745
3802000000,115.09234,131.51276
3803000000,114.90232,131.42238
3804000000,116.39111,131.38229
3805000000,116.78312,131.09697
3806000000,117.95584,130.9888
3807000000,117.66262,130.7589
3808000000,119.7604,130.51659
3809000000,119.27567,130.47081
3810000000,122.3955,130.19789
3811000000,121.08651,130.00179
3812000000,120.35423,129.90724
3813000000,124.87298,129.81438
3814000000,124.6841,129.42043
3815000000,126.34289,129.2597
3816000000,127.17807,129.28978
3817000000,126.72803,129.14377
3818000000,125.71439,128.95154
3819000000,128.9753,128.82988
3820000000,131.49959,128.71959
3821000000,129.14622,128.61421
3822000000,132.23698,128.27518
3823000000,131.39703,128.19232
3824000000,134.14713,128.02357
3825000000,133.9043,127.82232
3826000000,136.75519,127.61616
3827000000,136.04588,127.59692
3828000000,137.44179,127.37875
3829000000,136.90979,127.26308
3830000000,137.909,126.94889
3831000000,138.89627,126.98465
3832000000,137.75516,126.84769
3833000000,142.39554,126.60039
3834000000,141.70129,126.65028
3835000000,140.44351,126.20705
3836000000,142.03772,126.23521
3837000000,143.75214,125.98456
3838000000,144.06821,125.9307
3839000000,145.009,125.48687
3840000000,147.31932,125.57163
3841000000,145.72591,125.18141
3842000000,148.68878,125.25826
3843000000,148.29593,124.94639
3844000000,149.47919,124.84338
3845000000,149.36491,124.65556
3846000000,151.52148,124.45657
3847000000,151.70798,124.41881
3848000000,151.57649,124.16125
3849000000,153.23241,123.90394
3850000000,154.74429,123.91007
3851000000,153.01013,123.79547
3852000000,156.04385,123.62169
3853000000,156.54277,123.50471
3854000000,157.96938,123.37834
3855000000,161.07671,122.97546
3856000000,157.59763,122.92464
3857000000,160.81528,122.75354
3858000000,160.97324,122.70396
3859000000,160.63028,122.66883
3860000000,163.10838,122.20209
3861000000,162.70996,122.11582
3862000000,164.13156,121.89138
3863000000,164.27029,121.78838
3864000000,165.91882,121.62431
3865000000,166.02592,121.44507
3866000000,164.35844,121.40163
3867000000,166.57729,121.20827
3868000000,167.66217,121.07258
3869000000,167.86243,120.73856
3870000000,167.68437,120.701
3871000000,171.07741,120.47947
3872000000,169.51443,120.37634
3873000000,169.0838,120.28515
3874000000,167.57359,120.26552
3875000000,169.75717,119.99602
3876000000,172.24174,119.8154
3877000000,173.16556,119.52173
3878000000,170.80853,119.4824
3879000000,173.25233,119.29658
3880000000,173.25444,119.11566
3881000000,171.985,118.89841
3882000000,171.297,118.76609
3883000000,173.55771,118.77612
3884000000,173.42056,118.56802
3885000000,173.0022,118.38329
3886000000,173.37132,118.05486
3887000000,175.07751,118.09907
3888000000,173.7847,117.84806
3889000000,175.55276,117.47449
3890000000,176.35139,117.68704
3891000000,174.90324,117.38037
3892000000,175.5022,117.43382
3893000000,177.81635,117.16302
3894000000,177.05844,116.97031
3895000000,176.78987,116.63706
3896000000,178.08627,116.63772
3897000000,177.17502,116.36438
3898000000,177.19719,116.23418
3899000000,177.67924,116.1198
3900000000,179.13713,115.71117
3901000000,177.81854,115.85379
3902000000,179.11624,115.70225
3903000000,179.23363,115.22623
3904000000,177.68495,115.52144
3905000000,177.44968,115.16857
3906000000,177.66341,114.9654
3907000000,-179.88164,114.9684
3908000000,-178.74773,114.59237
3909000000,179.63931,114.60587
3910000000,-179.20226,114.50579
3911000000,-179.56754,114.14406
3912000000,-179.39621,113.79723
3913000000,179.37628,113.82565
3914000000,-178.78972,113.70762
3915000000,178.61563,113.6489
3916000000,-179.3306,113.36083
3917000000,-178.95712,113.32993
3918000000,-178.45663,113.12967
3919000000,-178.3475,113.09227
3920000000,-179.65508,112.6892
3921000000,-179.07993,112.68866
3922000000,-179.40085,112.46645
3923000000,-178.28505,112.30803
3924000000,-178.15498,112.1268
3925000000,-178.64798,112.06872
3926000000,-177.782,111.89842
3927000000,-177.50598,111.47849
3928000000,-177.62308,111.59902
3929000000,-177.48207,111.32059
3930000000,-177.86687,111.23449
3931000000,-178.18301,111.08646
3932000000,-178.23332,110.9307
3933000000,-177.86003,110.74898
3934000000,-178.69772,110.58054
3935000000,-177.44499,110.31151
3936000000,-177.6515,110.32957
3937000000,-177.4198,110.14185
3938000000,-177.47655,110.06832
3939000000,-177.37781,109.71117
3940000000,-177.13696,109.52055
3941000000,-177.19044,109.39626
3942000000,-177.90059,109.24841
3943000000,-178.14919,109.2264
3944000000,-178.13542,109.01591
3945000000,-179.30315,108.85673
3946000000,-177.58466,108.50124
3947000000,-178.13594,108.65565
3948000000,-178.16592,108.31218
3949000000,-177.43697,108.06842
3950000000,-177.79904,107.87479
3951000000,-178.12408,107.8797
3952000000,-177.50165,107.75594
3953000000,-177.92677,107.67323
3954000000,-178.17047,107.33088
3955000000,-177.54709,107.25584
3956000000,-177.0484,106.95776
3957000000,-178.42738,106.88121
3958000000,-178.06686,106.84226
3959000000,-178.02275,106.79662
3960000000,-178.25829,106.42252
3961000000,-178.75427,106.41553
3962000000,-179.19556,106.2225
3963000000,-176.92726,105.98064
3964000000,-179.06369,106.04256
3965000000,-178.29547,105.78312
3966000000,-177.93478,105.53603
3967000000,-177.6833,105.40521
3968000000,-178.50299,105.29782
3969000000,-178.64862,104.83913
3970000000,-178.45508,104.98378
3971000000,-177.71152,104.67978
3972000000,-177.52135,104.67778
3973000000,-178.98985,104.54814
3974000000,-177.4241,104.28866
3975000000,-177.66554,104.06462
3976000000,-178.83772,103.88142
3977000000,-178.62961,103.88883
3978000000,-178.87347,103.71258
3979000000,-178.38104,103.65154
3980000000,-178.60715,103.29061
3981000000,-179.00778,103.23772
3982000000,-178.71526,102.85838
3983000000,-178.66791,102.7332
3984000000,-178.61415,102.58673
3985000000,-179.30833,102.56569
3986000000,-179.51564,102.35796
3987000000,-178.95943,102.22754
3988000000,179.91798,102.04777
3989000000,-179.60695,101.92986
3990000000,-179.30968,101.8436
3991000000,-179.84306,101.54536
3992000000,-179.3878,101.5757
3993000000,179.48242,101.22173
3994000000,-179.6772,101.15335
3995000000,179.71359,101.09292
3996000000,179.77591,100.72744
3997000000,179.90326,100.55173
3998000000,179.76775,100.49683
3999000000,179.83426,100.29795
4000000000,-179.85011,100.20996
4001000000,179.2133,100.11615
4002000000,179.774,99.959976
4003000000,178.70287,99.677391
4004000000,-179.81038,99.44471
4005000000,179.08311,99.515938
4006000000,179.03383,99.224854
4007000000,179.46397,99.192101
4008000000,178.99791,98.974068
4009000000,179.22508,98.935425
4010000000,179.04854,98.87365
4011000000,178.81749,98.718513
4012000000,179.14343,98.261559
4013000000,178.69695,97.965363
4014000000,178.84901,98.027946
4015000000,178.91678,97.875435
4016000000,178.73853,97.588791
4017000000,178.70586,97.63887
4018000000,178.50214,97.525146
4019000000,177.71147,97.233566
4020000000,177.54971,97.061432
4021000000,178.40251,96.767494
4022000000,177.41885,96.718163
4023000000,177.76125,96.628548
4024000000,177.117,96.4608
4025000000,177.38683,96.32766
4026000000,178.04951,95.90065
4027000000,178.13312,96.011673
4028000000,177.63838,95.82019
4029000000,177.57916,95.618027
4030000000,177.32788,95.361679
4031000000,177.29507,95.328583
4032000000,177.20631,95.055717
4033000000,177.63951,94.994583
4034000000,176.64377,94.911354
4035000000,176.60878,94.699928
4036000000,176.71353,94.559959
4037000000,177.18306,94.507919
4038000000,176.5442,94.312668
4039000000,176.08801,94.036148
4040000000,175.91335,93.839386
4041000000,175.77968,93.703514
4042000000,176.25568,93.39064
4043000000,175.97421,93.524002
4044000000,175.48546,93.421875
4045000000,175.49815,93.065079
4046000000,175.88702,92.896675
4047000000,175.35832,92.884308
4048000000,175.37096,92.654793
4049000000,175.10733,92.511932
4050000000,175.0719,92.183006
4051000000,175.25693,92.010147
4052000000,174.33664,92.091339
4053000000,174.61165,91.809135
4054000000,174.5827,91.768486
4055000000,174.37775,91.598946
4056000000,174.27068,91.382256
4057000000,174.38173,91.445923
4058000000,174.19283,91.104881
4059000000,173.98947,90.965828
4060000000,174.36784,90.916893
4061000000,174.1259,90.583145
4062000000,174.37633,90.373764
4063000000,173.45026,90.349342
4064000000,173.4803,90.18856
4065000000,173.53033,90.154007
4066000000,173.52486,89.842606
4067000000,173.40681,89.755203
4068000000,173.35382,89.60302
4069000000,173.1996,89.334167
4070000000,173.25778,89.329361
4071000000,173.36104,89.169456
4072000000,172.33118,89.011742
4073000000,173.31264,88.889328
4074000000,172.20697,88.636276
4075000000,172.39813,88.41217
4076000000,172.21991,88.222412
4077000000,172.00543,88.128143
4078000000,172.43004,88.14473
4079000000,172.48131,87.785583
4080000000,171.18797,87.725029
4081000000,171.63823,87.607094
4082000000,171.61868,87.162262
4083000000,171.65875,87.26252
4084000000,171.26234,87.005669
4085000000,171.40901,86.921791
4086000000,171.23158,86.783272
4087000000,171.18384,86.589951
4088000000,170.82423,86.337944
4089000000,171.09355,86.223938
4090000000,170.64029,86.001945
4091000000,170.57454,85.940033
4092000000,170.59682,85.757545
4093000000,170.79625,85.562737
4094000000,170.44977,85.463097
4095000000,170.08054,85.166641
4096000000,170.35091,85.326302
4097000000,170.0778,85.066704
4098000000,170.05392,84.765533
4099000000,170.35789,84.925133
4100000000,170.14807,84.480545
4101000000,170.08975,84.433723
4102000000,169.5744,84.310188
4103000000,169.27145,84.286369
4104000000,169.19637,83.950104
4105000000,169.12593,83.83419
4106000000,168.95692,83.549431
4107000000,168.71509,83.530746
4108000000,169.07753,83.283546
4109000000,168.92073,83.305344
4110000000,168.66444,82.885185
4111000000,168.50897,82.998024
4112000000,168.53815,82.71785
4113000000,168.12218,82.656296
4114000000,168.5022,82.429268
4115000000,168.14218,82.340149
4116000000,168.28192,82.054497
4117000000,167.84938,82.068909
4118000000,168.03444,81.83345
4119000000,167.57628,81.624725
4120000000,167.43782,81.542191
4121000000,167.679,81.486
4122000000,167.57133,81.123123
4123000000,167.40814,81.06678
4124000000,167.30458,80.849243
4125000000,167.12431,80.851524
4126000000,167.09294,80.519707
4127000000,166.92749,80.45166
4128000000,166.86844,80.142616
4129000000,166.81328,80.150894
4130000000,166.70993,79.902634
4131000000,166.74881,79.892853
4132000000,166.35928,79.601799
4133000000,166.55342,79.515953
4134000000,166.29547,79.275009
4135000000,165.95129,79.331139
4136000000,166.5217,79.034096
4137000000,166.06818,79.003944
4138000000,165.77747,78.653702
4139000000,165.86917,78.643272
4140000000,166.0522,78.405846
4141000000,165.51421,78.305725
4142000000,165.18095,78.111885
4143000000,165.34712,77.887764
4144000000,165.1846,77.9702
4145000000,165.05186,77.578987
4146000000,164.93626,77.548409
4147000000,164.58691,77.455032
4148000000,164.5233,77.225273
4149000000,164.6568,77.086807
4150000000,165.01147,76.87999
4151000000,164.48007,76.58989
4152000000,164.18661,76.586784
4153000000,164.2446,76.450989
4154000000,163.81334,76.204781
4155000000,164.16945,76.144493
4156000000,163.52554,75.869514
4157000000,164.01987,75.730797
4158000000,163.93214,75.557259
4159000000,163.32219,75.400574
4160000000,163.72725,75.454491
4161000000,163.64183,75.144455
4162000000,163.66206,75.064545
4163000000,163.23357,74.882858
4164000000,163.16301,74.658638
4165000000,163.46944,74.454803
4166000000,163.05211,74.495628
4167000000,162.80527,74.437851
4168000000,162.75998,74.217232
4169000000,162.56139,73.920601
4170000000,162.59836,73.852592
4171000000,162.62785,73.87072
4172000000,162.29817,73.468094
4173000000,162.26169,73.276062
4174000000,162.38091,73.164108
4175000000,162.56087,73.09771
4176000000,161.93306,72.721161
4177000000,162.04021,72.796577
4178000000,161.46306,72.437561
4179000000,161.72342,72.434868
4180000000,161.34233,72.259109
4181000000,161.26678,72.213478
4182000000,161.23166,71.969582
4183000000,161.03065,71.638321
4184000000,161.043,71.658287
4185000000,160.77222,71.512833
4186000000,160.73523,71.188515
4187000000,160.25885,71.059662
4188000000,160.2296,70.981728
4189000000,160.3297,70.793266
4190000000,159.86235,70.682426
4191000000,160.38084,70.378326
4192000000,160.2066,70.381256
4193000000,160.20071,70.143272
4194000000,160.01233,70.161156
4195000000,159.66348,70.057098
4196000000,159.90015,69.697792
4197000000,159.03702,69.575554
4198000000,159.80016,69.593788
4199000000,159.06793,69.191246
4200000000,159.27582,69.175598
4201000000,159.29626,69.004837
4202000000,158.99089,68.929054
4203000000,158.91164,68.704842
4204000000,158.70398,68.520706
4205000000,158.61394,68.426521
4206000000,158.49593,68.138573
4207000000,158.46576,68.005478
4208000000,158.81339,68.077438
4209000000,158.89955,67.777481
4210000000,158.57178,67.544708
4211000000,158.50638,67.424858
4212000000,158.31151,67.276649
4213000000,157.88768,67.112213
4214000000,157.79585,66.793053
4215000000,157.61937,66.645805
4216000000,157.63992,66.621208
4217000000,157.60854,66.586281
4218000000,157.62379,66.292793
4219000000,157.45244,66.268967
4220000000,157.42798,66.056
4221000000,157.26044,65.951584
4222000000,156.98328,65.879181
4223000000,156.93651,65.608429
4224000000,156.61005,65.365196
4225000000,156.5961,65.237511
4226000000,156.36566,65.055496
4227000000,156.43668,64.915619
4228000000,156.28464,64.896484
4229000000,155.89211,64.485779
4230000000,156.12471,64.516922
4231000000,156.13573,64.458542
4232000000,155.99094,64.111374
4233000000,155.55084,63.880466
4234000000,155.52098,63.868732
4235000000,155.3114,63.622742
4236000000,155.20877,63.554527
4237000000,155.03056,63.276348
4238000000,154.89037,63.095142
4239000000,154.47113,63.082283
4240000000,154.91237,62.898338
4241000000,154.72446,62.681973
4242000000,154.61386,62.576992
4243000000,154.70564,62.425602
4244000000,154.61884,62.444679
4245000000,154.39677,62.206509
4246000000,154.70354,61.971912
4247000000,154.13957,61.796574
4248000000,154.43607,61.710541
4249000000,154.16806,61.584129
4250000000,154.64723,61.402969
4251000000,154.30055,61.383217
4252000000,153.92389,60.875687
4253000000,153.9619,60.910309
4254000000,153.52104,60.553761
4255000000,153.5071,60.337563
4256000000,152.93294,60.32328
4257000000,153.48865,60.281017
4258000000,153.26579,60.074165
4259000000,153.00006,60.054932
4260000000,152.97539,59.727402
4261000000,152.58533,59.68462
4262000000,152.93896,59.711529
4263000000,152.55144,59.271194
4264000000,152.96875,59.1604
4265000000,152.33173,59.078056
4266000000,152.01614,58.841362
4267000000,151.98,58.630005
4268000000,151.93762,58.491104
4269000000,151.88057,58.29723
4270000000,151.61542,58.166847
4271000000,151.60115,58.102589
4272000000,151.12477,57.802246
4273000000,151.42102,57.810215
4274000000,151.32056,57.62878
4275000000,150.86537,57.356453
4276000000,151.1617,57.271313
4277000000,150.96608,57.110229
4278000000,150.5986,56.901417
4279000000,150.68912,56.782608
4280000000,150.50798,56.708843
4281000000,150.50494,56.369366
4282000000,150.53955,56.405327
4283000000,150.15392,56.162945
4284000000,150.20576,56.032917
4285000000,150.11247,55.796597
4286000000,150.03348,55.864849
4287000000,149.76872,55.648262
4288000000,149.8143,55.267113
4289000000,149.92265,55.275169
4290000000,149.81837,54.862957
4291000000,149.36778,55.04274
4292000000,149.26213,54.973595
4293000000,148.98315,54.423656
4294000000,148.87601,54.425438
4295000000,148.90192,54.358959
4296000000,148.82484,54.198158
4297000000,149.07776,53.89629
4298000000,148.49496,53.99852
4299000000,148.30919,53.599022
4300000000,148.63779,53.606094
4301000000,148.64125,53.502216
4302000000,148.29933,53.23782
4303000000,148.32155,53.192848
4304000000,147.93575,53.018353
4305000000,147.99994,52.743332
4306000000,147.46854,52.580776
4307000000,147.60347,52.31319
4308000000,147.60506,52.466614
4309000000,147.3383,52.276699
4310000000,147.1443,52.100204
4311000000,147.0927,51.645031
4312000000,147.14949,51.550091
4313000000,146.97723,51.552052
4314000000,146.74959,51.248863
4315000000,146.74435,51.399162
4316000000,146.57875,51.048637
4317000000,146.70103,50.913776
4318000000,146.26234,50.890903
4319000000,145.98639,50.494961
4320000000,145.78334,50.498798
4321000000,145.93141,50.384361
4322000000,145.89116,50.099728
4323000000,145.93517,49.859589
4324000000,145.84225,49.944736
4325000000,145.54445,49.6404
4326000000,145.47112,49.40266
4327000000,145.28146,49.152882
4328000000,145.44362,49.182991
4329000000,144.8802,49.034344
4330000000,145.07336,48.786518
4331000000,144.29745,48.429123
4332000000,144.65723,48.499798
4333000000,144.58064,48.279083
4334000000,144.42967,48.34729
4335000000,144.28503,48.074409
4336000000,144.3222,47.940331
4337000000,144.39958,47.77037
4338000000,144.23991,47.617531
4339000000,143.94189,47.359825
4340000000,143.53236,47.051067
4341000000,143.82364,47.250168
4342000000,143.50769,46.775028
4343000000,143.3185,46.70657
4344000000,143.55946,46.807014
4345000000,143.26703,46.61742
4346000000,143.17413,46.281044
4347000000,143.11035,46.243393
4348000000,142.71281,46.130905
4349000000,143.01129,46.032276
4350000000,142.75385,45.854439
4351000000,142.55632,45.461082
4352000000,142.67259,45.528683
4353000000,142.39622,45.464554
4354000000,141.91637,45.074524
4355000000,141.88612,45.044308
4356000000,141.73837,44.663212
4357000000,141.56262,44.750538
4358000000,141.72549,44.584019
4359000000,141.47415,44.19894
4360000000,141.22758,44.138714
4361000000,141.28699,44.114742
4362000000,140.50821,43.910698
4363000000,141.47078,43.838207
4364000000,140.96785,43.542744
4365000000,141.13499,43.385132
4366000000,140.38042,43.033749
4367000000,140.64415,43.176849
4368000000,140.87198,43.072617
4369000000,141.09947,42.827686
4370000000,139.91875,42.647114
4371000000,140.67519,42.648994
4372000000,140.04193,42.255604
4373000000,140.14827,42.126045
4374000000,139.70969,42.178196
4375000000,139.96812,41.970009
4376000000,139.56091,41.449818
4377000000,139.68562,41.526028
4378000000,139.59016,41.4002
4379000000,139.20578,41.063469
4380000000,139.03743,41.04958
4381000000,139.34268,40.932594
4382000000,139.3494,40.852367
4383000000,138.87828,40.624027
4384000000,138.73227,40.522114
4385000000,138.26143,40.157665
4386000000,138.66382,40.18428
4387000000,138.64458,39.930874
4388000000,138.31224,39.695667
4389000000,138.2601,39.711487
4390000000,138.43716,39.644054
4391000000,138.6602,39.322403
4392000000,138.3318,39.272274
4393000000,137.7541,39.127342
4394000000,137.96309,38.901234
4395000000,138.07407,38.734108
4396000000,137.24895,38.43206
4397000000,137.54089,38.416458
4398000000,137.28796,38.220619
4399000000,137.3027,37.897446
4400000000,137.4738,38.025673
4401000000,136.50336,37.695457
4402000000,136.91927,37.650135
4403000000,137.17528,37.549557
4404000000,137.0555,37.530342
4405000000,136.6088,37.143356
4406000000,136.49904,37.067032
4407000000,136.35342,36.80595
4408000000,136.16402,36.511284
4409000000,136.19173,36.508698
4410000000,136.12405,36.58131
4411000000,136.52632,36.276791
4412000000,135.89093,36.14064
4413000000,135.98137,35.803532
4414000000,135.61311,35.723976
4415000000,135.93307,35.605347
4416000000,135.49086,35.423862
4417000000,136.20003,35.338779
4418000000,135.67209,35.12006
4419000000,135.70949,35.073109
4420000000,135.11952,34.745285
4421000000,135.11087,34.86396
4422000000,135.1837,34.434834
4423000000,135.10666,34.390968
4424000000,134.85663,34.126419
4425000000,135.00739,34.092545
4426000000,135.50504,33.949474
4427000000,134.95012,33.773136
4428000000,134.79791,33.501396
4429000000,134.5186,33.335041
4430000000,134.35779,33.358871
4431000000,134.52676,32.996708
4432000000,134.10605,32.834263
4433000000,134.44511,32.898003
4434000000,135.16542,32.735256
4435000000,133.99588,32.36763
4436000000,134.23276,32.258537
4437000000,133.96918,32.142704
4438000000,133.48068,31.810787
4439000000,133.77975,31.856514
4440000000,134.03348,31.747856
4441000000,133.81529,31.530731
4442000000,133.16031,31.218357
4443000000,133.53406,31.178646
4444000000,133.1104,31.076836
4445000000,133.27258,30.843317
4446000000,133.54707,30.783249
4447000000,133.68791,30.630602
4448000000,133.03659,30.249565
4449000000,133.39328,30.221966
4450000000,132.49475,30.148632
4451000000,132.43806,29.752783
4452000000,132.62788,29.77914
4453000000,132.54591,29.570091
4454000000,132.62936,29.353323
4455000000,132.40218,29.294159
4456000000,132.64784,29.144855
4457000000,132.85988,29.097143
4458000000,132.08553,28.871996
4459000000,132.26476,28.688629
4460000000,132.23907,28.582401
4461000000,132.1805,28.378702
4462000000,132.31723,28.264997
4463000000,131.48187,28.008011
4464000000,132.32961,27.937225
4465000000,132.02574,27.806381
4466000000,132.16415,27.688925
4467000000,131.99425,27.328064
4468000000,131.70966,27.300081
4469000000,131.62976,27.028933
4470000000,131.30859,26.941027
4471000000,131.79538,26.865831
4472000000,131.6228,26.608727
4473000000,132.30142,26.606804
4474000000,131.31712,26.407183
4475000000,132.23091,26.131504
4476000000,130.79358,25.921955
4477000000,131.05257,25.835855
4478000000,131.31055,25.627796
4479000000,132.15439,25.549608
4480000000,130.98743,25.356792
4481000000,131.33223,25.299734
4482000000,131.00983,25.112465
4483000000,131.0434,24.965149
4484000000,131.88847,24.872967
4485000000,131.80792,24.805529
4486000000,131.53383,24.40856
4487000000,131.4146,24.219728
4488000000,131.41061,24.113853
4489000000,130.70511,23.822584
4490000000,131.11963,23.894768
4491000000,130.78169,23.584856
4492000000,130.02095,23.497881
4493000000,130.31078,23.283979
4494000000,130.52132,23.115269
4495000000,131.00417,23.206636
4496000000,130.68321,22.826899
4497000000,130.67577,22.64916
4498000000,130.39679,22.612921
4499000000,130.7693,22.405193
4500000000,130.7012,22.144754
4501000000,130.69714,22.077713
4502000000,130.36563,21.878145
4503000000,130.86363,21.920132
4504000000,130.36429,21.727057
4505000000,130.49767,21.523573
4506000000,130.50688,21.244287
4507000000,130.69415,21.103655
4508000000,130.51447,21.020077
4509000000,130.82733,20.97822
4510000000,129.87961,20.603567
4511000000,130.68213,20.616219
4512000000,130.57948,20.345747
4513000000,130.58002,20.300859
4514000000,130.40495,20.111435
4515000000,130.72777,19.827105
4516000000,130.24892,19.84226
4517000000,130.98221,19.593172
4518000000,130.94453,19.382374
4519000000,130.34312,19.409403
4520000000,130.3494,18.993122
4521000000,130.43901,18.905113
4522000000,130.739,18.599321
4523000000,131.00465,18.657982
4524000000,131.48141,18.555626
4525000000,130.5524,18.364321
4526000000,130.75012,18.162304
4527000000,131.09151,18.018351
4528000000,130.93547,17.997034
4529000000,130.54189,17.67584
4530000000,131.59488,17.573896
4531000000,131.53194,17.469505
4532000000,131.12396,17.306358
4533000000,130.50107,16.931055
4534000000,131.27182,16.901699
4535000000,131.03912,16.747684
4536000000,131.28076,16.659891
4537000000,131.52151,16.435032
4538000000,131.09735,16.246496
4539000000,130.87904,16.037336
4540000000,131.24364,15.928058
4541000000,131.62585,15.877323
4542000000,131.79588,15.691766
4543000000,131.30962,15.588541
4544000000,131.90044,15.421211
4545000000,132.30812,15.089017
4546000000,131.18965,14.982462
4547000000,131.53142,14.811665
4548000000,132.75699,14.631389
4549000000,132.54678,14.559493
4550000000,132.09488,14.46827
4551000000,132.48077,14.078013
4552000000,133.02444,14.072824
4553000000,132.57059,13.880589
4554000000,133.11986,13.607988
4555000000,132.17841,13.512876
4556000000,132.68227,13.247816
4557000000,133.78752,13.276804
4558000000,132.6573,13.009678
4559000000,133.61266,12.985194
4560000000,134.15927,12.90026
4561000000,134.13206,12.686077
4562000000,134.69974,12.563378
4563000000,133.67126,12.370305
4564000000,133.83961,12.137542
4565000000,134.1017,12.062868
4566000000,134.70271,11.845996
4567000000,134.67021,11.771021
4568000000,134.87201,11.512651
4569000000,135.0332,11.34403
4570000000,136.02299,11.272422
4571000000,136.17456,11.031978
4572000000,135.44284,10.897945
4573000000,135.55208,10.751658
4574000000,137.61913,10.422792
4575000000,137.87419,10.486341
4576000000,137.74875,10.326793
4577000000,138.0363,10.034677
4578000000,138.09349,10.082214
4579000000,138.16656,9.7931137
4580000000,137.36246,9.6692171
4581000000,137.61621,9.3773308
4582000000,138.6053,9.2657757
4583000000,137.79951,9.3208685
4584000000,138.79591,9.0057564
4585000000,140.90472,8.8959084
4586000000,140.43456,8.7034035
4587000000,138.91016,8.4531107
4588000000,141.25677,8.497714
4589000000,141.77925,8.1358299
4590000000,142.09604,8.1270342
4591000000,143.20578,7.9928803
4592000000,143.40784,7.8887124
4593000000,143.23325,7.7073317
4594000000,144.23279,7.4219942
4595000000,144.49394,7.4559851
4596000000,145.08913,7.0529175
4597000000,145.33437,6.9635034
4598000000,147.35292,6.8501105
4599000000,147.26974,6.5930095
4600000000,145.77788,6.4274683
4601000000,146.83043,6.3620648
4602000000,147.76843,6.0005064
4603000000,148.8452,5.9922633
4604000000,150.32552,5.9041028
4605000000,150.11763,5.719749
4606000000,152.3064,5.5328202
4607000000,152.3094,5.2785611
4608000000,154.43291,5.3800654
4609000000,154.14711,5.0854759
4610000000,155.78615,4.8602686
4611000000,154.62906,4.8883367
4612000000,156.90608,4.5461087
4613000000,156.87602,4.4918776
4614000000,158.24475,4.2922916
4615000000,158.64359,4.0764403
4616000000,161.54944,3.9537954
4617000000,160.47971,3.6550434
4618000000,163.93971,3.5264688
4619000000,162.92218,3.3987529
4620000000,163.31961,3.3457208
4621000000,166.70216,3.1907511
4622000000,167.57495,2.9858921
4623000000,169.6394,2.8563681
4624000000,167.02274,2.6085086
4625000000,170.40553,2.4952979
4626000000,172.83987,2.2275834
4627000000,171.60687,2.2499645
4628000000,171.98413,2.0102201
4629000000,176.53662,1.8432615
4630000000,177.36069,1.7724522
4631000000,178.37817,1.6459566
4632000000,-177.68585,1.4961265
4633000000,-178.75198,1.140871
4634000000,-178.26898,1.1891103
4635000000,-175.65141,1.0221814
4636000000,-174.12335,0.83009928
4637000000,-172.60699,0.68535501
4638000000,-170.40077,0.57272011
4639000000,-169.1293,0.26786956
4640000000,-168.42854,0.13440388
4641000000,-166.68724,0.19591092
4642000000,-165.29056,-0.2166585
4643000000,-163.0211,-0.40800655
4644000000,-162.99193,-0.44361112
4645000000,-161.79225,-0.52398056
4646000000,-159.45074,-0.76607823
4647000000,-157.48935,-0.96351069
4648000000,-157.63208,-1.0182096
4649000000,-154.22391,-1.3898982
4650000000,-152.88095,-1.5409682
4651000000,-152.25984,-1.7983224
4652000000,-151.35368,-1.6930407
4653000000,-148.77345,-1.8831769
4654000000,-150.16359,-2.1645482
4655000000,-148.19264,-2.1970065
4656000000,-148.02414,-2.4375508
4657000000,-144.59595,-2.5205598
4658000000,-145.18231,-2.6038272
4659000000,-143.61539,-2.8869674
4660000000,-139.3356,-3.0453367
4661000000,-139.59592,-3.1945732
4662000000,-141.75777,-3.4173701
4663000000,-141.23723,-3.5110333
4664000000,-138.61922,-3.7713313
4665000000,-139.36757,-3.8622108
4666000000,-137.28232,-4.0988436
4667000000,-137.21449,-4.1279917
4668000000,-134.72351,-4.4054823
4669000000,-136.21999,-4.323339
4670000000,-132.89682,-4.602591
4671000000,-132.8063,-4.9411802
4672000000,-133.24976,-4.9080577
4673000000,-131.29449,-5.1535168
4674000000,-131.09038,-5.229198
4675000000,-129.19551,-5.4486156
4676000000,-131.04533,-5.500679
4677000000,-129.20554,-5.8925872
4678000000,-129.31131,-5.9148598
4679000000,-128.18016,-6.0285425
4680000000,-127.81725,-6.2877674
4681000000,-129.66541,-6.5606523
4682000000,-127.80215,-6.4801526
4683000000,-126.94069,-6.6249866
4684000000,-125.58834,-6.8562098
4685000000,-126.77241,-7.2258902
4686000000,-124.90635,-7.2090282
4687000000,-123.62103,-7.4570684
4688000000,-124.87729,-7.5395479
4689000000,-125.03124,-7.6874695
4690000000,-124.61961,-7.9438815
4691000000,-123.30875,-7.990921
4692000000,-124.57152,-7.9662018
4693000000,-123.67834,-8.3364105
4694000000,-122.39481,-8.5125628
4695000000,-120.88942,-8.7830143
4696000000,-122.63088,-8.8260221
4697000000,-122.34081,-8.8111858
4698000000,-121.86202,-9.2268925
4699000000,-121.67011,-9.3874273
4700000000,-120.697,-9.4581366
4701000000,-120.52839,-9.5958385
4702000000,-120.74464,-9.8381977
4703000000,-119.89201,-9.8481836
4704000000,-120.88185,-10.012251
4705000000,-119.67735,-10.199759
4706000000,-119.92754,-10.357293
4707000000,-120.26493,-10.459617
4708000000,-119.14943,-10.684034
4709000000,-119.7383,-11.054091
4710000000,-118.41816,-11.229887
4711000000,-120.32906,-11.254078
4712000000,-119.4786,-11.285721
4713000000,-118.65443,-11.639224
4714000000,-119.13432,-11.585594
4715000000,-118.12784,-11.937488
4716000000,-118.60054,-12.096295
4717000000,-118.49082,-12.26302
4718000000,-117.66077,-12.502463
4719000000,-118.41743,-12.608494
4720000000,-118.6117,-12.455554
4721000000,-117.91214,-12.91045
4722000000,-117.55849,-13.058246
4723000000,-118.21148,-13.095195
4724000000,-117.89255,-13.351159
4725000000,-118.04862,-13.486255
4726000000,-117.54662,-13.752046
4727000000,-117.89104,-13.707592
4728000000,-116.85255,-14.015963
4729000000,-116.63068,-14.14923
4730000000,-117.75439,-14.184007
4731000000,-117.6408,-14.349987
4732000000,-117.0705,-14.463004
4733000000,-117.20954,-14.882757
4734000000,-117.37863,-14.782637
4735000000,-117.56148,-14.912653
4736000000,-117.20594,-15.224236
4737000000,-116.88212,-15.500571
4738000000,-117.24422,-15.749515
4739000000,-115.87928,-15.770945
4740000000,-117.44274,-15.804173
4741000000,-116.92179,-16.212357
4742000000,-117.69794,-16.035221
4743000000,-116.92995,-16.343887
4744000000,-116.31618,-16.383503
4745000000,-115.92953,-16.80051
4746000000,-117.28837,-16.838503
4747000000,-117.02699,-17.021721
4748000000,-117.23536,-17.154942
4749000000,-117.33244,-17.35
4750000000,-116.40868,-17.614151
4751000000,-116.95525,-17.711849
4752000000,-117.52626,-17.82654
4753000000,-117.91862,-17.939283
4754000000,-117.34605,-18.113152
4755000000,-117.45968,-18.295416
4756000000,-117.27885,-18.568071
4757000000,-117.64004,-18.630001
4758000000,-116.98853,-18.88052
4759000000,-117.08536,-18.993591
4760000000,-117.12353,-19.106306
4761000000,-117.7981,-19.288956
4762000000,-117.34989,-19.435453
4763000000,-117.35205,-19.626328
4764000000,-116.96162,-19.810324
4765000000,-117.85061,-20.033518
4766000000,-118.33447,-20.190136
4767000000,-117.87983,-20.373734
4768000000,-118.31657,-20.454309
4769000000,-118.73112,-20.513481
4770000000,-117.72143,-20.697571
4771000000,-117.85478,-20.883993
4772000000,-118.56803,-20.873169
4773000000,-117.74612,-21.369865
4774000000,-118.55019,-21.347698
4775000000,-118.49796,-21.404194
4776000000,-118.67738,-21.653883
4777000000,-118.35287,-21.822458
4778000000,-118.66256,-22.058168
4779000000,-118.93147,-22.055029
4780000000,-118.50197,-22.33132
4781000000,-119.29945,-22.469564
4782000000,-117.85468,-22.807358
4783000000,-119.10992,-22.928175
4784000000,-118.59274,-23.16637
4785000000,-118.67165,-23.176382
4786000000,-118.48514,-23.385601
4787000000,-119.00994,-23.425436
4788000000,-119.43497,-23.488295
4789000000,-119.02634,-23.759562
4790000000,-118.7934,-24.104485
4791000000,-119.55141,-24.098936
4792000000,-119.59667,-24.264339
4793000000,-119.43963,-24.513664
4794000000,-119.97617,-24.600618
4795000000,-119.30353,-24.834635
4796000000,-120.2384,-25.08769
4797000000,-119.70377,-24.987795
4798000000,-119.85442,-25.215864
4799000000,-120.21172,-25.433613
4800000000,-120.26982,-25.515308
4801000000,-120.51865,-25.731823
4802000000,-120.36208,-25.900724
4803000000,-120.08026,-26.156601
4804000000,-120.55376,-26.410425
4805000000,-120.261,-26.43026
4806000000,-120.74978,-26.562162
4807000000,-121.02083,-26.713032
4808000000,-120.83881,-26.93779
4809000000,-120.87293,-27.04949
4810000000,-120.87718,-27.371653
4811000000,-121.25374,-27.448736
4812000000,-122.01731,-27.518654
4813000000,-122.02142,-27.616785
4814000000,-121.75018,-27.81811
4815000000,-121.29416,-28.149549
4816000000,-122.45581,-28.135181
4817000000,-122.6861,-28.468864
4818000000,-121.86885,-28.490385
4819000000,-122.12798,-28.627054
4820000000,-122.60632,-28.953804
4821000000,-122.09538,-28.976671
4822000000,-121.92833,-29.198616
4823000000,-122.2886,-29.353277
4824000000,-122.38078,-29.390581
4825000000,-122.61652,-29.567532
4826000000,-123.08296,-29.627161
4827000000,-122.78748,-29.9881
4828000000,-123.2269,-30.067968
4829000000,-122.67807,-30.224905
4830000000,-123.17979,-30.335989
4831000000,-123.25076,-30.589434
4832000000,-123.37135,-30.680393
4833000000,-122.93269,-30.935371
4834000000,-123.25049,-31.1014
4835000000,-123.67274,-31.280792
4836000000,-123.45085,-31.292068
4837000000,-124.24211,-31.486021
4838000000,-123.58173,-31.86006
4839000000,-124.76305,-31.815639
4840000000,-124.56393,-31.988361
4841000000,-124.41006,-32.239075
4842000000,-124.80424,-32.415504
4843000000,-124.47521,-32.434887
4844000000,-125.2275,-32.664803
4845000000,-124.56132,-32.92524
4846000000,-125.04736,-33.057182
4847000000,-125.16494,-33.090137
4848000000,-125.43166,-33.330086
4849000000,-126.21636,-33.3451
4850000000,-125.15424,-33.642628
4851000000,-125.17963,-33.784679
4852000000,-125.81773,-33.997765
4853000000,-126.27184,-33.933537
4854000000,-125.4036,-34.152142
4855000000,-126.16068,-34.400738
4856000000,-126.97912,-34.478085
4857000000,-126.54331,-34.646614
4858000000,-126.15161,-34.728516
4859000000,-126.79929,-35.155636
4860000000,-126.77171,-35.09391
4861000000,-127.00009,-35.436573
4862000000,-126.9686,-35.572979
4863000000,-126.80095,-35.694077
4864000000,-127.35283,-35.880543
4865000000,-126.95676,-35.982197
4866000000,-128.19121,-36.029186
4867000000,-127.82114,-36.36533
4868000000,-127.8195,-36.231171
4869000000,-127.61768,-36.557411
4870000000,-127.91544,-36.867435
4871000000,-127.7048,-36.9902
4872000000,-127.69539,-37.036083
4873000000,-127.75691,-37.28075
4874000000,-128.07797,-37.357376
4875000000,-128.26749,-37.426491
4876000000,-128.31656,-37.624046
4877000000,-129.05331,-37.71101
4878000000,-128.19072,-38.111153
4879000000,-128.56996,-38.163589
4880000000,-129.17059,-38.301971
4881000000,-129.01849,-38.440502
4882000000,-129.1015,-38.60022
4883000000,-129.42958,-38.787373
4884000000,-129.48477,-38.874844
4885000000,-129.33855,-39.147976
4886000000,-129.1568,-39.277863
4887000000,-130.04613,-39.377296
4888000000,-129.85229,-39.374981
4889000000,-130.10994,-39.61018
4890000000,-130.39633,-40.048679
4891000000,-130.24544,-39.873329
4892000000,-129.84184,-40.296253
4893000000,-130.62892,-40.346394
4894000000,-130.54584,-40.44915
4895000000,-130.43976,-40.682358
4896000000,-130.44003,-40.917267
4897000000,-131.26472,-41.064785
4898000000,-131.26372,-41.066341
4899000000,-131.11098,-41.487156
4900000000,-131.18039,-41.489849
4901000000,-131.97182,-41.386116
4902000000,-131.7646,-41.690796
4903000000,-131.55565,-41.927349
4904000000,-132.23332,-41.962246
4905000000,-132.06842,-42.131741
4906000000,-131.60721,-42.345448
4907000000,-132.35689,-42.386368
4908000000,-132.41664,-42.626789
4909000000,-131.8363,-42.660686
4910000000,-132.1572,-42.804131
4911000000,-132.3654,-43.126385
4912000000,-132.10606,-43.115559
4913000000,-132.3735,-43.385632
4914000000,-132.62224,-43.461529
4915000000,-133.1907,-43.741863
4916000000,-133.34428,-43.881573
4917000000,-133.06166,-43.98069
4918000000,-133.07811,-44.196793
4919000000,-133.69386,-44.404285
4920000000,-133.70294,-44.481445
4921000000,-132.91833,-44.551292
4922000000,-133.62613,-44.893925
4923000000,-133.78119,-44.879341
4924000000,-133.5921,-45.071724
4925000000,-133.78392,-45.321526
4926000000,-134.31544,-45.498497
4927000000,-134.40411,-45.631104
4928000000,-133.88069,-45.885223
4929000000,-133.85414,-45.899658
4930000000,-134.5452,-46.003891
4931000000,-134.90993,-46.262196
4932000000,-135.00243,-46.258293
4933000000,-135.2636,-46.655312
4934000000,-135.25323,-46.667164
4935000000,-135.356,-46.883785
4936000000,-135.7836,-46.871941
4937000000,-135.07027,-47.23785
4938000000,-135.41422,-47.278606
4939000000,-135.51729,-47.419971
4940000000,-135.42873,-47.562973
4941000000,-135.35144,-47.732437
4942000000,-135.92107,-47.885773
4943000000,-135.95479,-48.086685
4944000000,-135.72749,-48.171246
4945000000,-135.69955,-48.322407
4946000000,-136.06351,-48.436501
4947000000,-135.36174,-48.731277
4948000000,-136.11009,-48.748299
4949000000,-136.48639,-48.861103
4950000000,-136.60246,-49.172016
4951000000,-136.57458,-49.191795
4952000000,-136.2852,-49.386436
4953000000,-136.27203,-49.536251
4954000000,-136.48358,-49.662785
4955000000,-136.57704,-49.965698
4956000000,-137.09154,-49.929226
4957000000,-137.01898,-50.208817
4958000000,-136.73994,-50.41077
4959000000,-137.75244,-50.588043
4960000000,-137.49048,-50.641045
4961000000,-137.42639,-50.861721
4962000000,-137.36203,-50.812355
4963000000,-137.94373,-51.076042
4964000000,-137.13487,-51.212532
4965000000,-138.58282,-51.309292
4966000000,-137.74635,-51.403614
4967000000,-138.08566,-51.690891
4968000000,-137.77338,-51.876057
4969000000,-137.96611,-52.082237
4970000000,-137.92326,-52.107517
4971000000,-138.36942,-52.395477
4972000000,-138.19099,-52.389645
4973000000,-138.04996,-52.495846
4974000000,-138.87183,-52.849167
4975000000,-138.70419,-52.917675
4976000000,-138.85994,-52.966545
4977000000,-138.69316,-53.329075
4978000000,-139.25595,-53.344902
4979000000,-139.68149,-53.452057
4980000000,-139.21445,-53.688396
4981000000,-139.83209,-53.880463
4982000000,-139.19176,-54.170696
4983000000,-139.9803,-54.05732
4984000000,-138.50616,-54.402489
4985000000,-139.14522,-54.498348
4986000000,-139.51985,-54.785412
4987000000,-139.69202,-54.7285
4988000000,-139.64635,-54.922192
4989000000,-140.16095,-55.065792
4990000000,-139.14359,-55.255096
4991000000,-139.86462,-55.527809
4992000000,-140.04417,-55.755531
4993000000,-140.89006,-55.716545
4994000000,-140.22012,-55.807449
4995000000,-139.99205,-56.064083
4996000000,-140.83218,-56.226276
4997000000,-140.48883,-56.417538
4998000000,-140.52293,-56.451595
4999000000,-140.82478,-56.664993
5000000000,-140.61942,-56.629574
END

