!CSV A.01.01
!Agilent Technologies,E8362C,MY49020225,A.09.42.22
!Agilent E8362C: A.09.42.22
!Date: Friday, March 04, 2016 14:43:59
!Source: Standard

BEGIN CH1_DATA
Freq(Hz),S11 Phase(°),S21 Phase(°)
1000000000,72.231026,177.08978
1001000000,72.306557,177.04395
1002000000,71.870766,176.73462
1003000000,71.68634,176.53337
1004000000,71.470078,176.33142
1005000000,71.219437,176.13741
1006000000,71.144356,176.04648
1007000000,70.880592,175.82104
1008000000,70.702194,175.6389
1009000000,70.346329,175.40771
1010000000,70.416786,175.24878
1011000000,69.684135,174.65048
1012000000,69.657913,174.66135
1013000000,69.737495,174.55716
1014000000,69.252457,174.32843
1015000000,69.353729,174.10294
1016000000,68.842133,173.91371
1017000000,68.560135,173.62105
1018000000,68.581161,173.56113
1019000000,68.289124,173.24603
1020000000,68.032166,173.12926
1021000000,67.782097,172.91034
1022000000,68.037643,172.77448
1023000000,67.470924,172.63594
1024000000,67.351021,172.45688
1025000000,67.086838,172.24452
1026000000,66.900047,172.00101
1027000000,66.713203,171.7117
1028000000,66.236259,171.50514
1029000000,66.277855,171.41641
1030000000,65.816994,171.14703
1031000000,65.681358,171.02258
1032000000,65.509453,170.79591
1033000000,65.342033,170.65688
1034000000,64.90657,170.31924
1035000000,64.857658,170.29482
1036000000,64.644699,169.98788
1037000000,64.365181,169.90738
1038000000,64.131638,169.64789
1039000000,64.068726,169.5106
1040000000,63.815811,169.19328
1041000000,63.498482,169.00652
1042000000,63.384541,168.90527
1043000000,62.623211,168.49179
1044000000,63.061623,168.44215
1045000000,62.559261,168.22154
1046000000,62.111328,168.04778
1047000000,62.186871,167.81416
1048000000,61.588493,167.52098
1049000000,61.666355,167.43997
1050000000,61.627747,167.28725
1051000000,61.39093,166.84343
1052000000,61.043034,166.72993
1053000000,60.36731,166.51196
1054000000,60.443043,166.51591
1055000000,60.455494,166.30356
1056000000,60.170517,165.98357
1057000000,59.675785,165.6806
1058000000,59.420616,165.46141
1059000000,59.244469,165.37553
1060000000,58.972122,165.23222
1061000000,58.53722,165.16525
1062000000,58.393166,164.76649
1063000000,58.435928,164.64662
1064000000,57.954792,164.40256
1065000000,57.537331,164.36234
1066000000,57.125435,164.0433
1067000000,56.889954,163.96678
1068000000,56.262108,163.75046
1069000000,56.517433,163.3344
1070000000,56.045273,163.28998
1071000000,55.64259,163.05438
1072000000,55.451809,162.87221
1073000000,54.801228,162.54617
1074000000,54.21949,162.51033
1075000000,54.124561,162.20847
1076000000,55.145367,162.12445
1077000000,53.600048,161.99037
1078000000,53.541218,161.67282
1079000000,53.496479,161.40501
1080000000,53.24527,161.19107
1081000000,52.408844,160.94217
1082000000,52.873047,160.66029
1083000000,51.863083,160.7086
1084000000,51.879829,160.41882
1085000000,51.006191,160.28212
1086000000,50.727982,160.0522
1087000000,50.757618,159.89302
1088000000,50.187088,159.5461
1089000000,49.098045,159.54802
1090000000,48.27594,159.22218
1091000000,48.171806,159.10008
1092000000,47.639713,158.84256
1093000000,47.287262,158.74236
1094000000,48.145565,158.54109
1095000000,46.037407,158.28033
1096000000,44.280239,158.11809
1097000000,45.022587,157.86748
1098000000,46.503708,157.49734
1099000000,41.584568,157.58241
1100000000,41.460148,157.2254
1101000000,39.636883,156.97244
1102000000,40.521278,156.91496
1103000000,38.411251,156.49486
1104000000,38.668648,156.41139
1105000000,34.224201,156.25089
1106000000,30.19698,156.15564
1107000000,31.817019,155.8923
1108000000,27.293354,155.67105
1109000000,21.74214,155.44568
1110000000,10.070963,155.10423
1111000000,-13.391639,155.03735
1112000000,-16.017929,154.73528
1113000000,-41.183861,154.66133
1114000000,-57.77985,154.30914
1115000000,-72.909378,154.31566
1116000000,-91.184547,153.93007
1117000000,-87.804466,153.67122
1118000000,-97.37088,153.87221
1119000000,-106.4356,153.41603
1120000000,-105.64546,153.2002
1121000000,-110.0815,152.89807
1122000000,-112.43464,152.67363
1123000000,-113.1795,152.7514
1124000000,-115.68739,152.46468
1125000000,-117.32214,152.18069
1126000000,-118.16898,151.981
1127000000,-119.65784,151.89679
1128000000,-119.82413,151.63574
1129000000,-120.08797,151.3477
1130000000,-122.32281,151.17696
1131000000,-120.70576,151.0497
1132000000,-124.20978,150.71976
1133000000,-122.64807,150.62436
1134000000,-124.08627,150.30342
1135000000,-123.80457,150.20256
1136000000,-125.1779,149.97917
1137000000,-127.05854,149.7645
1138000000,-126.40489,149.3927
1139000000,-128.66548,149.35829
1140000000,-126.70333,149.0708
1141000000,-129.46622,148.82979
1142000000,-126.42791,148.65852
1143000000,-129.21292,148.42972
1144000000,-129.60846,148.20647
1145000000,-128.73026,148.19173
1146000000,-130.24292,147.82379
1147000000,-129.39978,147.65063
1148000000,-130.81714,147.3233
1149000000,-131.18965,147.17508
1150000000,-130.46721,147.03827
1151000000,-131.22763,146.82323
1152000000,-132.31052,146.72572
1153000000,-132.24751,146.40002
1154000000,-131.64293,146.32434
1155000000,-133.0175,146.02208
1156000000,-132.12338,145.90294
1157000000,-132.28436,145.57993
1158000000,-133.45412,145.47311
1159000000,-133.95702,145.12393
1160000000,-133.12437,145.18178
1161000000,-133.06212,144.76299
1162000000,-134.3907,144.76724
1163000000,-134.19533,144.48187
1164000000,-134.10564,144.26132
1165000000,-134.86302,143.93471
1166000000,-134.55458,143.83206
1167000000,-135.03526,143.56358
1168000000,-135.79655,143.26421
1169000000,-136.08258,143.31946
1170000000,-136.08032,143.04959
1171000000,-136.28574,143.03905
1172000000,-136.76146,142.60048
1173000000,-136.68771,142.42584
1174000000,-137.40089,142.20052
1175000000,-137.17374,142.11293
1176000000,-137.26587,141.83701
1177000000,-137.10962,141.50221
1178000000,-137.58733,141.40387
1179000000,-138.13004,141.03505
1180000000,-138.09833,141.13387
1181000000,-138.2606,140.89926
1182000000,-139.40796,140.6468
1183000000,-138.39653,140.4958
1184000000,-139.6965,140.37918
1185000000,-139.95815,139.89003
1186000000,-140.05423,139.84915
1187000000,-140.59242,139.58461
1188000000,-140.4355,139.42705
1189000000,-140.12912,139.05992
1190000000,-140.79263,138.78838
1191000000,-140.90729,138.72083
1192000000,-141.19429,138.4726
1193000000,-141.03026,138.29796
1194000000,-141.48602,138.0959
1195000000,-141.05214,137.95538
1196000000,-142.00294,137.65329
1197000000,-142.64336,137.49527
1198000000,-142.52977,137.40964
1199000000,-142.46188,137.03835
1200000000,-143.05202,137.0363
1201000000,-142.93117,136.61398
1202000000,-143.13663,136.45329
1203000000,-143.09758,136.32446
1204000000,-143.76564,136.11819
1205000000,-143.87012,135.9006
1206000000,-144.17407,135.73933
1207000000,-144.64606,135.49867
1208000000,-144.2682,135.26222
1209000000,-145.3821,135.00153
1210000000,-144.77747,134.94061
1211000000,-145.39053,134.63791
1212000000,-145.7023,134.48456
1213000000,-145.46404,134.31506
1214000000,-145.94061,133.97902
1215000000,-145.63306,133.8943
1216000000,-146.05208,133.66202
1217000000,-146.5455,133.50694
1218000000,-146.94504,133.20343
1219000000,-147.21251,133.12192
1220000000,-147.24632,133.00179
1221000000,-147.27478,132.73024
1222000000,-147.92365,132.28679
1223000000,-147.85373,132.21434
1224000000,-148.62215,131.70761
1225000000,-148.80537,131.65413
1226000000,-148.29704,131.55508
1227000000,-148.59163,131.33096
1228000000,-149.14108,131.07623
1229000000,-149.13196,130.98045
1230000000,-149.00841,130.89818
1231000000,-149.50012,130.57054
1232000000,-150.19368,130.21111
1233000000,-150.10887,130.11191
1234000000,-150.37849,129.61935
1235000000,-150.98276,129.76872
1236000000,-150.94121,129.41
1237000000,-150.59995,129.32646
1238000000,-151.47108,128.99477
1239000000,-151.36916,128.82385
1240000000,-151.8582,128.58585
1241000000,-152.07188,128.366
1242000000,-152.08687,128.2451
1243000000,-151.91478,128.28618
1244000000,-152.75755,127.72442
1245000000,-152.77051,127.65523
1246000000,-152.97186,127.4707
1247000000,-152.77536,127.17046
1248000000,-153.1188,127.04981
1249000000,-153.56711,126.84984
1250000000,-153.84314,126.7236
1251000000,-154.59357,126.34446
1252000000,-154.24323,126.20542
1253000000,-154.5771,126.01464
1254000000,-154.88058,125.8362
1255000000,-155.211,125.74107
1256000000,-155.18532,125.59551
1257000000,-155.7733,125.17312
1258000000,-155.69025,124.97098
1259000000,-156.54219,124.84129
1260000000,-156.36095,124.59109
1261000000,-156.23264,124.3345
1262000000,-157.01111,124.17065
1263000000,-156.63113,124.0507
1264000000,-157.12564,123.74831
1265000000,-156.9847,123.68947
1266000000,-157.58868,123.56681
1267000000,-158.23502,122.99417
1268000000,-157.92006,122.9409
1269000000,-158.28377,122.63478
1270000000,-158.57915,122.46704
1271000000,-158.44606,122.37671
1272000000,-158.66203,122.2075
1273000000,-158.84264,121.95979
1274000000,-159.3663,121.55003
1275000000,-159.23552,121.42691
1276000000,-159.68036,121.17642
1277000000,-160.08975,120.89065
1278000000,-159.89349,120.80077
1279000000,-160.29587,120.47507
1280000000,-159.88301,120.50646
1281000000,-160.83206,120.15896
1282000000,-161.00557,120.06922
1283000000,-161.14395,119.797
1284000000,-161.17538,119.62063
1285000000,-161.59476,119.1282
1286000000,-161.72839,119.26076
1287000000,-162.21237,118.94652
1288000000,-162.52573,118.75954
1289000000,-162.4397,118.58768
1290000000,-162.66226,118.4334
1291000000,-162.8662,118.16014
1292000000,-163.53897,117.92432
1293000000,-163.27216,117.79481
1294000000,-163.37537,117.49975
1295000000,-163.69438,117.34618
1296000000,-163.96031,117.07121
1297000000,-163.21722,116.83025
1298000000,-164.24072,116.82696
1299000000,-164.81912,116.36517
1300000000,-164.69556,116.17252
1301000000,-165.11948,116.0206
1302000000,-165.39395,115.89645
1303000000,-165.31169,115.85277
1304000000,-165.77528,115.46828
1305000000,-165.48633,115.28947
1306000000,-166.15773,115.04726
1307000000,-166.33815,114.86604
1308000000,-166.43033,114.5082
1309000000,-166.68068,114.34489
1310000000,-166.32054,114.32883
1311000000,-166.80122,113.93169
1312000000,-167.21771,113.7158
1313000000,-167.28499,113.51383
1314000000,-167.56552,113.38144
1315000000,-168.19766,113.23398
1316000000,-167.73749,112.95573
1317000000,-168.31766,112.7119
1318000000,-168.29224,112.55167
1319000000,-168.68869,112.26655
1320000000,-168.89832,112.17342
1321000000,-169.50461,111.77052
1322000000,-169.27177,111.83332
1323000000,-169.77368,111.52616
1324000000,-169.85567,111.26537
1325000000,-170.13789,110.96001
1326000000,-170.15753,110.99306
1327000000,-170.60072,110.87518
1328000000,-170.52722,110.46349
1329000000,-170.66203,110.37642
1330000000,-171.24156,110.06608
1331000000,-171.32167,109.89544
1332000000,-171.29263,109.64447
1333000000,-171.86401,109.22602
1334000000,-172.39278,109.15945
1335000000,-172.29085,109.01707
1336000000,-172.43716,108.91148
1337000000,-172.49567,108.56445
1338000000,-172.82935,108.30933
1339000000,-172.90608,108.21243
1340000000,-173.32237,107.8493
1341000000,-173.28694,107.77565
1342000000,-173.8954,107.30904
1343000000,-174.01425,107.23029
1344000000,-174.0042,107.01356
1345000000,-174.04384,107.03716
1346000000,-174.60684,106.66308
1347000000,-174.54706,106.59668
1348000000,-175.02322,106.23345
1349000000,-175.20906,106.01279
1350000000,-175.18454,105.88536
1351000000,-175.54243,105.58673
1352000000,-175.92316,105.40298
1353000000,-175.63435,105.28996
1354000000,-176.3141,104.94827
1355000000,-176.06349,104.95107
1356000000,-176.71518,104.6088
1357000000,-176.84717,104.36243
1358000000,-176.99593,104.22186
1359000000,-177.2188,103.94777
1360000000,-177.54187,103.73863
1361000000,-177.56795,103.31396
1362000000,-177.92551,103.21292
1363000000,-177.92621,103.24754
1364000000,-178.16043,103.00697
1365000000,-178.30772,102.6376
1366000000,-178.93459,102.42223
1367000000,-178.99286,102.34439
1368000000,-179.26729,102.11971
1369000000,-179.23825,101.84827
1370000000,-179.42412,101.61928
1371000000,-179.37917,101.61234
1372000000,179.85095,101.2047
1373000000,179.76645,101.10151
1374000000,179.7106,100.82806
1375000000,179.97394,100.73492
1376000000,179.30237,100.43924
1377000000,178.90776,100.17406
1378000000,178.67117,100.07677
1379000000,178.45779,99.718185
1380000000,178.45703,99.700378
1381000000,178.11075,99.345871
1382000000,177.86758,99.176697
1383000000,177.46028,98.990891
1384000000,177.54578,98.720863
1385000000,177.23213,98.635101
1386000000,176.67966,98.247063
1387000000,176.90715,97.969528
1388000000,176.68031,98.036079
1389000000,176.48607,97.744362
1390000000,176.58875,97.371414
1391000000,176.3235,97.348999
1392000000,175.90939,97.081879
1393000000,175.56845,96.804474
1394000000,175.5959,96.786987
1395000000,175.2634,96.347687
1396000000,175.01282,96.165817
1397000000,175.01859,95.992081
1398000000,174.58217,95.750473
1399000000,174.13821,95.439079
1400000000,174.12448,95.48053
1401000000,173.74042,95.167236
1402000000,173.95586,94.964577
1403000000,173.46416,94.672729
1404000000,173.43204,94.641701
1405000000,172.99974,94.312103
1406000000,172.75175,94.154366
1407000000,172.39365,93.843704
1408000000,172.4314,93.646721
1409000000,172.28546,93.399078
1410000000,171.98172,93.362411
1411000000,171.94337,92.975571
1412000000,172.1225,92.890884
1413000000,171.35219,92.559616
1414000000,171.12723,92.43502
1415000000,171.11746,92.329475
1416000000,170.72495,91.946541
1417000000,170.67444,91.781937
1418000000,170.22704,91.623199
1419000000,170.10353,91.394081
1420000000,169.80005,91.050171
1421000000,169.50546,90.847321
1422000000,169.23988,90.749931
1423000000,169.21317,90.554947
1424000000,168.96819,90.44841
1425000000,168.8105,90.123886
1426000000,168.54015,89.94146
1427000000,168.2108,89.715111
1428000000,168.06454,89.389305
1429000000,167.77377,89.349854
1430000000,167.6037,88.915535
1431000000,167.36414,88.49649
1432000000,166.95963,88.534332
1433000000,166.95238,88.3228
1434000000,166.554,88.095535
1435000000,166.32558,87.930023
1436000000,166.18314,87.581299
1437000000,166.07471,87.559639
1438000000,165.52599,87.1464
1439000000,165.41478,87.079582
1440000000,165.49464,86.760803
1441000000,164.99297,86.639572
1442000000,164.92877,86.363686
1443000000,164.65121,86.278046
1444000000,163.94643,85.872917
1445000000,164.58003,85.867325
1446000000,164.10182,85.645676
1447000000,163.70303,85.283577
1448000000,163.62762,85.158813
1449000000,163.50923,85.104713
1450000000,163.55531,84.805435
1451000000,163.2133,84.589104
1452000000,162.85022,84.391785
1453000000,162.6042,84.226318
1454000000,161.9418,83.936844
1455000000,161.87675,83.592453
1456000000,162.16603,83.622375
1457000000,161.85533,83.320244
1458000000,161.44994,83.071815
1459000000,161.21443,82.790543
1460000000,160.90739,82.653748
1461000000,160.65868,82.235947
1462000000,160.52679,82.132462
1463000000,160.32365,81.895287
1464000000,159.91666,81.808052
1465000000,160.02435,81.498917
1466000000,159.57039,81.477493
1467000000,159.40878,81.054344
1468000000,159.12527,80.847771
1469000000,158.6682,80.659988
1470000000,158.43169,80.350616
1471000000,158.24661,80.259163
1472000000,158.39972,79.912987
1473000000,158.10095,79.826035
1474000000,157.72861,79.600258
1475000000,157.45012,79.186867
1476000000,157.49747,79.171165
1477000000,157.16068,79.016975
1478000000,157.24806,78.638191
1479000000,156.96661,78.536736
1480000000,156.33401,78.212624
1481000000,156.20163,77.918365
1482000000,155.85968,77.650978
1483000000,155.55136,77.65004
1484000000,155.64085,77.327667
1485000000,155.1277,77.115265
1486000000,155.06018,77.05854
1487000000,154.63463,76.651497
1488000000,154.78868,76.597359
1489000000,154.31033,76.220894
1490000000,153.77032,75.994194
1491000000,153.58516,75.767662
1492000000,153.51949,75.794701
1493000000,153.40192,75.205307
1494000000,153.16771,75.300705
1495000000,152.75412,74.935806
1496000000,152.49316,74.679161
1497000000,152.27106,74.537758
1498000000,152.39194,74.340477
1499000000,152.12279,74.077583
1500000000,151.60809,73.927895
1501000000,151.38373,73.653877
1502000000,151.37393,73.490311
1503000000,150.92805,73.161911
1504000000,150.63646,73.022095
1505000000,150.70876,72.932259
1506000000,150.3878,72.636604
1507000000,149.99966,72.476021
1508000000,149.73297,72.122437
1509000000,149.36081,71.945267
1510000000,149.52327,71.72847
1511000000,149.04462,71.533852
1512000000,148.39107,71.15638
1513000000,148.64722,71.17881
1514000000,147.88574,70.753044
1515000000,147.88066,70.623871
1516000000,147.7863,70.330544
1517000000,147.46669,70.210175
1518000000,147.06403,69.905952
1519000000,146.70639,69.54792
1520000000,146.9136,69.562813
1521000000,146.74333,69.293045
1522000000,145.95729,68.907547
1523000000,145.87431,68.753433
1524000000,145.70152,68.431587
1525000000,145.77531,68.432503
1526000000,145.40762,68.203026
1527000000,145.08182,67.974968
1528000000,144.95465,67.682442
1529000000,144.75244,67.386909
1530000000,144.48358,67.21843
1531000000,143.67429,66.981102
1532000000,143.60695,66.671753
1533000000,143.76279,66.625908
1534000000,143.30975,66.367638
1535000000,142.98906,66.036835
1536000000,142.76544,65.833588
1537000000,142.6147,65.606308
1538000000,142.15311,65.405746
1539000000,142.20084,65.296135
1540000000,141.51726,64.926941
1541000000,141.27769,64.706383
1542000000,141.11929,64.413338
1543000000,140.79648,64.299187
1544000000,140.44296,63.924725
1545000000,139.85916,63.696987
1546000000,140.3566,63.680874
1547000000,139.66132,63.374069
1548000000,139.20549,63.091263
1549000000,139.3837,62.898426
1550000000,139.0641,62.869339
1551000000,138.94563,62.525745
1552000000,138.328,62.227203
1553000000,138.19823,61.892574
1554000000,137.95415,61.774609
1555000000,137.68974,61.544109
1556000000,136.79556,61.344688
1557000000,137.21445,61.260063
1558000000,136.81732,60.849289
1559000000,136.07175,60.527504
1560000000,136.01697,60.42672
1561000000,135.72433,60.159393
1562000000,135.56978,59.843372
1563000000,135.05498,59.672688
1564000000,135.04034,59.574223
1565000000,134.76289,59.1381
1566000000,134.39499,58.912376
1567000000,134.25963,58.745193
1568000000,133.95659,58.339466
1569000000,133.5941,58.104774
1570000000,132.79694,57.957973
1571000000,132.89786,57.706848
1572000000,132.43823,57.477089
1573000000,132.22911,57.38958
1574000000,131.76198,56.982822
1575000000,131.86998,56.902351
1576000000,131.41672,56.659981
1577000000,130.70647,56.316967
1578000000,130.57217,56.20752
1579000000,130.44614,55.928066
1580000000,130.12585,55.603718
1581000000,129.95306,55.670597
1582000000,129.72903,55.271259
1583000000,129.11565,55.054737
1584000000,128.79073,54.730934
1585000000,128.83719,54.624573
1586000000,128.15913,54.430195
1587000000,128.23979,54.114452
1588000000,127.78235,53.882507
1589000000,127.07701,53.49522
1590000000,126.65421,53.459541
1591000000,126.71516,53.301327
1592000000,126.57353,52.915451
1593000000,125.86784,52.673649
1594000000,125.33695,52.231968
1595000000,125.8231,52.427967
1596000000,125.19398,52.017151
1597000000,124.60309,51.86031
1598000000,124.11739,51.356113
1599000000,124.27692,51.261456
1600000000,123.43943,51.028843
1601000000,123.45927,50.782192
1602000000,122.71289,50.461464
1603000000,122.57758,50.286922
1604000000,121.95181,49.987701
1605000000,121.6198,49.711132
1606000000,121.5369,49.59486
1607000000,121.15905,49.427483
1608000000,120.54263,49.112362
1609000000,120.16973,48.750866
1610000000,119.66077,48.572056
1611000000,119.30669,48.255177
1612000000,118.9643,48.009212
1613000000,118.68112,47.717392
1614000000,118.24812,47.539749
1615000000,118.01865,47.404804
1616000000,117.18652,47.160534
1617000000,117.50298,46.907597
1618000000,116.75307,46.573673
1619000000,116.0304,46.545452
1620000000,115.75217,46.177803
1621000000,115.47009,45.885914
1622000000,115.02522,45.778736
1623000000,114.65322,45.374657
1624000000,113.71759,45.265812
1625000000,113.50701,45.038696
1626000000,112.80199,44.542507
1627000000,112.90355,44.458389
1628000000,111.82766,44.249157
1629000000,111.85969,43.930237
1630000000,111.57718,43.77742
1631000000,110.66999,43.380653
1632000000,110.20565,43.062611
1633000000,109.84462,42.917355
1634000000,109.24863,42.670261
1635000000,108.70357,42.40551
1636000000,107.57153,42.095562
1637000000,107.5929,41.795109
1638000000,107.2471,41.743355
1639000000,106.04174,41.255356
1640000000,105.7778,41.158916
1641000000,105.53732,40.781204
1642000000,104.91982,40.607166
1643000000,104.06572,40.44228
1644000000,103.65754,40.281384
1645000000,102.42037,39.848774
1646000000,102.43311,39.7752
1647000000,101.38757,39.417477
1648000000,101.5209,39.11174
1649000000,99.822716,38.813255
1650000000,99.03231,38.682041
1651000000,98.564003,38.374081
1652000000,97.141121,38.020504
1653000000,96.683624,37.795712
1654000000,95.969055,37.599884
1655000000,94.539742,37.368645
1656000000,93.919327,37.128788
1657000000,93.346519,36.937889
1658000000,92.320053,36.565018
1659000000,90.766121,36.507046
1660000000,89.735909,36.115559
1661000000,88.419891,35.61924
1662000000,87.503967,35.587517
1663000000,86.333443,35.247993
1664000000,84.843636,35.22282
1665000000,83.562653,34.619579
1666000000,82.649567,34.489201
1667000000,80.863686,34.222443
1668000000,79.452309,34.267738
1669000000,78.433044,33.581322
1670000000,76.088371,33.672523
1671000000,74.213654,33.242439
1672000000,72.898735,33.195923
1673000000,70.001595,32.733288
1674000000,68.466286,32.391285
1675000000,66.316147,32.010704
1676000000,65.214661,31.948935
1677000000,62.159004,31.743298
1678000000,59.690289,31.595558
1679000000,57.109505,31.192938
1680000000,53.382626,30.819559
1681000000,51.021236,30.54739
1682000000,48.991341,30.271454
1683000000,46.365768,29.999352
1684000000,40.99358,29.757679
1685000000,39.784115,29.679781
1686000000,34.226269,29.319679
1687000000,30.161596,29.08087
1688000000,28.261818,28.831003
1689000000,23.440542,28.53676
1690000000,20.245707,28.382654
1691000000,16.898254,27.871164
1692000000,13.220997,27.715555
1693000000,8.9041605,27.466963
1694000000,5.2019572,27.137539
1695000000,2.0718887,26.724762
1696000000,-0.74838048,26.52669
1697000000,-4.7398615,26.404257
1698000000,-7.6740198,26.201521
1699000000,-10.627143,25.8873
1700000000,-12.767591,25.421564
1701000000,-15.293991,25.31851
1702000000,-18.608999,25.034563
1703000000,-20.481922,24.701197
1704000000,-22.209507,24.346916
1705000000,-25.073162,24.206957
1706000000,-26.924406,23.77976
1707000000,-28.778542,23.642879
1708000000,-30.925871,23.355169
1709000000,-32.660095,23.226776
1710000000,-34.047802,22.896454
1711000000,-36.035725,22.561626
1712000000,-37.010273,22.425632
1713000000,-39.085464,21.884365
1714000000,-40.035336,21.819195
1715000000,-41.591171,21.462189
1716000000,-43.127647,21.109007
1717000000,-44.189167,20.929581
1718000000,-45.000916,20.706768
1719000000,-46.262394,20.217392
1720000000,-46.910206,19.984667
1721000000,-48.036201,19.885313
1722000000,-49.097298,19.315933
1723000000,-50.18837,19.182392
1724000000,-51.067238,19.006124
1725000000,-51.856808,18.756424
1726000000,-52.914536,18.500671
1727000000,-53.730465,18.12039
1728000000,-54.501572,17.864704
1729000000,-55.440491,17.414349
1730000000,-56.338947,17.399405
1731000000,-56.994968,17.196667
1732000000,-57.599438,16.719267
1733000000,-58.434673,16.516903
1734000000,-59.150452,16.226324
1735000000,-59.674953,16.030197
1736000000,-60.428745,15.616531
1737000000,-61.1772,15.28016
1738000000,-61.890495,15.011286
1739000000,-62.264557,14.839903
1740000000,-63.079491,14.349212
1741000000,-63.79702,14.140198
1742000000,-64.102997,13.969024
1743000000,-64.872292,13.515991
1744000000,-65.213799,13.331592
1745000000,-65.791481,13.084877
1746000000,-66.40654,12.793779
1747000000,-66.823135,12.505424
1748000000,-67.408928,12.136431
1749000000,-67.858757,11.927482
1750000000,-68.619568,11.666993
1751000000,-69.292542,11.362087
1752000000,-69.760887,11.123211
1753000000,-70.113678,10.785429
1754000000,-70.62249,10.303463
1755000000,-71.066536,10.262684
1756000000,-71.590134,9.8143921
1757000000,-72.118423,9.6633387
1758000000,-72.605003,9.3233967
1759000000,-73.186813,9.0439348
1760000000,-73.445351,8.9175911
1761000000,-73.844986,8.5799465
1762000000,-74.519203,8.2650204
1763000000,-74.814026,7.9161243
1764000000,-75.181084,7.8669453
1765000000,-75.632103,7.5256453
1766000000,-76.343132,6.9453688
1767000000,-76.692574,6.6325817
1768000000,-77.203789,6.4645214
1769000000,-77.282135,6.2560344
1770000000,-77.966576,6.0806003
1771000000,-78.324211,5.7981877
1772000000,-78.68824,5.5019054
1773000000,-79.06015,5.1273265
1774000000,-79.499809,4.7346892
1775000000,-79.819405,4.5888948
1776000000,-80.348763,4.192358
1777000000,-80.801552,3.8177834
1778000000,-81.330826,3.4775517
1779000000,-81.596092,3.4331386
1780000000,-81.668343,3.2826214
1781000000,-82.485344,2.7481799
1782000000,-82.825134,2.3189516
1783000000,-82.96003,2.3100369
1784000000,-83.530334,1.8071206
1785000000,-83.829216,1.6054484
1786000000,-84.299423,1.4056635
1787000000,-84.809547,0.98260546
1788000000,-85.210022,0.65340686
1789000000,-85.474144,0.51188356
1790000000,-85.936676,0.14465645
1791000000,-86.107933,0.011812571
1792000000,-86.55191,-0.47059262
1793000000,-86.958237,-0.59832597
1794000000,-87.510109,-1.0833316
1795000000,-87.625839,-1.3897433
1796000000,-87.984749,-1.5276774
1797000000,-88.565071,-1.8238283
1798000000,-88.988091,-2.2232363
1799000000,-89.313446,-2.5809269
1800000000,-89.384445,-2.754097
1801000000,-89.980865,-3.0216246
1802000000,-90.403442,-3.5004363
1803000000,-90.606224,-3.7234495
1804000000,-90.825386,-3.7234628
1805000000,-91.220917,-4.1543217
1806000000,-91.727875,-4.604939
1807000000,-92.008827,-4.8310428
1808000000,-92.545158,-5.1641154
1809000000,-92.820374,-5.5683799
1810000000,-93.021088,-5.5705228
1811000000,-93.586067,-6.1034365
1812000000,-93.85804,-6.4316206
1813000000,-94.314484,-6.5172977
1814000000,-94.557938,-6.9482546
1815000000,-95.015984,-7.0978398
1816000000,-95.214005,-7.5081239
1817000000,-95.592781,-7.7163558
1818000000,-96.012634,-8.0978212
1819000000,-96.346947,-8.4377651
1820000000,-96.578568,-8.665843
1821000000,-97.030579,-8.9410658
1822000000,-97.27623,-9.2157803
1823000000,-97.580421,-9.5561275
1824000000,-97.941132,-9.9291677
1825000000,-98.089096,-10.231858
1826000000,-98.560616,-10.331354
1827000000,-98.821449,-10.754126
1828000000,-99.377953,-11.195502
1829000000,-99.755882,-11.444942
1830000000,-100.09414,-11.805617
1831000000,-100.39542,-11.933902
1832000000,-100.69141,-12.144055
1833000000,-100.79886,-12.398011
1834000000,-101.35143,-12.730293
1835000000,-101.71892,-13.17745
1836000000,-101.92529,-13.301267
1837000000,-102.19614,-13.555097
1838000000,-102.40837,-13.846613
1839000000,-103.05175,-14.321485
1840000000,-103.42947,-14.669085
1841000000,-103.48981,-14.84958
1842000000,-103.77358,-15.105551
1843000000,-104.24072,-15.457004
1844000000,-104.6565,-15.921143
1845000000,-104.84801,-16.008781
1846000000,-105.16742,-16.183212
1847000000,-105.82894,-16.652393
1848000000,-105.9501,-16.915659
1849000000,-106.45369,-17.360416
1850000000,-106.60598,-17.55817
1851000000,-106.95103,-17.902021
1852000000,-106.98392,-17.83312
1853000000,-107.52816,-18.300806
1854000000,-107.82234,-18.562746
1855000000,-108.01701,-18.863661
1856000000,-108.45797,-19.314554
1857000000,-108.69228,-19.521025
1858000000,-109.29327,-19.747026
1859000000,-109.42122,-19.949541
1860000000,-109.71943,-20.447973
1861000000,-110.03438,-20.683752
1862000000,-110.17989,-20.838783
1863000000,-110.73785,-21.282085
1864000000,-111.07583,-21.637505
1865000000,-111.23422,-21.823202
1866000000,-111.76643,-22.346626
1867000000,-111.93852,-22.554604
1868000000,-112.21387,-22.749344
1869000000,-112.70018,-23.130974
1870000000,-112.98447,-23.454926
1871000000,-113.18858,-23.62833
1872000000,-113.49443,-23.957458
1873000000,-113.87078,-24.288115
1874000000,-113.94146,-24.2847
1875000000,-114.46367,-24.801275
1876000000,-114.5579,-25.034487
1877000000,-115.05588,-25.484076
1878000000,-115.28922,-25.599504
1879000000,-115.84259,-26.06851
1880000000,-116.0874,-26.261862
1881000000,-116.30699,-26.527071
1882000000,-116.75599,-27.118382
1883000000,-116.9904,-27.325129
1884000000,-117.36638,-27.449793
1885000000,-117.46842,-27.699354
1886000000,-117.76194,-27.923256
1887000000,-118.34822,-28.577059
1888000000,-118.76826,-28.746876
1889000000,-118.86488,-29.046335
1890000000,-119.01112,-29.130152
1891000000,-119.41896,-29.458706
1892000000,-119.87222,-29.777777
1893000000,-119.9622,-30.003935
1894000000,-120.63632,-30.57214
1895000000,-120.55563,-30.351103
1896000000,-120.91052,-30.816864
1897000000,-121.27576,-31.173717
1898000000,-121.5605,-31.51869
1899000000,-121.69766,-31.548054
1900000000,-122.12125,-32.134224
1901000000,-122.51175,-32.473267
1902000000,-122.72577,-32.599995
1903000000,-123.19891,-33.028366
1904000000,-123.46219,-33.308655
1905000000,-123.70134,-33.36438
1906000000,-123.98912,-33.85516
1907000000,-124.10039,-34.016037
1908000000,-124.62354,-34.496407
1909000000,-124.90192,-34.601978
1910000000,-124.96346,-34.784229
1911000000,-125.44757,-35.217239
1912000000,-125.70817,-35.519699
1913000000,-125.98448,-35.742989
1914000000,-126.2212,-35.996616
1915000000,-126.55788,-36.326107
1916000000,-126.81946,-36.537655
1917000000,-127.21464,-36.801853
1918000000,-127.5073,-37.089352
1919000000,-127.91985,-37.543755
1920000000,-128.35878,-38.003998
1921000000,-128.37244,-37.983311
1922000000,-128.65302,-38.446304
1923000000,-128.85983,-38.528717
1924000000,-129.14227,-38.869984
1925000000,-129.60289,-39.289055
1926000000,-129.61722,-39.37674
1927000000,-130.23846,-39.887569
1928000000,-130.37656,-39.989162
1929000000,-130.72107,-40.366642
1930000000,-131.09285,-40.54483
1931000000,-131.5414,-41.129162
1932000000,-131.38579,-41.039963
1933000000,-131.97455,-41.441933
1934000000,-132.16513,-41.799152
1935000000,-132.14043,-41.643394
1936000000,-132.54277,-42.244118
1937000000,-132.96185,-42.58057
1938000000,-133.35548,-42.758171
1939000000,-133.40025,-43.009815
1940000000,-133.76062,-43.426769
1941000000,-134.24168,-43.699306
1942000000,-134.61928,-43.965595
1943000000,-134.69997,-44.091656
1944000000,-134.88194,-44.477924
1945000000,-135.36125,-44.837124
1946000000,-135.65871,-45.144974
1947000000,-135.8035,-45.353695
1948000000,-135.97629,-45.425991
1949000000,-136.49698,-45.913837
1950000000,-136.63818,-46.131561
1951000000,-136.82588,-46.240913
1952000000,-137.26218,-46.692642
1953000000,-137.61935,-46.808819
1954000000,-137.75903,-47.218098
1955000000,-137.91008,-47.355381
1956000000,-138.57018,-47.963974
1957000000,-138.62798,-48.140659
1958000000,-138.65776,-48.188728
1959000000,-139.15099,-48.582043
1960000000,-139.35036,-48.783356
1961000000,-139.61545,-49.085403
1962000000,-139.78888,-49.067726
1963000000,-140.07544,-49.526176
1964000000,-140.34639,-49.826954
1965000000,-140.76311,-50.160515
1966000000,-140.98276,-50.384129
1967000000,-141.4297,-50.780193
1968000000,-141.60588,-50.956863
1969000000,-141.90955,-51.197155
1970000000,-142.20003,-51.474003
1971000000,-142.46075,-51.676498
1972000000,-142.63132,-52.089031
1973000000,-142.79364,-52.418736
1974000000,-143.30618,-52.583588
1975000000,-143.43689,-52.945957
1976000000,-143.89149,-53.186985
1977000000,-144.14407,-53.387241
1978000000,-144.32053,-53.673172
1979000000,-144.73009,-53.900673
1980000000,-144.9313,-54.362087
1981000000,-145.25827,-54.508614
1982000000,-145.67337,-54.876591
1983000000,-145.84227,-55.013416
1984000000,-145.87242,-55.258919
1985000000,-146.0878,-55.488071
1986000000,-146.39931,-55.673264
1987000000,-146.71265,-55.978462
1988000000,-146.8463,-56.105206
1989000000,-147.22354,-56.477997
1990000000,-147.29753,-56.547924
1991000000,-147.59816,-56.909428
1992000000,-148.2886,-57.353851
1993000000,-148.14009,-57.493111
1994000000,-148.6467,-57.843246
1995000000,-148.8441,-58.132561
1996000000,-148.96068,-58.267612
1997000000,-149.23442,-58.571735
1998000000,-149.51781,-58.712585
1999000000,-149.87854,-59.145962
2000000000,-149.94209,-59.404282
2001000000,-150.16913,-59.501694
2002000000,-150.48738,-59.937862
2003000000,-150.85738,-60.02776
2004000000,-150.94153,-60.348179
2005000000,-151.38876,-60.646687
2006000000,-151.71204,-61.000092
2007000000,-152.15311,-61.400143
2008000000,-152.14848,-61.443604
2009000000,-152.54018,-61.834808
2010000000,-152.53386,-61.803795
2011000000,-153.01212,-62.193443
2012000000,-152.97726,-62.474792
2013000000,-153.25432,-62.596668
2014000000,-153.78862,-63.04311
2015000000,-153.86765,-63.106941
2016000000,-154.23355,-63.54459
2017000000,-154.38861,-63.654148
2018000000,-154.59039,-63.911671
2019000000,-154.89644,-64.158234
2020000000,-155.03119,-64.338211
2021000000,-155.4507,-64.641403
2022000000,-155.57536,-64.836517
2023000000,-155.78152,-65.145767
2024000000,-156.28899,-65.416237
2025000000,-156.46492,-65.680283
2026000000,-156.64456,-65.921036
2027000000,-157.04468,-66.330559
2028000000,-157.18047,-66.505371
2029000000,-157.40524,-66.493584
2030000000,-157.50427,-66.651642
2031000000,-158.00813,-67.204582
2032000000,-158.11731,-67.262512
2033000000,-158.30363,-67.484276
2034000000,-158.66443,-67.908203
2035000000,-159.02086,-68.182648
2036000000,-159.16777,-68.333534
2037000000,-159.39508,-68.528732
2038000000,-159.52345,-68.687576
2039000000,-159.88898,-69.075668
2040000000,-160.08789,-69.250809
2041000000,-160.43433,-69.707253
2042000000,-160.56821,-69.835571
2043000000,-160.9285,-70.186348
2044000000,-160.90619,-70.213806
2045000000,-161.01634,-70.362488
2046000000,-161.51584,-70.623055
2047000000,-161.75667,-71.03093
2048000000,-161.68784,-70.911766
2049000000,-162.41196,-71.670784
2050000000,-162.39389,-71.620728
2051000000,-162.65149,-71.842918
2052000000,-162.86362,-72.189659
2053000000,-163.38025,-72.61895
2054000000,-163.58678,-72.896805
2055000000,-163.55254,-72.913078
2056000000,-163.94498,-73.104103
2057000000,-164.23685,-73.424858
2058000000,-164.5278,-73.750702
2059000000,-164.68005,-73.897568
2060000000,-164.9017,-74.180405
2061000000,-165.15697,-74.550064
2062000000,-165.3531,-74.613853
2063000000,-165.54066,-74.930199
2064000000,-165.92517,-75.144447
2065000000,-166.15712,-75.38401
2066000000,-166.28992,-75.581879
2067000000,-166.461,-75.684036
2068000000,-166.63565,-75.833389
2069000000,-167.04066,-76.183914
2070000000,-166.91574,-76.31395
2071000000,-167.70917,-76.819481
2072000000,-167.67729,-76.830872
2073000000,-168.09366,-77.30481
2074000000,-168.11656,-77.337997
2075000000,-168.2424,-77.608887
2076000000,-168.70718,-77.876785
2077000000,-168.6712,-77.740883
2078000000,-169.05994,-78.288559
2079000000,-169.5578,-78.860901
2080000000,-169.535,-78.714317
2081000000,-169.70024,-78.851654
2082000000,-169.98955,-79.246399
2083000000,-170.16074,-79.394432
2084000000,-170.42018,-79.720581
2085000000,-170.50935,-79.746361
2086000000,-170.9399,-80.176399
2087000000,-171.12263,-80.332932
2088000000,-171.16579,-80.392601
2089000000,-171.92168,-81.030617
2090000000,-171.74268,-80.843376
2091000000,-171.83121,-81.106033
2092000000,-172.22043,-81.542824
2093000000,-172.51018,-81.624245
2094000000,-172.85506,-82.156281
2095000000,-173.03525,-82.269012
2096000000,-173.48096,-82.624161
2097000000,-173.43755,-82.535011
2098000000,-173.5392,-82.863487
2099000000,-173.76273,-83.14122
2100000000,-173.93556,-83.15387
2101000000,-174.17255,-83.401604
2102000000,-174.53246,-83.886223
2103000000,-174.85077,-84.203651
2104000000,-175.12505,-84.36689
2105000000,-175.26797,-84.530746
2106000000,-175.41341,-84.753357
2107000000,-175.57468,-84.843651
2108000000,-176.08125,-85.285744
2109000000,-175.94249,-85.244064
2110000000,-176.66978,-85.637291
2111000000,-176.68889,-85.848816
2112000000,-176.69527,-85.989136
2113000000,-177.01387,-86.369331
2114000000,-177.311,-86.54187
2115000000,-177.38319,-86.740906
2116000000,-177.92146,-87.161133
2117000000,-177.98254,-87.129944
2118000000,-178.35713,-87.518784
2119000000,-178.40559,-87.839584
2120000000,-178.44753,-87.799301
2121000000,-178.64166,-87.955803
2122000000,-179.22449,-88.402855
2123000000,-179.38394,-88.731621
2124000000,-179.42648,-88.794029
2125000000,-179.86922,-89.175346
2126000000,-179.87898,-89.308586
2127000000,179.80591,-89.442802
2128000000,179.37355,-89.903961
2129000000,179.53621,-89.663475
2130000000,178.97095,-90.169334
2131000000,179.13806,-90.202522
2132000000,178.59244,-90.586655
2133000000,178.52771,-90.68306
2134000000,178.33904,-90.948784
2135000000,177.96916,-91.183731
2136000000,177.79083,-91.300697
2137000000,177.70975,-91.534988
2138000000,177.30273,-91.773979
2139000000,177.24489,-92.022758
2140000000,176.86919,-92.488853
2141000000,176.73499,-92.582298
2142000000,176.53293,-92.908936
2143000000,176.17674,-93.112854
2144000000,176.04617,-93.173782
2145000000,175.89809,-93.404091
2146000000,175.51271,-93.84259
2147000000,175.29037,-93.803001
2148000000,175.26819,-94.143379
2149000000,174.82751,-94.413094
2150000000,174.65248,-94.542923
2151000000,174.61688,-94.61882
2152000000,174.53433,-94.864708
2153000000,174.19882,-95.276405
2154000000,173.87727,-95.51355
2155000000,173.6214,-95.569984
2156000000,173.48773,-95.873016
2157000000,173.3065,-96.067917
2158000000,173.05855,-96.223267
2159000000,172.72752,-96.674324
2160000000,172.37848,-96.969612
2161000000,172.49712,-96.892738
2162000000,172.21172,-97.110092
2163000000,171.98468,-97.459427
2164000000,171.71419,-97.536499
2165000000,171.34064,-98.037384
2166000000,171.38797,-97.952713
2167000000,171.15347,-98.208946
2168000000,170.98308,-98.350571
2169000000,170.74117,-98.673546
2170000000,170.15768,-99.156349
2171000000,170.21558,-99.109978
2172000000,169.8129,-99.55851
2173000000,169.62459,-99.728317
2174000000,169.66808,-99.789856
2175000000,169.1617,-100.19115
2176000000,169.08136,-100.38286
2177000000,169.08978,-100.41809
2178000000,168.57649,-100.82781
2179000000,168.36461,-100.98475
2180000000,168.29042,-101.17849
2181000000,167.86433,-101.5599
2182000000,167.62627,-101.76668
2183000000,167.51295,-101.78953
2184000000,167.44661,-101.96575
2185000000,167.07144,-102.30055
2186000000,166.89345,-102.69698
2187000000,166.74568,-102.69676
2188000000,166.35013,-102.92921
2189000000,166.24226,-103.23208
2190000000,166.12608,-103.34931
2191000000,165.6725,-103.73728
2192000000,165.62312,-103.86558
2193000000,165.17014,-104.19988
2194000000,165.08075,-104.28892
2195000000,164.84741,-104.68596
2196000000,164.62613,-104.78755
2197000000,164.33562,-105.13639
2198000000,164.02644,-105.37405
2199000000,164.08478,-105.36166
2200000000,163.9324,-105.42964
2201000000,163.63216,-105.77985
2202000000,163.16156,-106.40276
2203000000,163.02072,-106.35957
2204000000,162.88525,-106.54727
2205000000,162.48007,-106.96878
2206000000,162.46106,-106.72296
2207000000,161.87482,-107.44307
2208000000,161.96198,-107.54889
2209000000,161.74001,-107.85328
2210000000,161.40199,-108.16344
2211000000,161.27618,-108.3092
2212000000,160.84607,-108.47083
2213000000,160.54878,-108.91189
2214000000,160.42244,-109.08584
2215000000,160.27232,-109.29636
2216000000,159.99979,-109.55795
2217000000,159.96558,-109.55939
2218000000,159.7159,-109.65168
2219000000,159.33073,-110.21284
2220000000,159.28946,-110.309
2221000000,158.92201,-110.52872
2222000000,158.80069,-110.84258
2223000000,158.73122,-110.75652
2224000000,158.27113,-111.21792
2225000000,157.85535,-111.73292
2226000000,157.79311,-111.79362
2227000000,157.60703,-112.10721
2228000000,157.49571,-112.15805
2229000000,157.19875,-112.43106
2230000000,156.93518,-112.67688
2231000000,156.57994,-112.95669
2232000000,156.37047,-113.18122
2233000000,156.11404,-113.31167
2234000000,155.93779,-113.62605
2235000000,155.78732,-113.96158
2236000000,155.15236,-114.39416
2237000000,155.26332,-114.38634
2238000000,154.96654,-114.7995
2239000000,154.53912,-115.0233
2240000000,154.54176,-115.05611
2241000000,154.13803,-115.56625
2242000000,154.12001,-115.56594
2243000000,153.65205,-116.04923
2244000000,153.57381,-116.30888
2245000000,153.40904,-116.34688
2246000000,153.22964,-116.47256
2247000000,152.81441,-116.86548
2248000000,152.55461,-117.1263
2249000000,152.21227,-117.51879
2250000000,152.05811,-117.66017
2251000000,151.90121,-117.79923
2252000000,151.73366,-118.05906
2253000000,151.3394,-118.46482
2254000000,150.98579,-118.76272
2255000000,150.61644,-118.86076
2256000000,150.50206,-118.9752
2257000000,150.40184,-119.23215
2258000000,150.27296,-119.33798
2259000000,149.89627,-119.84193
2260000000,149.8004,-120.01748
2261000000,149.26933,-120.26424
2262000000,149.01897,-120.68618
2263000000,148.70122,-121.045
2264000000,148.33917,-121.36462
2265000000,148.40393,-121.47998
2266000000,148.09232,-121.59583
2267000000,147.70642,-122.18913
2268000000,147.72514,-121.99654
2269000000,147.41624,-122.55491
2270000000,146.976,-122.72697
2271000000,146.78185,-122.96539
2272000000,146.54192,-123.1914
2273000000,146.46117,-123.29322
2274000000,145.9722,-123.85996
2275000000,145.69485,-124.10159
2276000000,145.51297,-124.39266
2277000000,144.84358,-124.8003
2278000000,145.07954,-124.71866
2279000000,144.60144,-125.10848
2280000000,144.4229,-125.39077
2281000000,144.09357,-125.81075
2282000000,143.88889,-125.67931
2283000000,143.5923,-126.2274
2284000000,143.20923,-126.38924
2285000000,142.98413,-126.72168
2286000000,142.69247,-126.97584
2287000000,142.48755,-127.24889
2288000000,142.08261,-127.51978
2289000000,141.7964,-128.16626
2290000000,141.65013,-128.11874
2291000000,141.23448,-128.73485
2292000000,140.9597,-128.81549
2293000000,140.91281,-128.96414
2294000000,140.45612,-129.37621
2295000000,140.21655,-129.52211
2296000000,140.05002,-129.82506
2297000000,139.31035,-130.34334
2298000000,139.27438,-130.4082
2299000000,138.9899,-130.94896
2300000000,138.51985,-131.22316
2301000000,138.35692,-131.46231
2302000000,138.14722,-131.74089
2303000000,137.68617,-132.06023
2304000000,137.6469,-132.2832
2305000000,137.19461,-132.44714
2306000000,136.82756,-133.01582
2307000000,136.61526,-133.21689
2308000000,136.41042,-133.39426
2309000000,136.07954,-133.78841
2310000000,135.62025,-134.21671
2311000000,135.40833,-134.58546
2312000000,135.09834,-134.78648
2313000000,134.73793,-135.17273
2314000000,134.56467,-135.38139
2315000000,134.18208,-135.68323
2316000000,133.82419,-136.05559
2317000000,133.31668,-136.48297
2318000000,133.20845,-136.73299
2319000000,133.03793,-136.83554
2320000000,132.76691,-137.155
2321000000,132.44771,-137.5667
2322000000,131.59,-138.31427
2323000000,131.3533,-138.43512
2324000000,131.21362,-138.62711
2325000000,130.80424,-139.05397
2326000000,130.71536,-139.15948
2327000000,130.27451,-139.91115
2328000000,129.82513,-140.1806
2329000000,129.5508,-140.28824
2330000000,129.07144,-140.80188
2331000000,128.74092,-141.09174
2332000000,128.63254,-141.16473
2333000000,128.09877,-141.71204
2334000000,127.88677,-142.02528
2335000000,127.31345,-142.50165
2336000000,127.1221,-142.67647
2337000000,126.50539,-143.24055
2338000000,126.33121,-143.55792
2339000000,125.97922,-143.99429
2340000000,125.86741,-143.8889
2341000000,125.35617,-144.60703
2342000000,124.72762,-145.23459
2343000000,124.24335,-145.43562
2344000000,124.03107,-145.94833
2345000000,123.74527,-146.05931
2346000000,123.5327,-146.39807
2347000000,123.07085,-146.90575
2348000000,122.48581,-147.35095
2349000000,122.12355,-147.89171
2350000000,121.80361,-147.99841
2351000000,121.43641,-148.33493
2352000000,121.00553,-148.89761
2353000000,120.58421,-149.15778
2354000000,120.24101,-149.44926
2355000000,119.62724,-150.29251
2356000000,119.24321,-150.56351
2357000000,118.96351,-150.91069
2358000000,118.48566,-151.44273
2359000000,117.8974,-151.85367
2360000000,117.55016,-152.22997
2361000000,117.06237,-152.71756
2362000000,116.64966,-153.10641
2363000000,116.2643,-153.40663
2364000000,115.69534,-153.91495
2365000000,115.3148,-154.48691
2366000000,114.79337,-154.89914
2367000000,114.47344,-155.27155
2368000000,114.12333,-155.50368
2369000000,113.4808,-156.19852
2370000000,113.21896,-156.54361
2371000000,112.64378,-156.9288
2372000000,112.30273,-157.37227
2373000000,111.51263,-158.14088
2374000000,111.13667,-158.442
2375000000,110.66048,-158.90099
2376000000,110.21286,-159.52592
2377000000,109.75188,-159.80922
2378000000,109.12197,-160.46039
2379000000,108.62147,-160.75024
2380000000,108.13995,-161.51091
2381000000,107.49447,-161.95325
2382000000,107.19389,-162.36177
2383000000,106.67044,-162.82553
2384000000,106.07462,-163.21466
2385000000,105.48496,-163.95302
2386000000,104.97898,-164.3813
2387000000,104.30883,-164.99348
2388000000,103.91396,-165.43515
2389000000,103.28053,-166.09233
2390000000,102.93491,-166.34988
2391000000,102.10708,-167.05617
2392000000,101.68629,-167.61725
2393000000,101.08572,-168.18648
2394000000,100.55676,-168.36862
2395000000,100.12397,-168.98732
2396000000,99.32547,-169.67274
2397000000,98.71669,-170.14742
2398000000,98.02729,-170.75035
2399000000,97.335411,-171.54419
2400000000,96.694626,-172.18939
2401000000,96.172203,-172.87967
2402000000,95.548325,-173.18344
2403000000,95.141609,-173.66718
2404000000,94.219841,-174.38138
2405000000,93.618088,-175.0583
2406000000,93.069511,-175.66261
2407000000,92.218552,-176.21239
2408000000,91.23735,-177.13739
2409000000,90.80909,-177.47862
2410000000,90.382919,-177.92654
2411000000,89.505829,-178.58745
2412000000,88.840477,-179.43285
2413000000,87.798912,-179.9445
2414000000,87.047577,179.2271
2415000000,86.426888,178.68048
2416000000,85.747078,178.18907
2417000000,84.956863,177.54279
2418000000,84.166237,176.83282
2419000000,83.668442,176.28798
2420000000,82.528702,175.42343
2421000000,81.919357,174.77963
2422000000,80.880241,173.89781
2423000000,80.052116,173.3792
2424000000,79.26429,172.65623
2425000000,78.566734,172.07001
2426000000,77.393303,171.02837
2427000000,76.929893,170.80388
2428000000,75.773743,169.73459
2429000000,74.717819,169.21066
2430000000,73.797447,168.37752
2431000000,72.712914,167.77936
2432000000,71.66494,166.96803
2433000000,70.715675,166.01706
2434000000,69.807922,165.4272
2435000000,68.564163,164.77272
2436000000,67.808037,163.96796
2437000000,66.477737,163.20807
2438000000,65.219818,162.46117
2439000000,63.817127,161.38043
2440000000,62.64756,160.87379
2441000000,61.236965,160.05417
2442000000,59.953484,159.3468
2443000000,58.766552,158.64865
2444000000,57.14352,157.86963
2445000000,55.482624,156.936
2446000000,54.027142,156.13611
2447000000,52.116272,155.26607
2448000000,50.281197,154.5775
2449000000,48.421082,153.76608
2450000000,46.373753,152.92709
2451000000,44.114094,152.00754
2452000000,41.540459,151.21452
2453000000,38.884312,150.51447
2454000000,35.580029,149.76178
2455000000,32.606533,148.74408
2456000000,28.564129,148.10165
2457000000,24.288971,147.23907
2458000000,19.468927,146.28117
2459000000,14.150633,145.37485
2460000000,7.4145393,144.67584
2461000000,0.42914769,143.84256
2462000000,-8.2576027,142.8084
2463000000,-16.681091,141.96869
2464000000,-26.607363,141.03719
2465000000,-36.97274,140.48532
2466000000,-46.844799,139.26155
2467000000,-55.461666,138.68732
2468000000,-63.349957,138.06276
2469000000,-70.490868,137.28467
2470000000,-77.524925,136.15472
2471000000,-82.806641,135.22617
2472000000,-87.42997,134.60156
2473000000,-91.614098,133.51286
2474000000,-95.649712,132.33238
2475000000,-98.729362,131.87532
2476000000,-101.78011,130.96562
2477000000,-104.34418,129.9131
2478000000,-107.1321,129.14737
2479000000,-109.39561,128.08369
2480000000,-111.29635,127.50455
2481000000,-113.23128,126.34498
2482000000,-115.01021,125.6713
2483000000,-116.96415,124.83035
2484000000,-118.59054,123.82375
2485000000,-120.18304,122.95916
2486000000,-121.25481,122.38815
2487000000,-122.96969,121.42323
2488000000,-124.18614,120.56501
2489000000,-125.54478,119.6694
2490000000,-126.76002,118.74068
2491000000,-128.14372,117.75457
2492000000,-129.29065,116.90331
2493000000,-130.52219,116.1004
2494000000,-131.71962,115.13998
2495000000,-132.89049,114.18387
2496000000,-133.40552,113.59855
2497000000,-134.55788,112.61944
2498000000,-135.66827,111.79324
2499000000,-136.6248,110.94157
2500000000,-137.66663,109.93425
2501000000,-138.84616,108.88218
2502000000,-139.52444,108.27401
2503000000,-140.83125,107.33932
2504000000,-141.29262,106.58397
2505000000,-142.31473,105.63492
2506000000,-143.05693,105.02925
2507000000,-144.45326,103.66932
2508000000,-145.33029,102.80708
2509000000,-145.69888,102.22283
2510000000,-146.57138,101.36874
2511000000,-147.29762,100.52525
2512000000,-148.30576,99.26236
2513000000,-149.01028,98.598381
2514000000,-149.69409,97.789124
2515000000,-150.81093,96.506401
2516000000,-151.15344,96.083107
2517000000,-152.38924,94.921539
2518000000,-153.1729,94.075829
2519000000,-153.72598,93.269341
2520000000,-154.45549,92.383179
2521000000,-155.35838,91.339706
2522000000,-155.75706,90.581009
2523000000,-156.38107,89.691925
2524000000,-157.11156,88.798805
2525000000,-158.10966,87.541893
2526000000,-158.78258,86.990631
2527000000,-159.09311,86.264755
2528000000,-159.74077,85.246613
2529000000,-160.46918,84.364403
2530000000,-161.05589,83.330627
2531000000,-161.73221,82.504646
2532000000,-162.43222,81.345581
2533000000,-162.83176,80.540161
2534000000,-163.61497,79.688194
2535000000,-164.06319,78.717133
2536000000,-164.53978,77.849312
2537000000,-164.88393,76.956947
2538000000,-165.86995,75.510674
2539000000,-166.40446,74.839256
2540000000,-166.95313,73.775856
2541000000,-167.34087,72.844292
2542000000,-167.8304,71.448372
2543000000,-168.29762,70.692749
2544000000,-169.0116,69.530342
2545000000,-169.36743,68.733299
2546000000,-169.86441,67.499016
2547000000,-170.25778,66.345047
2548000000,-170.66971,65.349426
2549000000,-171.12054,64.309601
2550000000,-171.19994,63.575443
2551000000,-171.6288,62.421593
2552000000,-172.20825,61.110275
2553000000,-172.62744,59.903511
2554000000,-172.98799,58.564735
2555000000,-172.99919,57.834717
2556000000,-173.35277,56.708591
2557000000,-173.46339,55.555416
2558000000,-173.62292,54.327168
2559000000,-173.8904,53.030045
2560000000,-173.93993,51.80521
2561000000,-174.1916,50.59309
2562000000,-174.26112,49.301422
2563000000,-174.39351,48.067581
2564000000,-174.30928,46.851131
2565000000,-174.27698,45.469189
2566000000,-174.38594,44.03157
2567000000,-174.12303,42.755615
2568000000,-174.08014,41.391655
2569000000,-173.80205,40.063198
2570000000,-173.82663,38.497314
2571000000,-173.49409,37.195316
2572000000,-173.31427,35.682095
2573000000,-172.58067,34.518387
2574000000,-172.58963,33.127144
2575000000,-171.75563,31.505539
2576000000,-171.57669,29.826374
2577000000,-171.10635,28.55327
2578000000,-170.69615,26.887119
2579000000,-170.33383,25.309288
2580000000,-169.68028,23.849302
2581000000,-168.70412,22.459774
2582000000,-168.36705,20.550751
2583000000,-167.96294,19.024561
2584000000,-167.30075,17.191427
2585000000,-166.43472,15.9643
2586000000,-166.04393,14.19418
2587000000,-165.40193,12.626028
2588000000,-164.87552,10.842505
2589000000,-164.17722,9.3904943
2590000000,-163.92049,7.6147175
2591000000,-163.51276,6.0833616
2592000000,-163.21187,4.1230493
2593000000,-162.46342,2.8574638
2594000000,-162.27411,0.98627847
2595000000,-161.92935,-0.67526889
2596000000,-161.74843,-2.3123696
2597000000,-161.5965,-4.1136441
2598000000,-161.28674,-5.3252711
2599000000,-161.32491,-7.3644161
2600000000,-161.40033,-8.7207413
2601000000,-161.4294,-10.424064
2602000000,-161.27692,-11.822
2603000000,-161.20613,-13.399892
2604000000,-161.37146,-15.117224
2605000000,-161.76041,-16.748909
2606000000,-161.83353,-18.100573
2607000000,-161.95702,-19.347822
2608000000,-162.49954,-21.138527
2609000000,-162.50011,-22.38788
2610000000,-162.90521,-23.742579
2611000000,-163.40219,-25.531361
2612000000,-163.69205,-26.880665
2613000000,-164.04427,-28.223627
2614000000,-164.53879,-29.283924
2615000000,-164.97659,-30.722614
2616000000,-165.20946,-31.936029
2617000000,-165.64375,-33.30748
2618000000,-166.12282,-34.600838
2619000000,-166.56088,-35.701134
2620000000,-167.04488,-37.011688
2621000000,-167.54675,-38.125927
2622000000,-168.0163,-39.44088
2623000000,-168.72377,-40.4879
2624000000,-169.02896,-41.696568
2625000000,-169.65508,-42.874573
2626000000,-170.12233,-44.225212
2627000000,-170.51195,-44.898407
2628000000,-170.99416,-45.96526
2629000000,-171.58247,-47.164211
2630000000,-171.89534,-47.884537
2631000000,-172.43037,-49.068642
2632000000,-172.90155,-49.951988
2633000000,-173.28795,-50.804131
2634000000,-173.73468,-51.61414
2635000000,-174.3965,-52.879826
2636000000,-174.91127,-53.576733
2637000000,-175.26117,-54.287144
2638000000,-175.62711,-55.129276
2639000000,-176.33215,-56.152115
2640000000,-176.58351,-56.956005
2641000000,-176.90549,-57.511368
2642000000,-177.48302,-58.296219
2643000000,-178.09819,-59.250622
2644000000,-178.51602,-59.947239
2645000000,-178.98988,-60.609447
2646000000,-179.55254,-61.401672
2647000000,-179.80287,-62.029648
2648000000,179.94957,-62.714081
2649000000,179.25598,-63.610989
2650000000,178.95123,-64.188538
2651000000,178.63719,-64.717155
2652000000,178.20906,-65.521049
2653000000,177.85379,-65.974922
2654000000,177.6167,-66.600082
2655000000,177.17108,-67.143791
2656000000,176.66008,-67.831474
2657000000,176.39227,-68.319748
2658000000,175.87677,-68.978951
2659000000,175.51341,-69.394615
2660000000,174.96986,-70.237244
2661000000,174.58318,-70.840515
2662000000,174.38058,-71.315193
2663000000,173.79649,-71.770378
2664000000,173.57875,-72.083481
2665000000,173.40176,-72.557213
2666000000,173.09108,-73.105873
2667000000,172.6608,-73.798996
2668000000,172.67668,-74.053551
2669000000,171.66295,-75.008858
2670000000,171.4046,-75.134087
2671000000,171.14108,-75.607094
2672000000,170.70988,-76.142395
2673000000,170.52724,-76.469902
2674000000,170.10135,-77.132515
2675000000,169.75165,-77.500458
2676000000,169.49594,-77.812599
2677000000,169.34473,-78.194405
2678000000,168.93135,-78.588242
2679000000,168.47795,-79.08371
2680000000,168.44098,-79.343445
2681000000,168.05736,-79.798386
2682000000,167.80597,-80.152466
2683000000,167.40831,-80.897499
2684000000,167.05847,-80.984749
2685000000,166.64731,-81.385635
2686000000,166.37167,-81.915833
2687000000,166.26031,-81.858185
2688000000,165.70908,-82.630554
2689000000,165.66075,-82.539665
2690000000,165.61917,-82.931267
2691000000,165.0696,-83.466095
2692000000,164.78191,-83.759682
2693000000,164.26233,-84.270836
2694000000,164.1889,-84.197464
2695000000,163.9256,-84.740692
2696000000,163.73563,-84.820732
2697000000,163.38445,-84.945824
2698000000,163.01529,-85.746254
2699000000,162.81226,-85.969139
2700000000,162.69054,-86.056793
2701000000,162.27574,-86.488159
2702000000,162.15681,-86.672836
2703000000,161.62579,-87.144142
2704000000,161.5471,-87.501953
2705000000,161.29201,-87.490417
2706000000,161.07176,-87.58213
2707000000,160.62779,-88.114113
2708000000,160.40561,-88.347404
2709000000,160.07971,-88.837631
2710000000,159.88564,-88.751434
2711000000,159.61293,-89.14415
2712000000,159.62659,-89.13134
2713000000,159.16141,-89.233124
2714000000,159.02638,-89.961372
2715000000,158.85953,-90.001465
2716000000,158.62439,-90.212761
2717000000,158.36472,-90.573654
2718000000,158.16936,-90.218346
2719000000,158.16582,-90.760262
2720000000,157.50568,-91.282822
2721000000,157.14833,-91.31012
2722000000,157.17322,-91.590858
2723000000,157.23715,-91.467896
2724000000,156.62454,-91.52002
2725000000,156.71722,-91.644066
2726000000,156.34322,-92.251122
2727000000,155.98056,-92.21917
2728000000,155.7093,-92.430115
2729000000,155.49294,-92.418755
2730000000,155.39922,-92.885414
2731000000,155.13646,-92.952904
2732000000,154.88565,-93.45813
2733000000,154.62347,-93.437958
2734000000,154.52661,-93.277946
2735000000,154.44041,-93.5494
2736000000,154.19441,-94.215591
2737000000,153.69894,-94.503677
2738000000,153.86958,-94.240074
2739000000,153.51961,-94.182922
2740000000,153.26352,-94.417847
2741000000,153.10869,-94.146988
2742000000,152.75435,-94.29245
2743000000,152.74275,-94.872383
2744000000,152.34459,-95.370728
2745000000,152.23611,-94.334435
2746000000,152.04416,-95.137375
2747000000,151.76581,-94.976425
2748000000,151.81645,-95.017403
2749000000,151.57021,-95.245117
2750000000,151.26004,-95.564369
2751000000,151.15443,-95.675583
2752000000,150.85802,-95.631866
2753000000,150.43929,-95.263359
2754000000,150.44737,-95.264908
2755000000,150.13438,-95.554344
2756000000,150.09016,-95.52005
2757000000,149.83849,-95.452942
2758000000,149.69963,-96.134354
2759000000,149.50456,-95.895424
2760000000,149.27739,-96.174118
2761000000,149.062,-96.459381
2762000000,148.97557,-95.984688
2763000000,148.78006,-96.076149
2764000000,148.43115,-96.709206
2765000000,148.37309,-95.960312
2766000000,148.24187,-96.443329
2767000000,147.99466,-96.302658
2768000000,147.86412,-96.660378
2769000000,147.67519,-95.903687
2770000000,147.26556,-96.6716
2771000000,147.29575,-96.802353
2772000000,147.10484,-96.753716
2773000000,146.68031,-95.274261
2774000000,146.59113,-96.720032
2775000000,146.64458,-97.351463
2776000000,146.40877,-96.880989
2777000000,146.28787,-96.340309
2778000000,145.88971,-97.190392
2779000000,145.95645,-96.891281
2780000000,145.56093,-97.059418
2781000000,145.52638,-96.515137
2782000000,145.4361,-95.69558
2783000000,144.93744,-96.429169
2784000000,144.92976,-95.404846
2785000000,144.74017,-95.486382
2786000000,144.77914,-94.392967
2787000000,144.33255,-95.807465
2788000000,144.28004,-96.381897
2789000000,144.16461,-95.565231
2790000000,143.8251,-94.995453
2791000000,143.68082,-95.105934
2792000000,143.49907,-95.237152
2793000000,143.21286,-94.65731
2794000000,143.26617,-95.078285
2795000000,142.87631,-95.655525
2796000000,142.87387,-95.449074
2797000000,142.83705,-93.669098
2798000000,142.52786,-93.803589
2799000000,142.32631,-94.831558
2800000000,142.19844,-94.939194
2801000000,141.97295,-94.729324
2802000000,141.81686,-94.586296
2803000000,141.60352,-94.661362
2804000000,141.61618,-94.798416
2805000000,141.3851,-94.500946
2806000000,141.313,-94.121727
2807000000,140.90746,-93.816444
2808000000,140.79567,-94.038818
2809000000,140.60805,-93.218643
2810000000,140.46059,-93.104362
2811000000,140.09944,-94.648766
2812000000,140.35138,-93.764664
2813000000,139.73198,-94.599991
2814000000,139.84555,-93.273903
2815000000,139.66806,-94.082924
2816000000,139.58301,-93.970093
2817000000,139.40637,-93.99295
2818000000,139.42154,-95.587158
2819000000,139.06477,-93.323479
2820000000,138.87129,-93.21035
2821000000,138.7894,-94.887947
2822000000,138.45242,-93.872643
2823000000,138.52536,-91.553925
2824000000,138.25128,-93.096771
2825000000,137.96928,-94.315933
2826000000,138.08026,-91.827881
2827000000,138.10277,-92.996239
2828000000,137.58853,-93.565727
2829000000,137.49202,-90.668518
2830000000,137.48892,-90.487312
2831000000,137.31673,-90.005714
2832000000,137.04855,-91.078514
2833000000,136.77409,-90.994995
2834000000,136.64178,-90.038803
2835000000,136.47726,-91.792747
2836000000,136.4294,-91.432739
2837000000,136.18755,-91.189445
2838000000,136.08299,-91.514755
2839000000,135.91579,-90.935692
2840000000,135.99008,-89.58783
2841000000,135.63583,-90.721329
2842000000,135.56219,-90.456245
2843000000,135.414,-89.655777
2844000000,135.28607,-90.927917
2845000000,134.9697,-92.485825
2846000000,134.92145,-92.266068
2847000000,134.5043,-90.787254
2848000000,134.63463,-90.428986
2849000000,134.3309,-89.915161
2850000000,134.33301,-91.514725
2851000000,133.98566,-87.644501
2852000000,134.03784,-89.495804
2853000000,133.88551,-89.746719
2854000000,133.3071,-90.246925
2855000000,133.27827,-92.186874
2856000000,133.29085,-88.188683
2857000000,133.19148,-88.422981
2858000000,132.92368,-89.924484
2859000000,132.8849,-88.358482
2860000000,132.65944,-89.648087
2861000000,132.44852,-87.403366
2862000000,132.33366,-91.708961
2863000000,132.14842,-88.237785
2864000000,132.05768,-89.471275
2865000000,131.78601,-89.669815
2866000000,131.9351,-92.201942
2867000000,131.73199,-89.715675
2868000000,131.43103,-89.874809
2869000000,131.38396,-89.531342
2870000000,131.32359,-87.089226
2871000000,131.02835,-87.188919
2872000000,131.01125,-88.449745
2873000000,130.93869,-89.363441
2874000000,130.8513,-87.516792
2875000000,130.6062,-90.78849
2876000000,130.4807,-88.950325
2877000000,130.30185,-87.047691
2878000000,130.01189,-85.503044
2879000000,130.0341,-88.679794
2880000000,129.87332,-85.206009
2881000000,129.80737,-84.912354
2882000000,129.66776,-86.198387
2883000000,129.55777,-85.95771
2884000000,129.28192,-83.680374
2885000000,129.1602,-86.315338
2886000000,128.88759,-86.00666
2887000000,128.93332,-86.206848
2888000000,128.8333,-87.444855
2889000000,128.43275,-83.552368
2890000000,128.28488,-87.994438
2891000000,128.19524,-87.686035
2892000000,128.23666,-87.792976
2893000000,128.06242,-85.835014
2894000000,127.67215,-84.161789
2895000000,127.69069,-82.559242
2896000000,127.75615,-84.488434
2897000000,127.29974,-86.875885
2898000000,127.30354,-88.078346
2899000000,127.19419,-87.345161
2900000000,127.0617,-82.351952
2901000000,126.83999,-85.296021
2902000000,126.52162,-87.561546
2903000000,126.37669,-83.087135
2904000000,126.42705,-89.719398
2905000000,126.36738,-87.128769
2906000000,126.25308,-85.974335
2907000000,126.07682,-87.363014
2908000000,125.72836,-87.243958
2909000000,125.70868,-83.914223
2910000000,125.66951,-87.483994
2911000000,125.2028,-88.858322
2912000000,125.18739,-88.992424
2913000000,125.15665,-83.493423
2914000000,124.78098,-89.366829
2915000000,124.7577,-93.570755
2916000000,124.70646,-88.756439
2917000000,124.56367,-88.89061
2918000000,124.61469,-91.512337
2919000000,124.27529,-89.717033
2920000000,124.21719,-85.34848
2921000000,123.97063,-90.076515
2922000000,123.79823,-89.43734
2923000000,123.5743,-89.324898
2924000000,123.86385,-87.562393
2925000000,123.53178,-90.07399
2926000000,123.50945,-86.877289
2927000000,123.20486,-89.28273
2928000000,123.19239,-89.278923
2929000000,122.9762,-89.323448
2930000000,122.73738,-89.854103
2931000000,122.58852,-91.600273
2932000000,122.53352,-89.565414
2933000000,122.27007,-90.901665
2934000000,122.05847,-93.811623
2935000000,122.14456,-90.479889
2936000000,122.08112,-93.529144
2937000000,121.76727,-93.946228
2938000000,121.76827,-91.538551
2939000000,121.41946,-91.779427
2940000000,121.49329,-89.84021
2941000000,121.29372,-91.071068
2942000000,121.1256,-90.555939
2943000000,120.76414,-88.366463
2944000000,120.89805,-95.070869
2945000000,120.62886,-92.814331
2946000000,120.76608,-93.687599
2947000000,120.54588,-91.748367
2948000000,120.32612,-90.658539
2949000000,120.29975,-93.819122
2950000000,120.26525,-95.681198
2951000000,120.01833,-95.510361
2952000000,119.68033,-97.843323
2953000000,119.65678,-94.887245
2954000000,119.45629,-96.177864
2955000000,119.27398,-95.130409
2956000000,119.256,-96.040169
2957000000,119.04416,-97.764709
2958000000,118.95313,-96.903114
2959000000,118.66585,-95.637428
2960000000,118.58064,-97.0429
2961000000,118.79878,-99.54084
2962000000,118.67831,-96.072914
2963000000,118.52383,-96.588387
2964000000,118.05851,-98.239342
2965000000,118.21809,-100.4667
2966000000,117.85204,-96.640678
2967000000,117.97608,-100.00564
2968000000,117.70271,-98.068237
2969000000,117.55077,-102.23335
2970000000,117.33463,-102.47427
2971000000,117.46491,-97.865128
2972000000,117.15216,-99.287643
2973000000,116.85615,-100.02364
2974000000,117.0695,-104.41582
2975000000,116.63899,-101.30662
2976000000,116.51091,-103.59171
2977000000,116.38754,-98.034134
2978000000,116.20431,-105.56526
2979000000,116.16192,-101.32919
2980000000,116.00468,-104.17313
2981000000,115.91588,-100.79694
2982000000,115.73289,-102.53845
2983000000,115.72916,-99.752602
2984000000,115.63519,-102.38509
2985000000,115.32586,-101.47088
2986000000,115.22394,-103.13795
2987000000,115.34583,-101.76521
2988000000,115.01547,-103.3875
2989000000,114.97177,-97.998199
2990000000,114.78704,-100.48734
2991000000,114.58183,-102.15057
2992000000,114.41592,-100.57346
2993000000,114.30728,-102.87484
2994000000,114.09076,-103.26104
2995000000,114.16771,-103.61041
2996000000,113.81998,-103.23038
2997000000,113.67209,-102.51457
2998000000,113.61356,-104.54935
2999000000,113.65855,-103.20431
3000000000,113.35421,-105.89823
3001000000,113.26962,-106.60368
3002000000,113.03315,-104.90329
3003000000,113.13242,-104.00825
3004000000,112.89874,-106.82582
3005000000,112.65151,-106.46069
3006000000,112.67144,-106.31824
3007000000,112.512,-107.85033
3008000000,112.36469,-105.79762
3009000000,112.35532,-106.96661
3010000000,111.96918,-107.02145
3011000000,111.95446,-107.30616
3012000000,112.02039,-108.19641
3013000000,111.70631,-107.08522
3014000000,111.61864,-105.79327
3015000000,111.52158,-109.22408
3016000000,111.21803,-108.5325
3017000000,111.05331,-109.57536
3018000000,111.15116,-107.55585
3019000000,110.93044,-108.03593
3020000000,110.81609,-111.04557
3021000000,110.58449,-109.56522
3022000000,110.50309,-111.64139
3023000000,110.46502,-110.73138
3024000000,110.10786,-110.18205
3025000000,110.14275,-113.07793
3026000000,110.12522,-109.73773
3027000000,109.89368,-111.14153
3028000000,109.84329,-112.04682
3029000000,109.41175,-110.08388
3030000000,109.44137,-108.96741
3031000000,109.47478,-108.69788
3032000000,109.16476,-110.68968
3033000000,108.99049,-109.02866
3034000000,109.01631,-107.67281
3035000000,108.83812,-109.95283
3036000000,108.80901,-109.51846
3037000000,108.52254,-110.20544
3038000000,108.50111,-110.68497
3039000000,108.23846,-110.22136
3040000000,108.01862,-109.27113
3041000000,108.00972,-109.45267
3042000000,107.90129,-111.71303
3043000000,107.66137,-111.33221
3044000000,107.50122,-112.14994
3045000000,107.53893,-109.30381
3046000000,107.28152,-109.81329
3047000000,107.24548,-111.11449
3048000000,106.89553,-112.17931
3049000000,106.88519,-113.28343
3050000000,106.7203,-111.61241
3051000000,106.75757,-111.79501
3052000000,106.47373,-111.97311
3053000000,106.41566,-113.78611
3054000000,106.14641,-113.36372
3055000000,106.15292,-114.21733
3056000000,106.01519,-114.7076
3057000000,105.90767,-116.52703
3058000000,105.93433,-115.93829
3059000000,105.57283,-116.59451
3060000000,105.55467,-116.05483
3061000000,105.33359,-117.73207
3062000000,105.11832,-116.13925
3063000000,105.06024,-116.0908
3064000000,104.86199,-120.44566
3065000000,104.76499,-119.23881
3066000000,104.76002,-117.42745
3067000000,104.57185,-118.83756
3068000000,104.53664,-120.2172
3069000000,104.28983,-120.18293
3070000000,103.9051,-119.42432
3071000000,103.91409,-117.39854
3072000000,104.00224,-118.2888
3073000000,103.79157,-120.93114
3074000000,103.80078,-120.13544
3075000000,103.5313,-121.21725
3076000000,103.24431,-118.05505
3077000000,103.27485,-122.90604
3078000000,103.19279,-120.93779
3079000000,103.04387,-121.18828
3080000000,102.77407,-119.96305
3081000000,102.65016,-121.63373
3082000000,102.5781,-121.72141
3083000000,102.37314,-121.62708
3084000000,102.42369,-122.47338
3085000000,102.2634,-124.53074
3086000000,102.11537,-121.3888
3087000000,101.92765,-122.74889
3088000000,101.64328,-123.892
3089000000,101.53545,-122.91477
3090000000,101.78175,-124.73793
3091000000,101.26746,-122.53358
3092000000,101.15688,-124.31334
3093000000,101.16338,-124.06026
3094000000,100.97928,-124.66155
3095000000,100.94971,-124.42731
3096000000,100.73223,-127.01065
3097000000,100.46032,-126.31536
3098000000,100.41908,-130.20601
3099000000,100.29491,-126.79618
3100000000,100.37783,-126.79842
3101000000,100.04427,-126.61955
3102000000,99.812759,-130.98152
3103000000,99.780205,-129.2032
3104000000,99.656372,-127.22599
3105000000,99.429596,-128.05511
3106000000,99.263969,-127.86799
3107000000,99.273651,-128.68158
3108000000,99.115311,-130.86142
3109000000,99.019341,-126.59391
3110000000,99.127068,-131.5484
3111000000,98.808434,-131.87695
3112000000,98.760025,-129.89716
3113000000,98.382668,-129.31169
3114000000,98.289078,-129.95862
3115000000,98.24369,-130.35452
3116000000,97.90519,-131.68446
3117000000,97.941933,-131.11728
3118000000,97.810753,-131.19507
3119000000,97.60479,-133.90639
3120000000,97.610725,-134.38901
3121000000,97.375511,-130.73053
3122000000,97.446724,-131.18372
3123000000,97.266121,-132.27733
3124000000,96.974579,-131.05107
3125000000,96.750832,-131.83749
3126000000,96.604317,-131.52225
3127000000,96.664764,-132.01883
3128000000,96.424377,-131.98869
3129000000,96.240288,-131.98257
3130000000,96.219543,-133.89951
3131000000,95.946152,-133.00797
3132000000,96.158234,-132.80472
3133000000,95.813637,-133.20715
3134000000,95.722946,-131.80919
3135000000,95.620888,-133.68996
3136000000,95.410019,-131.64987
3137000000,95.227974,-133.98186
3138000000,95.202171,-137.24442
3139000000,94.892273,-135.59845
3140000000,94.830536,-135.80573
3141000000,94.819145,-136.46477
3142000000,94.499313,-133.93027
3143000000,94.47773,-133.64418
3144000000,94.504288,-133.34892
3145000000,94.10994,-135.0553
3146000000,93.957352,-134.25647
3147000000,93.833,-134.03656
3148000000,93.865707,-135.00856
3149000000,93.527985,-136.44234
3150000000,93.53138,-135.59961
3151000000,93.283775,-134.28934
3152000000,93.172951,-134.81529
3153000000,93.196472,-135.83713
3154000000,92.713821,-133.9305
3155000000,92.828888,-135.58974
3156000000,92.746536,-135.27873
3157000000,92.564774,-134.83934
3158000000,92.568512,-133.36493
3159000000,92.201843,-133.78113
3160000000,92.035881,-134.04037
3161000000,91.907013,-133.31721
3162000000,91.904984,-132.8136
3163000000,91.859589,-134.19347
3164000000,91.558334,-134.004
3165000000,91.57682,-132.90364
3166000000,91.282433,-132.40077
3167000000,91.188652,-134.46477
3168000000,91.012466,-131.16017
3169000000,90.72258,-134.77998
3170000000,90.918846,-135.61073
3171000000,90.667931,-133.88374
3172000000,90.317169,-134.37726
3173000000,90.311142,-133.19879
3174000000,90.145424,-135.54256
3175000000,89.847038,-135.23259
3176000000,89.776985,-133.98395
3177000000,89.758385,-133.50131
3178000000,89.595802,-133.39722
3179000000,89.380623,-133.00854
3180000000,89.326653,-134.09224
3181000000,89.094078,-133.52043
3182000000,88.982643,-135.59729
3183000000,88.964676,-135.32166
3184000000,88.73632,-134.29425
3185000000,88.685425,-134.50706
3186000000,88.654694,-134.00423
3187000000,88.271721,-135.29808
3188000000,88.249802,-134.76341
3189000000,88.05719,-134.72038
3190000000,88.080154,-136.42981
3191000000,87.84375,-136.02467
3192000000,87.599571,-134.34393
3193000000,87.59771,-135.49855
3194000000,87.270844,-136.13643
3195000000,87.274078,-136.03423
3196000000,87.040436,-135.21948
3197000000,86.842438,-136.07661
3198000000,86.820053,-136.65752
3199000000,86.638641,-135.22818
3200000000,86.625923,-134.91957
3201000000,86.320267,-135.95801
3202000000,86.173119,-136.20581
3203000000,86.017914,-133.64671
3204000000,86.005791,-134.94644
3205000000,85.844971,-134.51595
3206000000,85.775574,-134.1579
3207000000,85.782188,-134.422
3208000000,85.37632,-134.91144
3209000000,85.013771,-135.06296
3210000000,85.08625,-135.13901
3211000000,84.877678,-134.39001
3212000000,84.531792,-135.95767
3213000000,84.728203,-133.66983
3214000000,84.501419,-133.90883
3215000000,84.460236,-133.18376
3216000000,84.302696,-133.17308
3217000000,84.215897,-134.99936
3218000000,83.932404,-134.57849
3219000000,83.874268,-134.44693
3220000000,83.745415,-132.97997
3221000000,83.602615,-133.6967
3222000000,83.479492,-132.2916
3223000000,83.148804,-133.94786
3224000000,83.281281,-135.11122
3225000000,82.983727,-135.31081
3226000000,82.638832,-134.73283
3227000000,82.532959,-134.0648
3228000000,82.506676,-134.08659
3229000000,82.268234,-135.78125
3230000000,82.164223,-135.50424
3231000000,81.990547,-135.10556
3232000000,82.075417,-134.54823
3233000000,81.516922,-135.3008
3234000000,81.660507,-135.95523
3235000000,81.594933,-135.18054
3236000000,81.228493,-135.60085
3237000000,81.054123,-135.94487
3238000000,81.187851,-135.75276
3239000000,80.835922,-134.55272
3240000000,80.910721,-134.634
3241000000,80.504929,-134.97856
3242000000,80.517601,-134.31046
3243000000,80.315163,-133.91814
3244000000,80.292053,-134.3289
3245000000,79.989578,-133.42831
3246000000,79.881432,-134.16385
3247000000,80.014824,-132.79739
3248000000,79.397186,-133.18607
3249000000,79.298965,-133.93959
3250000000,79.405457,-132.442
3251000000,79.019157,-134.20729
3252000000,79.100845,-131.89572
3253000000,78.939484,-131.7097
3254000000,78.736977,-131.80685
3255000000,78.505379,-130.64973
3256000000,78.271759,-131.49583
3257000000,78.204636,-131.45042
3258000000,78.352356,-131.14967
3259000000,77.742912,-130.80435
3260000000,77.893669,-131.13811
3261000000,77.692482,-131.57742
3262000000,77.502838,-131.04359
3263000000,77.310928,-131.15108
3264000000,77.223396,-130.39706
3265000000,77.120285,-131.37299
3266000000,76.78746,-130.54741
3267000000,76.733932,-130.64844
3268000000,76.595993,-131.05055
3269000000,76.598534,-130.43498
3270000000,76.157784,-130.53534
3271000000,76.253357,-129.83618
3272000000,75.884422,-131.19395
3273000000,75.793938,-129.9021
3274000000,75.7006,-131.66808
3275000000,75.587875,-129.77272
3276000000,75.363914,-129.22816
3277000000,75.160912,-129.10323
3278000000,75.292,-129.80359
3279000000,74.781097,-129.47911
3280000000,74.853157,-128.07225
3281000000,74.555321,-128.25346
3282000000,74.523201,-127.79244
3283000000,74.211807,-128.26086
3284000000,74.193466,-127.71438
3285000000,74.141441,-127.26019
3286000000,73.852333,-126.50204
3287000000,73.749672,-126.52335
3288000000,73.42334,-126.98573
3289000000,73.425125,-126.82836
3290000000,73.177917,-126.79361
3291000000,73.210869,-126.59303
3292000000,72.625557,-125.68988
3293000000,72.810875,-125.94365
3294000000,72.712784,-125.36655
3295000000,72.362442,-125.41124
3296000000,72.19989,-124.49035
3297000000,72.133682,-124.88131
3298000000,72.075348,-125.18891
3299000000,71.81414,-125.66413
3300000000,71.463379,-124.83453
3301000000,71.21936,-125.91559
3302000000,71.357681,-124.05083
3303000000,71.022682,-124.8042
3304000000,70.812302,-124.86766
3305000000,70.585625,-124.56241
3306000000,70.715393,-123.8389
3307000000,70.283165,-123.66583
3308000000,70.218361,-123.09128
3309000000,70.008385,-123.60419
3310000000,70.190239,-122.97261
3311000000,69.889038,-122.17178
3312000000,69.64151,-122.45985
3313000000,69.408432,-122.65482
3314000000,69.356133,-121.83012
3315000000,68.960014,-122.46218
3316000000,68.835068,-122.14048
3317000000,68.931015,-121.60806
3318000000,68.818054,-121.37155
3319000000,68.502464,-121.70162
3320000000,68.426277,-121.1058
3321000000,68.248253,-121.09042
3322000000,67.901871,-121.35588
3323000000,67.751808,-121.19559
3324000000,67.686516,-120.26473
3325000000,67.410469,-120.51821
3326000000,67.222076,-120.29015
3327000000,67.24099,-120.29095
3328000000,67.010437,-120.42669
3329000000,66.671066,-119.63765
3330000000,66.543251,-119.95502
3331000000,66.600746,-118.89896
3332000000,66.265823,-119.99244
3333000000,66.144066,-119.76566
3334000000,66.090828,-119.75494
3335000000,65.777298,-119.10812
3336000000,65.468323,-119.61829
3337000000,65.521973,-119.15427
3338000000,65.318031,-119.41537
3339000000,64.954193,-119.1068
3340000000,65.072487,-119.22918
3341000000,64.731979,-119.21254
3342000000,64.571037,-119.21516
3343000000,64.511055,-119.04826
3344000000,64.253258,-118.79823
3345000000,63.956917,-119.03374
3346000000,63.86438,-118.55849
3347000000,63.797634,-118.83788
3348000000,63.343365,-118.95493
3349000000,63.269108,-118.74321
3350000000,63.388916,-118.5976
3351000000,62.873661,-118.44892
3352000000,62.660866,-118.86412
3353000000,62.584,-117.93665
3354000000,62.583782,-117.86437
3355000000,62.252033,-118.3682
3356000000,62.205593,-117.81742
3357000000,61.909504,-118.06611
3358000000,61.676102,-117.57503
3359000000,61.457306,-117.55507
3360000000,61.344185,-117.72449
3361000000,61.044098,-117.57213
3362000000,60.768433,-117.48475
3363000000,60.822384,-116.94583
3364000000,60.637566,-116.95577
3365000000,60.217945,-116.90197
3366000000,60.16452,-117.24123
3367000000,60.04052,-116.90705
3368000000,59.914795,-117.08233
3369000000,59.756027,-116.60573
3370000000,59.478539,-117.18591
3371000000,59.500946,-116.67537
3372000000,59.070694,-116.86549
3373000000,59.096752,-116.61761
3374000000,58.621895,-117.01485
3375000000,58.456913,-117.00113
3376000000,58.312939,-117.13188
3377000000,58.046768,-116.96236
3378000000,57.806076,-116.87817
3379000000,58.071663,-116.90042
3380000000,57.545628,-116.84528
3381000000,57.276039,-116.97826
3382000000,57.050869,-117.20733
3383000000,56.844578,-117.20159
3384000000,56.617794,-117.45953
3385000000,56.338768,-117.42562
3386000000,56.478409,-117.12183
3387000000,56.221581,-117.53585
3388000000,56.011471,-117.41675
3389000000,55.837597,-117.38428
3390000000,55.714588,-117.66785
3391000000,55.145084,-117.81534
3392000000,55.192596,-117.64847
3393000000,54.95496,-117.84236
3394000000,54.710297,-117.77272
3395000000,54.791473,-117.78343
3396000000,54.495205,-117.78561
3397000000,54.280193,-118.32057
3398000000,54.184029,-118.3766
3399000000,53.758518,-118.41502
3400000000,53.613846,-118.60263
3401000000,53.23106,-118.65899
3402000000,53.090023,-118.70713
3403000000,53.104916,-118.46018
3404000000,52.656441,-118.846
3405000000,52.384396,-119.03762
3406000000,52.404686,-119.1375
3407000000,52.31879,-119.26009
3408000000,52.077427,-119.3848
3409000000,51.602005,-119.25949
3410000000,51.476841,-119.56956
3411000000,51.316071,-119.93165
3412000000,51.133541,-119.57504
3413000000,50.806576,-120.26376
3414000000,50.84668,-119.90613
3415000000,50.403923,-120.44276
3416000000,50.172359,-120.41753
3417000000,50.044079,-120.70419
3418000000,50.089363,-120.71495
3419000000,49.393993,-121.39359
3420000000,49.602783,-121.4481
3421000000,49.031078,-121.95072
3422000000,48.709805,-122.13474
3423000000,48.782471,-122.38067
3424000000,48.438702,-122.38055
3425000000,48.38237,-122.56463
3426000000,48.085323,-123.10732
3427000000,47.898083,-123.28619
3428000000,47.628883,-123.90959
3429000000,47.470524,-123.92449
3430000000,47.439159,-124.0599
3431000000,46.933216,-124.86097
3432000000,46.930267,-124.88631
3433000000,46.579628,-125.4277
3434000000,46.45422,-125.58214
3435000000,46.085331,-126.04397
3436000000,45.886845,-126.46788
3437000000,45.703262,-126.67513
3438000000,45.349121,-126.93803
3439000000,45.134808,-127.4476
3440000000,44.989346,-127.62144
3441000000,44.695427,-127.98246
3442000000,44.461693,-128.37329
3443000000,44.373344,-128.63948
3444000000,44.180012,-128.83939
3445000000,43.658653,-129.60344
3446000000,43.740494,-129.58096
3447000000,43.270313,-130.34476
3448000000,43.195526,-130.49898
3449000000,43.014957,-130.78571
3450000000,42.650261,-131.27934
3451000000,42.589149,-131.48529
3452000000,42.115635,-132.1051
3453000000,42.068974,-132.39455
3454000000,41.424915,-132.94423
3455000000,41.813869,-133.01994
3456000000,41.149662,-133.75511
3457000000,41.207851,-133.88905
3458000000,40.898132,-134.57521
3459000000,40.700848,-134.82306
3460000000,40.574543,-135.54449
3461000000,40.383812,-135.94928
3462000000,39.863083,-136.45938
3463000000,39.756958,-136.97313
3464000000,39.745049,-137.46735
3465000000,39.471603,-137.85522
3466000000,39.406605,-138.25987
3467000000,39.045883,-138.86507
3468000000,38.826241,-139.50473
3469000000,38.445614,-140.35078
3470000000,38.352604,-140.67737
3471000000,37.99041,-141.49931
3472000000,37.845669,-142.05592
3473000000,37.83149,-142.57187
3474000000,37.35788,-143.46161
3475000000,37.212677,-143.97
3476000000,37.24078,-144.46008
3477000000,37.060452,-145.00534
3478000000,36.750931,-145.86807
3479000000,36.296261,-146.66104
3480000000,36.302898,-147.0829
3481000000,36.201172,-147.62411
3482000000,35.960567,-148.27074
3483000000,35.844395,-148.99463
3484000000,35.424942,-149.66216
3485000000,35.477879,-150.01053
3486000000,34.878117,-151.00308
3487000000,34.779243,-151.58803
3488000000,34.776501,-152.06836
3489000000,34.706734,-152.67102
3490000000,34.501694,-153.31589
3491000000,34.177979,-154.08603
3492000000,34.100525,-154.76695
3493000000,34.020901,-155.50917
3494000000,33.904522,-156.13515
3495000000,33.711773,-156.94344
3496000000,33.621964,-157.78236
3497000000,33.502056,-158.41313
3498000000,33.403782,-159.1006
3499000000,33.130466,-160.15668
3500000000,33.234497,-160.68726
3501000000,33.07077,-161.25191
3502000000,32.76944,-162.24406
3503000000,32.727955,-162.91537
3504000000,32.512337,-163.94736
3505000000,32.620167,-164.66959
3506000000,32.18977,-165.61697
3507000000,32.23455,-166.18314
3508000000,32.273163,-167.04787
3509000000,32.278069,-168.01926
3510000000,32.516258,-168.61694
3511000000,32.439137,-169.54199
3512000000,32.228436,-170.5575
3513000000,32.240955,-171.35583
3514000000,32.255623,-172.11755
3515000000,32.231205,-173.26656
3516000000,32.237663,-174.02565
3517000000,32.18161,-174.84135
3518000000,32.332806,-175.66371
3519000000,32.245049,-176.62993
3520000000,32.124874,-177.48886
3521000000,32.375782,-178.30434
3522000000,32.27882,-179.13571
3523000000,32.310684,179.70752
3524000000,32.618397,179.13977
3525000000,32.390751,178.08719
3526000000,32.54203,177.10364
3527000000,32.386616,176.36877
3528000000,32.448551,175.31303
3529000000,32.463215,174.39
3530000000,33.124947,173.72562
3531000000,32.68145,172.49971
3532000000,33.065662,171.85408
3533000000,32.84137,170.63013
3534000000,32.747131,169.6582
3535000000,33.318935,169.02939
3536000000,33.197243,167.85603
3537000000,33.442638,167.23778
3538000000,33.804909,166.25179
3539000000,33.847954,165.40869
3540000000,33.981815,164.31158
3541000000,33.794254,163.3925
3542000000,34.072178,162.43314
3543000000,34.086334,161.49991
3544000000,34.057888,160.56807
3545000000,34.41843,159.81789
3546000000,34.461674,158.7728
3547000000,34.433392,157.81459
3548000000,34.406231,156.92474
3549000000,34.625954,156.17616
3550000000,34.751434,155.08171
3551000000,34.658817,154.14206
3552000000,35.058147,153.28346
3553000000,34.732605,152.19221
3554000000,35.037327,151.30627
3555000000,35.236874,150.75696
3556000000,35.379543,149.62582
3557000000,35.530212,148.97888
3558000000,35.362045,147.85626
3559000000,35.496128,147.2809
3560000000,35.322227,146.12299
3561000000,35.48188,145.4183
3562000000,35.441208,144.33415
3563000000,35.343258,143.5085
3564000000,35.648026,142.7955
3565000000,35.46291,141.72279
3566000000,35.631958,141.07925
3567000000,35.652382,140.22025
3568000000,35.423935,139.18799
3569000000,35.621151,138.55933
3570000000,35.764164,137.62227
3571000000,35.835949,137.01183
3572000000,35.745625,136.07346
3573000000,35.601093,135.36514
3574000000,35.435547,134.28494
3575000000,35.136715,133.44223
3576000000,35.399166,132.75284
3577000000,35.089058,131.81284
3578000000,35.236958,131.13232
3579000000,34.836788,130.05402
3580000000,34.602314,129.09673
3581000000,34.848431,128.48697
3582000000,34.798351,127.84117
3583000000,34.527466,126.94594
3584000000,34.613106,126.24759
3585000000,34.586853,125.49428
3586000000,34.367416,124.78291
3587000000,34.700356,124.13829
3588000000,34.446358,123.29127
3589000000,34.211864,122.70474
3590000000,34.029202,121.65268
3591000000,33.655037,121.11546
3592000000,33.936089,120.34725
3593000000,33.834362,119.7765
3594000000,33.586781,118.88922
3595000000,33.381157,117.96526
3596000000,33.543331,117.4463
3597000000,33.187828,116.60857
3598000000,33.288517,115.878
3599000000,33.152107,115.39368
3600000000,32.862801,114.48215
3601000000,32.891659,113.89445
3602000000,32.65453,112.95432
3603000000,32.401295,112.47419
3604000000,32.075886,111.43259
3605000000,32.078102,110.7674
3606000000,32.138607,110.32018
3607000000,31.781237,109.53551
3608000000,31.748068,108.89198
3609000000,31.625713,108.35074
3610000000,31.597668,107.66621
3611000000,31.239254,106.85613
3612000000,31.076469,105.96152
3613000000,31.022669,105.39252
3614000000,31.132996,104.76218
3615000000,30.941027,103.89097
3616000000,30.54513,103.04292
3617000000,30.337198,102.6759
3618000000,30.498434,101.75837
3619000000,30.251749,101.20695
3620000000,30.078981,100.68747
3621000000,30.320805,100.25497
3622000000,29.762884,99.295273
3623000000,29.270664,98.396278
3624000000,29.329771,97.762581
3625000000,29.394413,97.22805
3626000000,29.261259,96.62648
3627000000,28.9659,95.924568
3628000000,28.819021,95.238014
3629000000,28.748785,94.496948
3630000000,28.811346,93.957222
3631000000,28.661745,93.074654
3632000000,28.778542,92.732193
3633000000,28.669794,91.98185
3634000000,28.332481,91.215401
3635000000,27.734383,90.361244
3636000000,28.072048,89.916008
3637000000,27.81218,89.01825
3638000000,27.81842,88.578751
3639000000,27.863953,88.06266
3640000000,27.683683,87.233704
3641000000,27.793631,86.546555
3642000000,27.540682,86.166077
3643000000,27.427134,85.231194
3644000000,27.696463,84.656197
3645000000,27.698372,83.968964
3646000000,27.206591,83.217499
3647000000,27.495468,82.723648
3648000000,27.4505,82.308586
3649000000,27.06008,81.334297
3650000000,27.161499,80.67614
3651000000,27.32127,80.072693
3652000000,27.41888,79.403168
3653000000,27.407219,78.980293
3654000000,27.194195,78.020485
3655000000,27.507864,77.468285
3656000000,27.338257,76.803795
3657000000,27.003502,75.987022
3658000000,27.468081,75.442032
3659000000,27.303318,74.543488
3660000000,27.614853,74.25267
3661000000,27.595167,73.417007
3662000000,27.814737,73.004036
3663000000,27.983402,72.345261
3664000000,27.898159,71.621773
3665000000,27.757174,70.783607
3666000000,28.107485,70.385208
3667000000,28.251667,69.730392
3668000000,28.064016,68.688904
3669000000,28.244097,68.432854
3670000000,28.573488,67.544838
3671000000,28.641466,66.879906
3672000000,29.059866,66.35421
3673000000,28.878922,65.668655
3674000000,29.149714,65.088234
3675000000,29.454893,64.368752
3676000000,29.625959,63.681221
3677000000,29.790377,63.147068
3678000000,29.982714,62.229053
3679000000,30.500383,61.810127
3680000000,30.590139,61.170712
3681000000,31.039553,60.581654
3682000000,30.963539,59.877613
3683000000,31.362198,59.218731
3684000000,31.721369,58.617191
3685000000,32.065376,57.939068
3686000000,32.448608,57.376785
3687000000,32.618649,56.704655
3688000000,32.716148,55.912849
3689000000,33.152924,55.28265
3690000000,33.688511,54.78125
3691000000,34.1222,54.146236
3692000000,34.743137,53.6777
3693000000,34.964573,52.916042
3694000000,35.178097,52.070473
3695000000,35.421062,51.432629
3696000000,36.232292,50.898762
3697000000,36.40905,50.291496
3698000000,37.139511,49.734791
3699000000,37.511974,49.095371
3700000000,37.97401,48.477047
3701000000,38.248154,47.570023
3702000000,38.456924,46.868477
3703000000,38.950596,46.453426
3704000000,39.464088,45.878483
3705000000,40.075676,45.231121
3706000000,40.319866,44.438389
3707000000,40.721184,44.054207
3708000000,41.453865,43.374046
3709000000,41.419109,42.798199
3710000000,42.200935,41.987507
3711000000,42.527065,41.764877
3712000000,42.907818,40.732143
3713000000,43.50676,40.360107
3714000000,43.896152,39.591713
3715000000,44.426109,39.094952
3716000000,44.732628,38.365376
3717000000,45.192802,37.878231
3718000000,45.549309,37.197098
3719000000,46.187149,36.704739
3720000000,46.41193,36.004265
3721000000,46.861439,35.484703
3722000000,47.384922,34.898071
3723000000,47.635578,34.206051
3724000000,47.819031,33.588234
3725000000,48.767345,33.062813
3726000000,48.915302,32.338722
3727000000,49.0742,31.794794
3728000000,49.596615,31.223408
3729000000,49.973728,30.674168
3730000000,50.072979,30.000626
3731000000,50.851295,29.502449
3732000000,50.988819,29.06778
3733000000,51.113407,28.349094
3734000000,51.488586,27.644932
3735000000,51.70821,27.181641
3736000000,52.073692,26.657084
3737000000,52.019737,25.931126
3738000000,52.560059,25.297394
3739000000,52.864864,24.890974
3740000000,52.937794,24.281319
3741000000,53.27137,23.725513
3742000000,53.467403,23.20863
3743000000,53.462467,22.389635
3744000000,53.857376,22.062597
3745000000,54.013981,21.432587
3746000000,54.071476,20.811409
3747000000,54.10783,20.248386
3748000000,54.553078,19.850935
3749000000,54.213741,19.115614
3750000000,54.509117,18.571115
3751000000,54.679878,18.171001
3752000000,54.959568,17.603285
3753000000,55.133228,17.2292
3754000000,55.064518,16.506348
3755000000,54.941677,15.829609
3756000000,55.485023,15.511732
3757000000,55.273655,14.61347
3758000000,55.377468,14.384372
3759000000,55.480427,13.801384
3760000000,55.604843,13.380176
3761000000,55.506809,12.652857
3762000000,55.686764,12.283874
3763000000,55.479057,11.804945
3764000000,55.531101,11.103964
3765000000,55.547058,10.664085
3766000000,55.653481,10.181923
3767000000,55.419903,9.6574612
3768000000,55.69408,9.3731394
3769000000,55.361511,8.5926638
3770000000,55.379551,8.1961012
3771000000,55.616428,7.7249336
3772000000,55.36972,7.1947064
3773000000,55.246849,6.6129799
3774000000,55.46624,6.3741274
3775000000,55.455273,5.6754656
3776000000,55.431705,5.4465909
3777000000,55.177464,4.8397017
3778000000,55.058826,4.3053002
3779000000,54.946568,3.773397
3780000000,55.091568,3.4569223
3781000000,54.940456,2.982265
3782000000,55.003223,2.5486183
3783000000,54.462234,1.9978601
3784000000,54.700432,1.5255915
3785000000,54.414566,0.95150727
3786000000,54.386806,0.57358491
3787000000,54.254818,0.076195665
3788000000,54.243019,-0.21236175
3789000000,53.98,-0.9238748
3790000000,53.844536,-1.4064051
3791000000,53.753277,-1.8211286
3792000000,53.83614,-1.9546378
3793000000,53.854469,-2.4310277
3794000000,53.447876,-2.9504402
3795000000,53.142624,-3.5831022
3796000000,53.426556,-3.7241333
3797000000,52.960052,-4.4725237
3798000000,52.987179,-4.7570524
3799000000,52.9105,-5.207634
3800000000,52.667934,-5.5095482
3801000000,52.58078,-6.001965
3802000000,52.364964,-6.4924269
3803000000,52.018822,-7.0594516
3804000000,51.949169,-7.3246422
3805000000,52.082104,-7.6004696
3806000000,51.792259,-8.0208387
3807000000,51.640678,-8.5903282
3808000000,51.379539,-8.9840517
3809000000,51.13686,-9.5289516
3810000000,51.093288,-9.7351151
3811000000,50.989532,-10.085436
3812000000,50.580738,-10.629501
3813000000,50.562233,-11.039589
3814000000,50.324554,-11.478468
3815000000,50.183456,-11.843536
3816000000,50.0191,-12.256192
3817000000,49.725124,-12.506018
3818000000,49.59687,-12.868139
3819000000,49.547901,-13.238322
3820000000,49.451744,-13.613877
3821000000,49.14439,-14.105309
3822000000,49.003353,-14.552777
3823000000,48.700211,-14.865181
3824000000,48.276497,-15.477179
3825000000,48.577484,-15.52436
3826000000,47.998173,-16.047379
3827000000,47.954926,-16.262096
3828000000,47.80397,-16.634615
3829000000,47.80785,-16.907074
3830000000,47.294315,-17.640802
3831000000,47.167465,-17.908833
3832000000,46.91021,-18.147797
3833000000,46.716415,-18.556055
3834000000,46.570339,-18.887535
3835000000,46.526291,-19.484192
3836000000,46.282509,-19.661644
3837000000,46.125721,-20.137289
3838000000,45.764111,-20.38777
3839000000,45.846252,-20.735668
3840000000,45.50087,-21.066469
3841000000,45.256752,-21.477251
3842000000,45.090809,-21.739361
3843000000,44.809891,-22.239101
3844000000,44.487251,-22.569082
3845000000,44.408447,-22.879993
3846000000,44.345703,-23.124537
3847000000,44.11702,-23.445301
3848000000,43.801682,-23.864954
3849000000,43.433147,-24.401125
3850000000,43.472164,-24.533216
3851000000,43.274319,-24.768888
3852000000,43.199421,-25.086517
3853000000,42.814869,-25.487633
3854000000,42.565575,-25.790417
3855000000,42.393967,-26.238298
3856000000,42.162773,-26.48432
3857000000,41.97522,-26.941664
3858000000,41.808762,-27.231819
3859000000,41.622772,-27.424843
3860000000,41.304783,-27.836298
3861000000,41.214092,-28.159943
3862000000,41.029659,-28.409061
3863000000,40.424118,-28.8556
3864000000,40.697411,-29.08284
3865000000,40.525463,-29.472078
3866000000,40.462532,-29.615686
3867000000,40.117069,-30.135208
3868000000,39.671291,-30.475109
3869000000,39.291519,-30.815313
3870000000,39.244728,-31.198385
3871000000,39.235718,-31.313471
3872000000,39.037476,-31.589191
3873000000,38.830528,-31.843086
3874000000,38.423462,-32.275433
3875000000,38.346073,-32.331848
3876000000,38.083576,-32.853462
3877000000,37.777588,-33.307804
3878000000,37.666653,-33.412464
3879000000,37.488144,-33.705853
3880000000,37.102886,-34.070038
3881000000,36.990063,-34.526833
3882000000,36.883781,-34.70639
3883000000,36.624187,-34.820473
3884000000,36.253166,-35.474117
3885000000,36.298264,-35.51952
3886000000,36.02158,-35.873833
3887000000,35.508923,-36.244347
3888000000,35.529778,-36.423134
3889000000,35.29303,-36.787376
3890000000,35.239067,-36.909817
3891000000,35.025734,-37.220921
3892000000,34.770653,-37.413597
3893000000,34.759823,-37.763569
3894000000,34.63406,-38.023968
3895000000,34.160503,-38.650417
3896000000,33.893425,-38.708477
3897000000,33.588406,-39.124638
3898000000,33.292503,-39.480648
3899000000,33.323944,-39.58754
3900000000,32.98259,-40.050278
3901000000,33.054325,-39.989162
3902000000,32.826168,-40.346626
3903000000,32.552486,-40.613106
3904000000,32.391548,-40.790909
3905000000,32.245186,-41.27393
3906000000,31.827148,-41.595364
3907000000,31.978195,-41.666077
3908000000,31.370131,-42.10593
3909000000,31.287239,-42.244698
3910000000,31.30636,-42.470165
3911000000,30.704863,-42.897781
3912000000,30.490376,-43.399181
3913000000,30.607779,-43.429913
3914000000,30.015961,-43.771133
3915000000,29.724833,-44.004765
3916000000,29.817778,-44.308025
3917000000,29.74041,-44.512291
3918000000,29.670776,-44.457195
3919000000,29.36578,-44.869823
3920000000,29.034697,-45.342373
3921000000,28.911665,-45.582157
3922000000,28.65844,-45.816383
3923000000,28.542215,-45.955769
3924000000,28.000702,-46.432381
3925000000,28.008005,-46.630951
3926000000,28.135466,-46.794716
3927000000,27.698118,-47.161945
3928000000,27.648548,-47.204315
3929000000,27.223516,-47.798786
3930000000,27.06344,-47.869225
3931000000,26.938103,-48.010593
3932000000,26.749901,-48.347813
3933000000,26.501339,-48.719543
3934000000,26.234785,-48.964344
3935000000,26.263832,-49.222885
3936000000,26.048912,-49.442875
3937000000,25.771046,-49.753525
3938000000,25.414921,-50.014881
3939000000,25.234022,-50.177673
3940000000,24.945814,-50.533142
3941000000,24.877972,-50.830933
3942000000,24.670538,-51.000835
3943000000,24.603363,-51.146614
3944000000,24.173553,-51.678818
3945000000,24.208761,-51.822449
3946000000,23.831217,-52.150776
3947000000,23.806593,-52.168629
3948000000,23.490416,-52.588917
3949000000,23.125036,-52.842365
3950000000,22.922806,-53.195015
3951000000,22.882406,-53.403149
3952000000,22.563534,-53.598831
3953000000,22.554331,-53.714146
3954000000,22.277437,-54.153645
3955000000,22.190218,-54.312794
3956000000,21.991499,-54.698112
3957000000,21.726627,-54.77047
3958000000,21.659439,-55.049728
3959000000,21.51498,-55.068707
3960000000,21.174501,-55.467728
3961000000,21.070444,-55.612022
3962000000,20.9872,-55.957451
3963000000,20.484701,-56.276955
3964000000,20.379311,-56.543941
3965000000,20.099234,-56.71067
3966000000,19.864182,-57.014774
3967000000,19.890646,-57.290783
3968000000,19.540321,-57.407753
3969000000,19.479073,-57.806664
3970000000,19.345291,-57.907963
3971000000,18.832504,-58.283848
3972000000,18.730495,-58.395706
3973000000,18.811747,-58.661106
3974000000,18.480347,-58.767651
3975000000,18.095291,-59.225178
3976000000,18.033434,-59.459805
3977000000,17.84466,-59.723366
3978000000,17.648476,-59.799057
3979000000,17.329903,-60.053257
3980000000,17.144859,-60.543304
3981000000,16.967325,-60.592472
3982000000,16.749454,-60.788288
3983000000,16.730299,-61.116123
3984000000,16.309362,-61.492447
3985000000,16.132019,-61.617554
3986000000,15.865084,-62.037258
3987000000,15.841712,-62.044449
3988000000,15.826777,-62.126842
3989000000,15.511019,-62.49667
3990000000,15.27562,-62.825966
3991000000,15.078729,-62.954399
3992000000,14.599796,-63.346722
3993000000,14.453275,-63.595264
3994000000,14.607222,-63.723808
3995000000,14.429434,-63.884449
3996000000,14.132123,-64.315598
3997000000,13.537475,-64.657387
3998000000,13.833056,-64.635353
3999000000,13.310376,-65.111237
4000000000,13.439536,-65.136459
4001000000,12.89826,-65.497406
4002000000,12.987367,-65.513496
4003000000,12.634128,-66.026428
4004000000,12.302462,-66.33313
4005000000,12.175633,-66.403488
4006000000,12.147736,-66.579834
4007000000,12.198216,-66.567368
4008000000,11.989624,-66.96286
4009000000,11.587161,-67.10643
4010000000,11.2232,-67.400963
4011000000,11.427352,-67.45977
4012000000,10.994188,-67.894844
4013000000,10.750359,-68.223442
4014000000,10.542296,-68.430672
4015000000,10.354118,-68.647751
4016000000,10.029053,-69.004135
4017000000,10.081823,-69.075562
4018000000,10.023954,-69.214531
4019000000,9.6363716,-69.569664
4020000000,9.6384659,-69.756104
4021000000,9.0563793,-70.260971
4022000000,9.0028877,-70.472069
4023000000,8.6891584,-70.696045
4024000000,8.4997635,-70.883636
4025000000,8.4708042,-70.986038
4026000000,8.3070498,-71.237778
4027000000,8.1495056,-71.428345
4028000000,7.9414244,-71.540665
4029000000,7.4013672,-71.96978
4030000000,7.5400133,-72.136833
4031000000,7.5523067,-72.256943
4032000000,6.8324604,-72.703072
4033000000,6.9627528,-72.69883
4034000000,6.8845944,-72.998878
4035000000,6.4267755,-73.341835
4036000000,6.2121601,-73.49527
4037000000,6.1548982,-73.75753
4038000000,5.7201996,-74.159355
4039000000,5.8735204,-74.114784
4040000000,5.5489559,-74.592316
4041000000,5.2448759,-74.846107
4042000000,4.8749208,-75.057396
4043000000,5.0649757,-75.052765
4044000000,4.620553,-75.455864
4045000000,4.6656156,-75.597885
4046000000,4.3388853,-75.895912
4047000000,4.1048889,-76.088692
4048000000,3.8886683,-76.440201
4049000000,3.8258555,-76.522552
4050000000,3.452157,-77.037735
4051000000,3.3839774,-77.195839
4052000000,3.1546075,-77.217247
4053000000,2.8344951,-77.549767
4054000000,2.8160474,-77.799515
4055000000,2.6413879,-77.911736
4056000000,2.5442674,-78.161118
4057000000,2.353313,-78.296478
4058000000,2.0362113,-78.771309
4059000000,1.8328134,-78.872536
4060000000,1.770774,-78.942085
4061000000,1.1998897,-79.486763
4062000000,1.3579558,-79.62027
4063000000,1.0150603,-79.796074
4064000000,0.91838765,-79.975601
4065000000,0.74594241,-80.061958
4066000000,0.34952375,-80.616814
4067000000,0.4938421,-80.651138
4068000000,0.31352553,-80.931465
4069000000,-0.26987618,-81.336975
4070000000,-0.23140919,-81.43219
4071000000,-0.68533105,-81.742088
4072000000,-0.64607394,-81.993187
4073000000,-0.79078674,-82.131752
4074000000,-0.789608,-82.140808
4075000000,-1.3564943,-82.822701
4076000000,-1.5798001,-82.991554
4077000000,-1.5428255,-83.085335
4078000000,-1.766276,-83.039589
4079000000,-2.053786,-83.491577
4080000000,-2.2122757,-83.841881
4081000000,-2.2132866,-84.108765
4082000000,-2.766593,-84.420128
4083000000,-3.018528,-84.743301
4084000000,-2.8427925,-84.748131
4085000000,-3.1481891,-84.932205
4086000000,-2.9918282,-85.088684
4087000000,-3.2724447,-85.262108
4088000000,-3.825242,-85.808098
4089000000,-3.7353089,-85.873199
4090000000,-4.1354308,-86.275421
4091000000,-4.2495661,-86.528915
4092000000,-4.3836451,-86.619896
4093000000,-4.5989199,-86.860603
4094000000,-4.5646753,-86.890945
4095000000,-5.1343288,-87.295403
4096000000,-5.2072859,-87.416023
4097000000,-5.2561703,-87.742859
4098000000,-5.5831847,-88.164734
4099000000,-5.9557972,-88.280388
4100000000,-6.1683464,-88.688454
4101000000,-6.1799655,-88.737686
4102000000,-6.3283582,-88.945549
4103000000,-6.5080013,-89.16069
4104000000,-6.9261737,-89.527481
4105000000,-6.8582673,-89.647766
4106000000,-7.3282356,-89.949509
4107000000,-7.3415732,-90.140587
4108000000,-7.5859575,-90.464714
4109000000,-7.7523365,-90.5802
4110000000,-8.0651436,-90.911797
4111000000,-8.0419273,-91.137711
4112000000,-8.3377314,-91.400879
4113000000,-8.2926073,-91.461678
4114000000,-8.6280899,-91.823471
4115000000,-8.8318634,-91.953552
4116000000,-9.1625652,-92.410599
4117000000,-9.2509174,-92.426338
4118000000,-9.1074677,-92.645767
4119000000,-9.5655823,-92.851341
4120000000,-9.6498995,-93.134071
4121000000,-10.011681,-93.338417
4122000000,-10.033024,-93.484634
4123000000,-10.246297,-93.794273
4124000000,-10.43984,-94.266899
4125000000,-10.50178,-94.070343
4126000000,-10.769256,-94.708611
4127000000,-11.125615,-94.801575
4128000000,-11.369047,-95.207664
4129000000,-11.466224,-95.31942
4130000000,-11.530383,-95.523636
4131000000,-11.652414,-95.799637
4132000000,-12.139509,-96.174156
4133000000,-12.006565,-96.252518
4134000000,-12.444585,-96.672104
4135000000,-12.430649,-96.579399
4136000000,-12.875172,-97.045441
4137000000,-13.041448,-97.264084
4138000000,-13.193892,-97.50724
4139000000,-13.415178,-97.773827
4140000000,-13.645261,-97.963722
4141000000,-13.794364,-98.189713
4142000000,-14.006196,-98.417511
4143000000,-14.111986,-98.795036
4144000000,-14.248816,-98.900642
4145000000,-14.617002,-99.295601
4146000000,-14.740631,-99.35025
4147000000,-14.853896,-99.687096
4148000000,-15.017703,-99.836472
4149000000,-15.248338,-100.24448
4150000000,-15.738705,-100.47175
4151000000,-15.894564,-100.74376
4152000000,-15.896976,-100.84898
4153000000,-16.118362,-101.23193
4154000000,-16.132811,-101.28648
4155000000,-16.457685,-101.70679
4156000000,-17.048218,-102.0216
4157000000,-16.898666,-102.10601
4158000000,-16.849348,-102.30083
4159000000,-17.019566,-102.81429
4160000000,-17.477512,-102.90221
4161000000,-17.463793,-103.18678
4162000000,-17.970402,-103.313
4163000000,-17.9753,-103.59293
4164000000,-18.316299,-103.9059
4165000000,-18.30312,-103.94189
4166000000,-18.614956,-104.32745
4167000000,-18.640013,-104.4519
4168000000,-18.971191,-104.7781
4169000000,-19.045591,-105.24768
4170000000,-19.339594,-105.36825
4171000000,-19.385895,-105.42706
4172000000,-19.524426,-105.73367
4173000000,-19.836847,-105.9885
4174000000,-20.111555,-106.21168
4175000000,-20.464628,-106.51445
4176000000,-20.562054,-106.89443
4177000000,-20.646076,-106.96443
4178000000,-21.088869,-107.41319
4179000000,-20.887114,-107.50834
4180000000,-21.080456,-107.8127
4181000000,-21.54171,-108.1479
4182000000,-21.449684,-108.2047
4183000000,-21.932762,-108.71414
4184000000,-21.979183,-108.76126
4185000000,-22.049303,-108.81484
4186000000,-22.256201,-109.15144
4187000000,-22.590734,-109.54953
4188000000,-22.785027,-109.90771
4189000000,-22.724998,-109.92872
4190000000,-23.223883,-110.49584
4191000000,-23.309326,-110.70868
4192000000,-23.603252,-110.91254
4193000000,-23.6227,-111.02373
4194000000,-23.842594,-111.28503
4195000000,-23.965124,-111.57343
4196000000,-24.414793,-111.96635
4197000000,-24.196247,-112.25917
4198000000,-24.270119,-112.06935
4199000000,-24.74077,-112.59632
4200000000,-24.945709,-112.85372
4201000000,-25.230768,-113.07915
4202000000,-25.04682,-113.15623
4203000000,-25.503996,-113.64027
4204000000,-25.664219,-113.89528
4205000000,-25.875616,-114.13988
4206000000,-26.089756,-114.492
4207000000,-26.194073,-114.7263
4208000000,-26.238928,-114.7386
4209000000,-26.634331,-115.2628
4210000000,-26.796803,-115.49564
4211000000,-26.943932,-115.73108
4212000000,-26.992441,-115.98633
4213000000,-27.311979,-116.17108
4214000000,-27.531691,-116.47187
4215000000,-27.608311,-116.88796
4216000000,-27.710428,-116.86562
4217000000,-27.838476,-117.1442
4218000000,-28.155005,-117.51588
4219000000,-28.054533,-117.63986
4220000000,-28.711065,-118.06971
4221000000,-28.553072,-118.14229
4222000000,-28.972403,-118.49026
4223000000,-29.118719,-118.77499
4224000000,-29.01881,-119.05886
4225000000,-29.333878,-119.37372
4226000000,-29.499079,-119.57114
4227000000,-29.685007,-119.81245
4228000000,-30.179226,-120.19931
4229000000,-29.884329,-120.3555
4230000000,-30.370382,-120.84188
4231000000,-30.448584,-120.81321
4232000000,-30.525318,-121.14748
4233000000,-30.68721,-121.39451
4234000000,-31.002636,-121.76076
4235000000,-30.920532,-122.0429
4236000000,-31.233807,-122.24956
4237000000,-31.295254,-122.65253
4238000000,-31.504381,-122.80759
4239000000,-31.611195,-123.03741
4240000000,-31.749657,-123.19401
4241000000,-32.062508,-123.57284
4242000000,-32.159733,-123.82215
4243000000,-32.146198,-124.03789
4244000000,-32.29245,-124.21059
4245000000,-32.455433,-124.56582
4246000000,-32.834091,-124.982
4247000000,-32.667641,-124.96622
4248000000,-33.053596,-125.32719
4249000000,-32.989204,-125.41512
4250000000,-33.269115,-125.85692
4251000000,-33.367352,-126.09786
4252000000,-33.83894,-126.77748
4253000000,-33.667439,-126.70859
4254000000,-33.915623,-126.93258
4255000000,-34.38456,-127.41496
4256000000,-34.063908,-127.4757
4257000000,-34.425343,-127.81661
4258000000,-34.404598,-128.22478
4259000000,-34.729176,-128.37134
4260000000,-34.848721,-128.6561
4261000000,-34.976463,-129.01764
4262000000,-34.909092,-129.01088
4263000000,-35.560375,-129.5443
4264000000,-35.456059,-129.63039
4265000000,-35.32024,-130.0127
4266000000,-35.644161,-130.34215
4267000000,-35.422482,-130.40736
4268000000,-35.915085,-130.73347
4269000000,-36.056068,-131.1319
4270000000,-36.078529,-131.34407
4271000000,-36.215836,-131.63322
4272000000,-36.28812,-131.90746
4273000000,-36.678143,-132.1405
4274000000,-36.742035,-132.47035
4275000000,-36.644085,-132.80884
4276000000,-36.933136,-133.11122
4277000000,-37.097557,-133.36812
4278000000,-37.08947,-133.44196
4279000000,-37.489262,-133.89876
4280000000,-37.463112,-134.2691
4281000000,-37.577057,-134.48566
4282000000,-37.71814,-134.692
4283000000,-37.512253,-134.98587
4284000000,-38.018185,-135.21353
4285000000,-37.986153,-135.5761
4286000000,-38.107407,-135.69939
4287000000,-38.26194,-136.14896
4288000000,-38.516167,-136.57161
4289000000,-38.232727,-136.4454
4290000000,-38.338993,-136.92482
4291000000,-38.422371,-137.14363
4292000000,-38.477215,-137.42953
4293000000,-38.565575,-137.8053
4294000000,-38.725559,-137.93764
4295000000,-38.698074,-138.14091
4296000000,-38.77042,-138.52991
4297000000,-39.016666,-138.82169
4298000000,-38.951481,-138.97127
4299000000,-38.955395,-139.30566
4300000000,-39.439793,-139.64037
4301000000,-39.184311,-139.80367
4302000000,-39.537323,-140.13837
4303000000,-39.345524,-140.25371
4304000000,-39.568695,-140.68546
4305000000,-39.399178,-140.93346
4306000000,-39.579296,-141.21822
4307000000,-39.634846,-141.58189
4308000000,-39.541122,-141.67538
4309000000,-39.5774,-142.04655
4310000000,-39.915199,-142.50206
4311000000,-39.970375,-142.79584
4312000000,-39.87051,-142.86856
4313000000,-40.071018,-143.24246
4314000000,-40.154598,-143.51564
4315000000,-39.886684,-143.58517
4316000000,-40.01392,-144.01785
4317000000,-40.496742,-144.31479
4318000000,-39.994335,-144.39624
4319000000,-40.041965,-144.88849
4320000000,-39.999813,-144.94911
4321000000,-40.490761,-145.42296
4322000000,-40.365467,-145.73051
4323000000,-40.313423,-146.0639
4324000000,-40.296318,-146.17361
4325000000,-40.036667,-146.49658
4326000000,-40.211071,-146.82893
4327000000,-40.401054,-147.32793
4328000000,-39.865337,-147.09984
4329000000,-40.152569,-147.6855
4330000000,-40.298077,-147.88931
4331000000,-40.444977,-148.3804
4332000000,-40.245399,-148.36539
4333000000,-40.042191,-148.71793
4334000000,-39.995121,-148.98929
4335000000,-39.930401,-149.12906
4336000000,-40.170052,-149.59135
4337000000,-40.123833,-149.76064
4338000000,-40.178413,-150.06174
4339000000,-40.073078,-150.45781
4340000000,-39.831997,-150.6963
4341000000,-39.800804,-150.89659
4342000000,-39.828396,-151.36322
4343000000,-39.736313,-151.55275
4344000000,-39.625187,-151.58865
4345000000,-39.688934,-152.1055
4346000000,-39.377716,-152.24367
4347000000,-39.540558,-152.52509
4348000000,-38.950779,-152.69652
4349000000,-39.149925,-152.89261
4350000000,-39.052719,-153.21704
4351000000,-39.098598,-153.80637
4352000000,-39.039322,-153.8004
4353000000,-38.76844,-154.08443
4354000000,-38.670513,-154.55031
4355000000,-38.749214,-154.67329
4356000000,-38.417065,-155.13991
4357000000,-38.501774,-155.28047
4358000000,-38.10598,-155.66632
4359000000,-37.793217,-155.88562
4360000000,-37.752739,-156.24898
4361000000,-37.605564,-156.46793
4362000000,-37.101654,-156.54692
4363000000,-37.254555,-156.7896
4364000000,-36.94606,-157.15099
4365000000,-37.280525,-157.54947
4366000000,-36.917515,-157.92912
4367000000,-36.687931,-158.01501
4368000000,-36.420418,-158.25073
4369000000,-36.238422,-158.57745
4370000000,-35.752357,-158.77744
4371000000,-35.9837,-159.09518
4372000000,-35.898361,-159.51982
4373000000,-35.423336,-159.63866
4374000000,-35.474724,-160.0069
4375000000,-35.030781,-160.03796
4376000000,-34.793022,-160.61432
4377000000,-34.799225,-160.91318
4378000000,-34.297386,-160.99544
4379000000,-34.081734,-161.43321
4380000000,-33.695641,-161.59943
4381000000,-33.560165,-161.79552
4382000000,-33.228725,-162.11707
4383000000,-32.741695,-162.36354
4384000000,-32.574436,-162.68192
4385000000,-32.179264,-162.8385
4386000000,-31.91995,-163.36082
4387000000,-31.543051,-163.46956
4388000000,-31.598509,-163.9355
4389000000,-31.11854,-163.99347
4390000000,-30.446337,-164.17114
4391000000,-30.238129,-164.61656
4392000000,-29.806643,-164.79126
4393000000,-29.530777,-165.13208
4394000000,-29.018015,-165.34573
4395000000,-28.620239,-165.57556
4396000000,-28.366966,-166.00018
4397000000,-27.903641,-166.23988
4398000000,-27.205696,-166.37692
4399000000,-27.192753,-166.88034
4400000000,-26.72213,-167.04649
4401000000,-26.328773,-167.33945
4402000000,-25.554932,-167.49599
4403000000,-25.385042,-167.83296
4404000000,-24.807381,-168.03468
4405000000,-24.519333,-168.39973
4406000000,-24.292097,-168.57681
4407000000,-23.441483,-168.82899
4408000000,-23.207703,-169.32922
4409000000,-22.540888,-169.40637
4410000000,-22.55658,-169.78607
4411000000,-22.033043,-169.98982
4412000000,-21.18429,-170.30235
4413000000,-20.614897,-170.59631
4414000000,-20.236076,-170.91579
4415000000,-19.69021,-170.99319
4416000000,-19.102755,-171.30972
4417000000,-18.98086,-171.65723
4418000000,-18.557467,-171.82588
4419000000,-17.46887,-172.03087
4420000000,-17.356512,-172.3494
4421000000,-16.629484,-172.47835
4422000000,-16.220451,-172.89389
4423000000,-15.975526,-173.21756
4424000000,-15.182407,-173.3755
4425000000,-14.619635,-173.71904
4426000000,-13.914739,-173.79471
4427000000,-13.946758,-174.09808
4428000000,-13.219842,-174.58098
4429000000,-13.101066,-174.95555
4430000000,-11.979261,-174.92908
4431000000,-11.706203,-175.46327
4432000000,-11.353897,-175.61681
4433000000,-10.824152,-175.74678
4434000000,-10.169716,-176.21178
4435000000,-9.7936621,-176.40025
4436000000,-9.5122757,-176.70189
4437000000,-8.6518459,-176.93024
4438000000,-8.3438663,-177.35803
4439000000,-7.5153494,-177.35243
4440000000,-7.117167,-177.66374
4441000000,-6.8244519,-178.01048
4442000000,-6.1672344,-178.18271
4443000000,-5.9573898,-178.64694
4444000000,-5.1188145,-178.62141
4445000000,-4.8670149,-178.88843
4446000000,-4.4643059,-179.36235
4447000000,-3.7073622,-179.49539
4448000000,-3.5022573,-179.90431
4449000000,-3.1187136,179.9556
4450000000,-2.0612195,179.72316
4451000000,-1.9172891,179.42676
4452000000,-1.4531217,179.17583
4453000000,-1.3943322,178.70633
4454000000,-0.80902445,178.55498
4455000000,-0.31107882,178.2206
4456000000,-0.15106173,177.96277
4457000000,1.1329381,177.98256
4458000000,1.2456682,177.63704
4459000000,1.6851722,177.29062
4460000000,2.3880126,177.10548
4461000000,2.6439536,176.8756
4462000000,2.9822063,176.54596
4463000000,3.7717381,176.46375
4464000000,3.7279782,176.11864
4465000000,4.3639746,175.89485
4466000000,4.4095163,175.57558
4467000000,4.2835822,175.15808
4468000000,4.8792486,174.9899
4469000000,5.0831304,174.73787
4470000000,5.8783894,174.50211
4471000000,6.0742135,174.29112
4472000000,6.4761744,174.0197
4473000000,6.8000755,173.93623
4474000000,7.2508826,173.58359
4475000000,7.143765,173.23529
4476000000,7.5483232,172.93977
4477000000,7.8724823,172.8448
4478000000,8.1048174,172.42938
4479000000,8.6348162,172.209
4480000000,9.0460367,172.05876
4481000000,8.8825645,171.75053
4482000000,9.2559624,171.45111
4483000000,9.3249578,171.15472
4484000000,9.7053709,170.92342
4485000000,10.135917,170.72238
4486000000,9.9695082,170.46704
4487000000,10.169179,170.20355
4488000000,10.451715,170.07333
4489000000,10.992341,169.66322
4490000000,10.984155,169.65526
4491000000,11.133489,169.14143
4492000000,11.277818,168.99037
4493000000,11.513178,168.60971
4494000000,11.874856,168.25003
4495000000,12.258906,168.36742
4496000000,12.043319,167.98933
4497000000,12.852997,167.80574
4498000000,12.597508,167.43736
4499000000,12.753584,167.32549
4500000000,12.983239,167.14676
4501000000,13.084722,166.73032
4502000000,13.611147,166.70354
4503000000,13.403226,166.31966
4504000000,13.751166,166.13873
4505000000,13.377814,165.75745
4506000000,13.545098,165.46094
4507000000,14.019546,165.40559
4508000000,14.053031,165.19261
4509000000,14.332466,164.93135
4510000000,14.518605,164.62958
4511000000,14.549689,164.33203
4512000000,14.512034,164.04416
4513000000,14.642433,163.92479
4514000000,14.740324,163.53781
4515000000,14.649574,163.30043
4516000000,15.10881,163.27904
4517000000,15.039807,162.843
4518000000,14.946305,162.52255
4519000000,15.055738,162.44003
4520000000,15.2692,162.13454
4521000000,15.0614,161.86946
4522000000,14.701033,161.46201
4523000000,15.006767,161.36583
4524000000,15.583521,161.27632
4525000000,15.64379,160.96951
4526000000,15.289514,160.63219
4527000000,15.055576,160.47964
4528000000,15.358008,160.07536
4529000000,15.375292,159.951
4530000000,16.007956,159.8345
4531000000,15.660333,159.6259
4532000000,15.42716,159.19388
4533000000,15.475149,158.80588
4534000000,15.673455,158.6604
4535000000,15.623607,158.37233
4536000000,15.637649,158.26367
4537000000,15.865633,158.08635
4538000000,15.826522,157.84399
4539000000,15.527812,157.51744
4540000000,15.647173,157.38408
4541000000,15.541297,157.18552
4542000000,15.570232,156.92188
4543000000,15.666016,156.55263
4544000000,15.704915,156.55762
4545000000,15.360544,156.18155
4546000000,15.64643,156.0262
4547000000,15.584463,155.68454
4548000000,15.498979,155.43729
4549000000,15.396379,155.28401
4550000000,15.771608,155.28941
4551000000,15.297923,154.71204
4552000000,15.524663,154.54552
4553000000,15.500901,154.48143
4554000000,15.509544,154.08592
4555000000,15.588843,153.9705
4556000000,15.131191,153.61639
4557000000,15.084444,153.38232
4558000000,15.427965,153.16232
4559000000,15.191907,152.87181
4560000000,15.180717,152.74876
4561000000,15.26728,152.59564
4562000000,15.022293,152.23994
4563000000,15.063313,152.11682
4564000000,14.893045,151.9335
4565000000,15.147299,151.65913
4566000000,14.894983,151.42178
4567000000,15.04745,151.13956
4568000000,14.82818,150.89966
4569000000,14.912762,150.73782
4570000000,14.902281,150.56241
4571000000,14.800481,150.20767
4572000000,14.390718,149.92165
4573000000,14.484527,149.6823
4574000000,14.467253,149.57663
4575000000,14.371189,149.46257
4576000000,14.522108,149.12425
4577000000,14.356854,148.83932
4578000000,14.062403,148.65282
4579000000,14.117157,148.43735
4580000000,14.177766,148.36198
4581000000,13.851501,147.92618
4582000000,13.754625,147.67816
4583000000,13.658533,147.57951
4584000000,13.977677,147.34149
4585000000,13.415932,147.18488
4586000000,13.593455,146.9872
4587000000,13.33164,146.70624
4588000000,13.219785,146.52776
4589000000,13.28983,146.32916
4590000000,13.065879,146.12967
4591000000,12.940841,145.69505
4592000000,12.982229,145.62813
4593000000,12.631487,145.36679
4594000000,12.657785,145.12613
4595000000,12.613592,144.96461
4596000000,12.557657,144.69615
4597000000,12.344983,144.41121
4598000000,12.272882,144.30882
4599000000,12.311591,143.95906
4600000000,12.454457,143.95155
4601000000,11.949793,143.70892
4602000000,11.712779,143.34247
4603000000,11.804605,143.101
4604000000,11.672313,143.02425
4605000000,11.681692,142.73483
4606000000,11.448765,142.67494
4607000000,11.301837,142.39359
4608000000,11.377208,142.23311
4609000000,11.538062,142.10777
4610000000,10.770827,141.64117
4611000000,11.302287,141.73726
4612000000,11.055023,141.29633
4613000000,10.909346,141.09775
4614000000,10.758538,140.91878
4615000000,10.435886,140.48853
4616000000,10.339479,140.36905
4617000000,9.9267712,140.06471
4618000000,10.281879,139.95464
4619000000,10.038418,139.76683
4620000000,10.070082,139.64551
4621000000,9.7708998,139.38191
4622000000,9.9112501,139.28877
4623000000,9.6234894,138.9698
4624000000,9.5591831,138.70906
4625000000,9.3560324,138.44354
4626000000,9.1420736,138.25407
4627000000,8.9700623,138.16837
4628000000,8.998126,137.83267
4629000000,8.9770823,137.75583
4630000000,8.805728,137.53268
4631000000,8.7114754,137.21228
4632000000,8.2600832,137.03479
4633000000,8.5543661,136.77974
4634000000,8.3509912,136.73332
4635000000,8.1326933,136.48671
4636000000,8.0424843,136.22302
4637000000,7.737514,136.00621
4638000000,7.72154,135.91692
4639000000,7.6432352,135.70296
4640000000,7.2823095,135.45134
4641000000,7.3130264,135.25497
4642000000,7.2247968,134.89615
4643000000,6.6362329,134.63278
4644000000,6.9766793,134.59622
4645000000,6.8183126,134.52489
4646000000,6.6532164,134.04337
4647000000,6.3238239,134.02405
4648000000,6.0898533,133.64937
4649000000,5.9111257,133.46077
4650000000,6.0719895,133.28375
4651000000,5.6502256,133.09676
4652000000,5.8246465,133.00212
4653000000,5.4410939,132.70645
4654000000,5.3360376,132.55786
4655000000,5.1214147,132.29533
4656000000,5.2860532,132.03142
4657000000,5.0576978,131.82507
4658000000,5.0588956,131.78923
4659000000,4.5479813,131.49307
4660000000,4.4336019,131.32391
4661000000,4.3663974,131.18832
4662000000,4.3443327,130.85695
4663000000,4.0702157,130.61842
4664000000,3.7628682,130.35938
4665000000,4.0959849,130.38559
4666000000,3.4684062,130.07126
4667000000,3.4939706,129.83318
4668000000,3.1354361,129.58171
4669000000,3.4883449,129.63852
4670000000,3.0834975,129.34711
4671000000,2.7066176,128.90523
4672000000,2.6181359,128.72754
4673000000,2.3979158,128.50223
4674000000,2.4132738,128.42012
4675000000,2.2386491,128.23871
4676000000,2.4138036,128.22035
4677000000,1.846992,127.74787
4678000000,1.9916317,127.74692
4679000000,1.6297905,127.37106
4680000000,1.4811287,127.28302
4681000000,1.3579711,126.96527
4682000000,1.2257314,126.86206
4683000000,0.91558838,126.64337
4684000000,0.94824946,126.55043
4685000000,0.91211158,126.24154
4686000000,0.55093116,126.00292
4687000000,0.31210393,125.83604
4688000000,0.3059715,125.47608
4689000000,-0.074169405,125.30639
4690000000,0.0036855238,125.10093
4691000000,-0.25334215,125.0387
4692000000,-0.11477243,124.91374
4693000000,-0.39755246,124.73981
4694000000,-0.52542502,124.3797
4695000000,-0.98083419,124.19796
4696000000,-0.72397202,124.11066
4697000000,-0.82688826,124.03379
4698000000,-1.2170451,123.64267
4699000000,-1.2249445,123.37861
4700000000,-1.6476114,123.39699
4701000000,-1.7763642,123.00731
4702000000,-1.7609,122.94335
4703000000,-1.8579934,122.60926
4704000000,-2.0196922,122.53143
4705000000,-2.2191265,122.24842
4706000000,-2.4191997,121.94994
4707000000,-2.7066419,121.89138
4708000000,-3.0464158,121.73679
4709000000,-3.0389247,121.43112
4710000000,-3.2697828,121.09988
4711000000,-3.2391181,121.03439
4712000000,-3.4652965,120.86868
4713000000,-3.6384716,120.677
4714000000,-3.7140739,120.51948
4715000000,-4.1603985,120.15512
4716000000,-4.1912374,119.99077
4717000000,-4.246274,119.97587
4718000000,-4.6469588,119.57924
4719000000,-4.5509634,119.42278
4720000000,-4.6243114,119.4628
4721000000,-4.7893877,119.04755
4722000000,-5.1060472,118.81946
4723000000,-5.1582928,118.78416
4724000000,-5.298986,118.52402
4725000000,-5.4305377,118.41973
4726000000,-5.8933086,118.04806
4727000000,-5.531641,117.99477
4728000000,-6.0513954,117.81799
4729000000,-6.1647253,117.59269
4730000000,-6.1695266,117.46748
4731000000,-6.5092974,117.16944
4732000000,-6.6181178,117.01688
4733000000,-6.9360805,116.65799
4734000000,-6.7435532,116.74584
4735000000,-7.0840969,116.50191
4736000000,-7.2505565,116.22892
4737000000,-7.4407578,115.96265
4738000000,-7.5964928,115.54314
4739000000,-7.9685297,115.58811
4740000000,-7.716723,115.51688
4741000000,-8.017107,115.32577
4742000000,-8.0366402,115.21405
4743000000,-8.6512594,114.72132
4744000000,-8.6241131,114.63691
4745000000,-8.851841,114.50201
4746000000,-8.8233633,114.39754
4747000000,-9.0890808,114.02751
4748000000,-9.4008923,114.02177
4749000000,-9.1712885,113.77168
4750000000,-9.6391249,113.38733
4751000000,-9.8721437,113.13751
4752000000,-9.8921442,113.08981
4753000000,-9.7321587,113.04939
4754000000,-10.140306,112.62155
4755000000,-10.303275,112.57212
4756000000,-10.443587,112.24229
4757000000,-10.662564,112.14043
4758000000,-10.857941,111.92422
4759000000,-11.035285,111.64103
4760000000,-11.244807,111.46789
4761000000,-11.335361,111.31754
4762000000,-11.710081,111.23875
4763000000,-11.753115,110.83497
4764000000,-11.917077,110.84003
4765000000,-12.080153,110.48331
4766000000,-12.08412,110.27135
4767000000,-12.458309,109.99165
4768000000,-12.421546,109.98002
4769000000,-12.59447,109.84029
4770000000,-12.74484,109.50488
4771000000,-12.998209,109.34921
4772000000,-13.170275,109.38306
4773000000,-13.439578,108.96201
4774000000,-13.404724,108.89993
4775000000,-13.580769,108.67562
4776000000,-13.653261,108.55132
4777000000,-13.904373,108.23751
4778000000,-14.098514,107.94984
4779000000,-14.188425,107.92033
4780000000,-14.422443,107.53018
4781000000,-14.765127,107.4686
4782000000,-14.970879,107.06719
4783000000,-14.942646,106.87708
4784000000,-15.039018,106.83138
4785000000,-15.120069,106.73577
4786000000,-15.510533,106.47401
4787000000,-15.528842,106.38253
4788000000,-15.81381,106.26873
4789000000,-16.144913,105.87643
4790000000,-16.245684,105.54941
4791000000,-16.376556,105.49123
4792000000,-16.519514,105.34374
4793000000,-16.50754,105.16815
4794000000,-16.786402,105.03916
4795000000,-16.861076,104.82316
4796000000,-17.00149,104.57771
4797000000,-17.275753,104.49606
4798000000,-17.69285,104.12005
4799000000,-17.701242,104.03786
4800000000,-17.825878,103.92484
4801000000,-17.904108,103.63604
4802000000,-18.135714,103.43298
4803000000,-18.54674,103.0786
4804000000,-18.339125,103.02424
4805000000,-18.682081,102.8983
4806000000,-18.873186,102.68002
4807000000,-18.878241,102.53973
4808000000,-19.034416,102.20482
4809000000,-19.344025,102.19082
4810000000,-19.436546,101.84558
4811000000,-19.713684,101.42013
4812000000,-19.855448,101.52872
4813000000,-19.784239,101.28583
4814000000,-19.997385,101.14547
4815000000,-20.444136,100.86674
4816000000,-20.083252,100.73409
4817000000,-20.632597,100.60925
4818000000,-20.856588,100.24915
4819000000,-20.821064,100.11235
4820000000,-21.096434,99.89946
4821000000,-21.212214,99.824272
4822000000,-21.424969,99.548843
4823000000,-21.627525,99.607201
4824000000,-21.824444,99.162125
4825000000,-21.830969,99.110886
4826000000,-22.17997,98.945984
4827000000,-22.097357,98.798203
4828000000,-22.502935,98.437439
4829000000,-22.703419,98.274651
4830000000,-22.663153,98.120384
4831000000,-22.796894,97.715546
4832000000,-23.269648,97.694687
4833000000,-23.41555,97.487831
4834000000,-23.666674,97.17437
4835000000,-23.588062,97.107323
4836000000,-23.878994,97.006119
4837000000,-23.961325,96.644073
4838000000,-24.153521,96.453499
4839000000,-23.989351,96.371712
4840000000,-24.521168,96.194084
4841000000,-24.530025,96.076195
4842000000,-24.608889,95.723907
4843000000,-25.132618,95.445839
4844000000,-24.807859,95.448761
4845000000,-25.079315,95.226982
4846000000,-25.457376,94.917961
4847000000,-25.429174,94.8591
4848000000,-25.646034,94.642189
4849000000,-25.735167,94.554649
4850000000,-26.177505,94.258965
4851000000,-26.340668,94.098686
4852000000,-26.31707,93.739281
4853000000,-26.477648,93.821945
4854000000,-26.773586,93.519371
4855000000,-26.808178,93.35495
4856000000,-27.105276,93.165833
4857000000,-27.385489,92.761459
4858000000,-27.471661,92.808548
4859000000,-27.659458,92.415405
4860000000,-27.563894,92.342079
4861000000,-27.84623,91.982872
4862000000,-28.350546,91.692902
4863000000,-28.375759,91.600456
4864000000,-28.553648,91.426506
4865000000,-28.657001,91.345726
4866000000,-28.578051,91.161896
4867000000,-28.778084,90.941963
4868000000,-28.941391,90.878136
4869000000,-29.154652,90.572662
4870000000,-29.557705,90.30658
4871000000,-29.615793,90.042007
4872000000,-29.820925,89.936691
4873000000,-30.078609,89.666786
4874000000,-30.065834,89.547279
4875000000,-30.22271,89.466736
4876000000,-30.536831,89.374176
4877000000,-30.7596,89.015587
4878000000,-30.920847,88.776009
4879000000,-31.034666,88.442604
4880000000,-30.986095,88.34034
4881000000,-31.367579,88.186523
4882000000,-31.403263,88.146881
4883000000,-31.432049,87.94471
4884000000,-32.003098,87.63681
4885000000,-32.061676,87.425621
4886000000,-32.314705,87.216621
4887000000,-32.091164,87.142815
4888000000,-32.25703,86.988274
4889000000,-32.726715,86.554588
4890000000,-32.807346,86.370354
4891000000,-32.650745,86.371552
4892000000,-33.287407,86.112526
4893000000,-33.39806,85.899086
4894000000,-33.370205,85.747612
4895000000,-33.465847,85.587135
4896000000,-34.006233,85.291756
4897000000,-33.74498,85.112091
4898000000,-34.120514,84.84584
4899000000,-34.17717,84.756096
4900000000,-34.523693,84.365395
4901000000,-34.546917,84.430374
4902000000,-34.966667,84.235458
4903000000,-34.828217,84.102196
4904000000,-34.76017,83.853561
4905000000,-35.036831,83.675682
4906000000,-35.347126,83.380821
4907000000,-35.4226,83.157715
4908000000,-35.834351,83.025978
4909000000,-35.998875,82.852104
4910000000,-35.975384,82.802361
4911000000,-36.466103,82.459366
4912000000,-36.209106,82.34166
4913000000,-36.630081,82.039162
4914000000,-36.575684,81.824646
4915000000,-36.965549,81.642288
4916000000,-37.082752,81.567474
4917000000,-37.152855,81.372467
4918000000,-37.547234,81.004288
4919000000,-37.804119,80.652802
4920000000,-37.948456,80.591942
4921000000,-38.308334,80.636383
4922000000,-38.28281,80.306824
4923000000,-38.343353,80.057724
4924000000,-38.539848,79.891159
4925000000,-38.70084,79.640594
4926000000,-38.896458,79.422104
4927000000,-38.92923,79.103027
4928000000,-39.435101,79.016243
4929000000,-39.173832,78.919922
4930000000,-39.606892,78.661148
4931000000,-39.564194,78.439133
4932000000,-39.676899,78.303513
4933000000,-40.093605,78.061562
4934000000,-40.163486,77.839729
4935000000,-40.411545,77.786644
4936000000,-40.362541,77.604431
4937000000,-40.769558,77.292679
4938000000,-40.922779,77.046974
4939000000,-40.985466,77.036484
4940000000,-41.05616,76.826317
4941000000,-41.358913,76.522041
4942000000,-41.557102,76.386169
4943000000,-41.625286,76.2024
4944000000,-41.901123,75.936722
4945000000,-42.127972,75.821678
4946000000,-42.209435,75.609932
4947000000,-42.494411,75.398903
4948000000,-42.727501,75.148903
4949000000,-42.583561,75.179657
4950000000,-42.933022,74.776253
4951000000,-43.087284,74.648415
4952000000,-43.180328,74.625427
4953000000,-43.604626,74.309402
4954000000,-43.627068,74.115906
4955000000,-43.763954,73.812958
4956000000,-43.92775,73.67569
4957000000,-44.101608,73.539658
4958000000,-44.401318,73.283783
4959000000,-44.367386,73.063477
4960000000,-44.452106,72.864731
4961000000,-44.740562,72.797173
4962000000,-45.054958,72.705009
4963000000,-45.070591,72.3843
4964000000,-45.485989,72.239319
4965000000,-45.350475,72.114098
4966000000,-45.448334,71.814774
4967000000,-45.974918,71.550316
4968000000,-45.947392,71.382858
4969000000,-46.446529,71.24501
4970000000,-46.498386,71.072151
4971000000,-46.504711,70.889763
4972000000,-46.642845,70.780228
4973000000,-47.043819,70.544006
4974000000,-47.001797,70.12413
4975000000,-47.228859,70.037315
4976000000,-47.159447,69.842178
4977000000,-47.861736,69.525246
4978000000,-47.51545,69.53286
4979000000,-47.77116,69.247391
4980000000,-48.121727,69.137871
4981000000,-48.476402,68.810486
4982000000,-48.54715,68.625259
4983000000,-48.609154,68.49601
4984000000,-49.339458,68.153305
4985000000,-49.257977,68.148102
4986000000,-49.356705,67.799591
4987000000,-49.201614,67.824539
4988000000,-49.862087,67.54538
4989000000,-49.835518,67.344406
4990000000,-50.125916,67.126938
4991000000,-50.29213,66.852005
4992000000,-50.282906,66.604797
4993000000,-50.438118,66.44043
4994000000,-50.668293,66.359779
4995000000,-51.278599,66.044136
4996000000,-51.28611,65.859879
4997000000,-51.119637,65.658546
4998000000,-51.368267,65.51622
4999000000,-51.781925,65.30584
5000000000,-51.920753,65.280266
END

