!CSV A.01.01
!Agilent Technologies,E8362C,MY49020225,A.09.42.22
!Agilent E8362C: A.09.42.22
!Date: Thursday, February 25, 2016 16:42:25
!Source: Standard

BEGIN CH1_DATA
Freq(Hz),S11 Log Mag(dB)
1000000000,-1.0632459
1001000000,-1.0628211
1002000000,-1.062421
1003000000,-1.0789341
1004000000,-1.0784713
1005000000,-1.0515057
1006000000,-1.0444083
1007000000,-1.0548121
1008000000,-1.0542277
1009000000,-1.0587041
1010000000,-1.086044
1011000000,-1.0552534
1012000000,-1.0771253
1013000000,-1.0663085
1014000000,-1.040899
1015000000,-1.0534612
1016000000,-1.0904747
1017000000,-1.07665
1018000000,-1.0716025
1019000000,-1.0922703
1020000000,-1.085054
1021000000,-1.0749222
1022000000,-1.0885677
1023000000,-1.0907733
1024000000,-1.1005883
1025000000,-1.0946635
1026000000,-1.0619063
1027000000,-1.1069081
1028000000,-1.1025909
1029000000,-1.1105968
1030000000,-1.1053853
1031000000,-1.1069963
1032000000,-1.1301643
1033000000,-1.088859
1034000000,-1.0754735
1035000000,-1.0941944
1036000000,-1.0799893
1037000000,-1.1067764
1038000000,-1.117983
1039000000,-1.1054829
1040000000,-1.1018934
1041000000,-1.1141539
1042000000,-1.1169392
1043000000,-1.1046927
1044000000,-1.1318064
1045000000,-1.1305323
1046000000,-1.158093
1047000000,-1.1339713
1048000000,-1.1595237
1049000000,-1.1453083
1050000000,-1.1460662
1051000000,-1.1244982
1052000000,-1.1465508
1053000000,-1.1344231
1054000000,-1.118512
1055000000,-1.1583521
1056000000,-1.1619835
1057000000,-1.1339408
1058000000,-1.1713488
1059000000,-1.1250867
1060000000,-1.1541901
1061000000,-1.1575994
1062000000,-1.1483865
1063000000,-1.1550007
1064000000,-1.14408
1065000000,-1.1445907
1066000000,-1.1310891
1067000000,-1.1649702
1068000000,-1.1629376
1069000000,-1.1703576
1070000000,-1.1589712
1071000000,-1.167028
1072000000,-1.1515571
1073000000,-1.1660967
1074000000,-1.1575599
1075000000,-1.1702216
1076000000,-1.1793922
1077000000,-1.1518308
1078000000,-1.1636304
1079000000,-1.1728573
1080000000,-1.1787438
1081000000,-1.1895653
1082000000,-1.2009914
1083000000,-1.183699
1084000000,-1.2078336
1085000000,-1.1851572
1086000000,-1.2178619
1087000000,-1.2004184
1088000000,-1.1683863
1089000000,-1.1833755
1090000000,-1.1733755
1091000000,-1.1987245
1092000000,-1.204322
1093000000,-1.2217282
1094000000,-1.2118367
1095000000,-1.1891081
1096000000,-1.1950952
1097000000,-1.2118882
1098000000,-1.2075169
1099000000,-1.2077039
1100000000,-1.1724834
1101000000,-1.1985315
1102000000,-1.1914103
1103000000,-1.1932489
1104000000,-1.1986974
1105000000,-1.1892712
1106000000,-1.1953882
1107000000,-1.2146876
1108000000,-1.2436291
1109000000,-1.199687
1110000000,-1.2040063
1111000000,-1.219007
1112000000,-1.2223674
1113000000,-1.2090575
1114000000,-1.1922948
1115000000,-1.2195593
1116000000,-1.2250054
1117000000,-1.21691
1118000000,-1.2386529
1119000000,-1.2224013
1120000000,-1.2273927
1121000000,-1.2244343
1122000000,-1.2283124
1123000000,-1.222963
1124000000,-1.2653893
1125000000,-1.237447
1126000000,-1.2442431
1127000000,-1.2464514
1128000000,-1.2500079
1129000000,-1.2513001
1130000000,-1.2411209
1131000000,-1.2829504
1132000000,-1.274913
1133000000,-1.2535017
1134000000,-1.2199112
1135000000,-1.2540991
1136000000,-1.2380891
1137000000,-1.255886
1138000000,-1.2649624
1139000000,-1.2498628
1140000000,-1.2767937
1141000000,-1.2464705
1142000000,-1.2408327
1143000000,-1.2419251
1144000000,-1.2546374
1145000000,-1.243942
1146000000,-1.242072
1147000000,-1.2620659
1148000000,-1.2274117
1149000000,-1.2506876
1150000000,-1.2232755
1151000000,-1.2661769
1152000000,-1.2708156
1153000000,-1.247359
1154000000,-1.2354708
1155000000,-1.2443219
1156000000,-1.2488191
1157000000,-1.2433308
1158000000,-1.2443714
1159000000,-1.2705026
1160000000,-1.2772759
1161000000,-1.2609593
1162000000,-1.2473968
1163000000,-1.2619424
1164000000,-1.2778966
1165000000,-1.265406
1166000000,-1.2661914
1167000000,-1.2480689
1168000000,-1.2464093
1169000000,-1.2687663
1170000000,-1.2687001
1171000000,-1.2641915
1172000000,-1.2605411
1173000000,-1.2631022
1174000000,-1.2758583
1175000000,-1.2684973
1176000000,-1.2854737
1177000000,-1.2606401
1178000000,-1.2549629
1179000000,-1.2624902
1180000000,-1.2731004
1181000000,-1.2524749
1182000000,-1.2911761
1183000000,-1.2776097
1184000000,-1.2528108
1185000000,-1.2874681
1186000000,-1.2911766
1187000000,-1.2845099
1188000000,-1.272307
1189000000,-1.2485709
1190000000,-1.2734834
1191000000,-1.2325186
1192000000,-1.2819867
1193000000,-1.288337
1194000000,-1.2658826
1195000000,-1.2710904
1196000000,-1.3037173
1197000000,-1.283607
1198000000,-1.2646062
1199000000,-1.2630851
1200000000,-1.2763902
1201000000,-1.2783526
1202000000,-1.2827897
1203000000,-1.2631824
1204000000,-1.2754314
1205000000,-1.2749592
1206000000,-1.2843678
1207000000,-1.2844719
1208000000,-1.2963499
1209000000,-1.2882127
1210000000,-1.2981827
1211000000,-1.2842635
1212000000,-1.2661908
1213000000,-1.2962371
1214000000,-1.2872752
1215000000,-1.3029573
1216000000,-1.3112307
1217000000,-1.2869807
1218000000,-1.2455375
1219000000,-1.2813498
1220000000,-1.3152791
1221000000,-1.2854224
1222000000,-1.2912384
1223000000,-1.2630101
1224000000,-1.2864572
1225000000,-1.2940512
1226000000,-1.3018856
1227000000,-1.2994024
1228000000,-1.299477
1229000000,-1.2932129
1230000000,-1.2610047
1231000000,-1.2768418
1232000000,-1.3021808
1233000000,-1.3049189
1234000000,-1.2861327
1235000000,-1.3073511
1236000000,-1.2956632
1237000000,-1.2850507
1238000000,-1.2745665
1239000000,-1.3112514
1240000000,-1.2931608
1241000000,-1.3097191
1242000000,-1.2707603
1243000000,-1.3200195
1244000000,-1.3093096
1245000000,-1.3053377
1246000000,-1.2753687
1247000000,-1.3224862
1248000000,-1.3017379
1249000000,-1.2912812
1250000000,-1.3042316
1251000000,-1.2939482
1252000000,-1.316956
1253000000,-1.279169
1254000000,-1.3273528
1255000000,-1.2993442
1256000000,-1.2990547
1257000000,-1.297158
1258000000,-1.292183
1259000000,-1.3060735
1260000000,-1.3017615
1261000000,-1.3147354
1262000000,-1.3070691
1263000000,-1.2812095
1264000000,-1.3107785
1265000000,-1.2755944
1266000000,-1.2759556
1267000000,-1.3126726
1268000000,-1.2974036
1269000000,-1.283039
1270000000,-1.2888858
1271000000,-1.2957342
1272000000,-1.2934068
1273000000,-1.3109043
1274000000,-1.2671342
1275000000,-1.3289212
1276000000,-1.290808
1277000000,-1.3259763
1278000000,-1.2990839
1279000000,-1.2727218
1280000000,-1.3044934
1281000000,-1.297497
1282000000,-1.3063915
1283000000,-1.3241135
1284000000,-1.3318194
1285000000,-1.3118473
1286000000,-1.3233275
1287000000,-1.3295115
1288000000,-1.3111228
1289000000,-1.2913573
1290000000,-1.3094356
1291000000,-1.3170756
1292000000,-1.3189366
1293000000,-1.2925867
1294000000,-1.3113253
1295000000,-1.3093866
1296000000,-1.2840554
1297000000,-1.302066
1298000000,-1.2821674
1299000000,-1.2887931
1300000000,-1.3150902
1301000000,-1.3203243
1302000000,-1.3010743
1303000000,-1.2948102
1304000000,-1.2400975
1305000000,-1.2813352
1306000000,-1.2621036
1307000000,-1.2985967
1308000000,-1.2877011
1309000000,-1.2983257
1310000000,-1.2901859
1311000000,-1.304075
1312000000,-1.2945043
1313000000,-1.3038216
1314000000,-1.2821057
1315000000,-1.3009624
1316000000,-1.3319134
1317000000,-1.3115325
1318000000,-1.3107623
1319000000,-1.2995634
1320000000,-1.3204875
1321000000,-1.3257073
1322000000,-1.2824851
1323000000,-1.2919167
1324000000,-1.2881919
1325000000,-1.3235061
1326000000,-1.3103833
1327000000,-1.3120494
1328000000,-1.2925578
1329000000,-1.3211174
1330000000,-1.2938966
1331000000,-1.3106939
1332000000,-1.3031645
1333000000,-1.2967052
1334000000,-1.3079815
1335000000,-1.2844958
1336000000,-1.2748996
1337000000,-1.2960861
1338000000,-1.3042029
1339000000,-1.3008871
1340000000,-1.2917441
1341000000,-1.2752807
1342000000,-1.3060094
1343000000,-1.2698911
1344000000,-1.3097429
1345000000,-1.3074104
1346000000,-1.3187231
1347000000,-1.3046778
1348000000,-1.3092666
1349000000,-1.301854
1350000000,-1.3074324
1351000000,-1.3041614
1352000000,-1.2644126
1353000000,-1.2624283
1354000000,-1.2858524
1355000000,-1.294286
1356000000,-1.3011664
1357000000,-1.296842
1358000000,-1.3095865
1359000000,-1.3044358
1360000000,-1.3200495
1361000000,-1.320119
1362000000,-1.3004187
1363000000,-1.3008249
1364000000,-1.32285
1365000000,-1.3203378
1366000000,-1.3214723
1367000000,-1.3182846
1368000000,-1.3135197
1369000000,-1.2966834
1370000000,-1.3061576
1371000000,-1.3215704
1372000000,-1.2915207
1373000000,-1.3002027
1374000000,-1.3063825
1375000000,-1.2854115
1376000000,-1.294109
1377000000,-1.2922463
1378000000,-1.3032763
1379000000,-1.2860527
1380000000,-1.2669661
1381000000,-1.2883109
1382000000,-1.2859207
1383000000,-1.2994863
1384000000,-1.2723361
1385000000,-1.2666733
1386000000,-1.2710221
1387000000,-1.2692641
1388000000,-1.2922885
1389000000,-1.2948132
1390000000,-1.2782398
1391000000,-1.2783116
1392000000,-1.257494
1393000000,-1.2877827
1394000000,-1.2947277
1395000000,-1.2721769
1396000000,-1.2928497
1397000000,-1.305593
1398000000,-1.2814792
1399000000,-1.2655784
1400000000,-1.2850025
1401000000,-1.3039591
1402000000,-1.3216858
1403000000,-1.2874621
1404000000,-1.2669047
1405000000,-1.2849476
1406000000,-1.2572948
1407000000,-1.3050603
1408000000,-1.3140746
1409000000,-1.2950544
1410000000,-1.2873718
1411000000,-1.2769694
1412000000,-1.2792543
1413000000,-1.2695434
1414000000,-1.2844989
1415000000,-1.2930077
1416000000,-1.2649926
1417000000,-1.2961242
1418000000,-1.2572405
1419000000,-1.262832
1420000000,-1.2492871
1421000000,-1.2590618
1422000000,-1.2672863
1423000000,-1.2492611
1424000000,-1.2495227
1425000000,-1.258198
1426000000,-1.2814023
1427000000,-1.2721629
1428000000,-1.2664845
1429000000,-1.2506485
1430000000,-1.2598169
1431000000,-1.2802967
1432000000,-1.2555792
1433000000,-1.2242746
1434000000,-1.3051859
1435000000,-1.2858765
1436000000,-1.2846587
1437000000,-1.2589333
1438000000,-1.2679675
1439000000,-1.2798971
1440000000,-1.3023192
1441000000,-1.2835679
1442000000,-1.2823316
1443000000,-1.2842478
1444000000,-1.2984867
1445000000,-1.294677
1446000000,-1.3009751
1447000000,-1.2890449
1448000000,-1.2782897
1449000000,-1.2846582
1450000000,-1.2817142
1451000000,-1.2687043
1452000000,-1.2971293
1453000000,-1.2992803
1454000000,-1.268452
1455000000,-1.2802987
1456000000,-1.2708937
1457000000,-1.3007128
1458000000,-1.2716733
1459000000,-1.2628101
1460000000,-1.2628256
1461000000,-1.2836673
1462000000,-1.2545869
1463000000,-1.2371215
1464000000,-1.2443413
1465000000,-1.2387747
1466000000,-1.2463158
1467000000,-1.2618941
1468000000,-1.2599812
1469000000,-1.2357986
1470000000,-1.2403549
1471000000,-1.2795166
1472000000,-1.2693827
1473000000,-1.2435886
1474000000,-1.2396597
1475000000,-1.2553847
1476000000,-1.2554529
1477000000,-1.2660124
1478000000,-1.2736245
1479000000,-1.259887
1480000000,-1.2580611
1481000000,-1.2664521
1482000000,-1.2788572
1483000000,-1.2776924
1484000000,-1.2834221
1485000000,-1.254568
1486000000,-1.257637
1487000000,-1.2517891
1488000000,-1.2730505
1489000000,-1.2660069
1490000000,-1.257504
1491000000,-1.2803249
1492000000,-1.2857069
1493000000,-1.2442545
1494000000,-1.2575794
1495000000,-1.2892687
1496000000,-1.2508599
1497000000,-1.2410222
1498000000,-1.2843003
1499000000,-1.25257
1500000000,-1.2571524
1501000000,-1.2437813
1502000000,-1.2398305
1503000000,-1.2394831
1504000000,-1.2313575
1505000000,-1.257525
1506000000,-1.2314305
1507000000,-1.2586893
1508000000,-1.2335705
1509000000,-1.2510101
1510000000,-1.2428987
1511000000,-1.2482989
1512000000,-1.236208
1513000000,-1.2526981
1514000000,-1.2277133
1515000000,-1.2293653
1516000000,-1.2616833
1517000000,-1.273641
1518000000,-1.2389282
1519000000,-1.2254547
1520000000,-1.2346625
1521000000,-1.2401026
1522000000,-1.2486956
1523000000,-1.2653786
1524000000,-1.2483468
1525000000,-1.2495438
1526000000,-1.2459121
1527000000,-1.2562587
1528000000,-1.2691312
1529000000,-1.2515669
1530000000,-1.2488463
1531000000,-1.2685293
1532000000,-1.2392902
1533000000,-1.2440065
1534000000,-1.2330172
1535000000,-1.2596267
1536000000,-1.2301086
1537000000,-1.2202675
1538000000,-1.2123723
1539000000,-1.230037
1540000000,-1.2068367
1541000000,-1.221917
1542000000,-1.2506894
1543000000,-1.2427315
1544000000,-1.2241797
1545000000,-1.224757
1546000000,-1.2167668
1547000000,-1.2436788
1548000000,-1.238868
1549000000,-1.2314932
1550000000,-1.2178937
1551000000,-1.2038958
1552000000,-1.2133049
1553000000,-1.2520534
1554000000,-1.2273839
1555000000,-1.220861
1556000000,-1.2447875
1557000000,-1.239297
1558000000,-1.2172942
1559000000,-1.2559859
1560000000,-1.2123348
1561000000,-1.2361782
1562000000,-1.2185446
1563000000,-1.2273635
1564000000,-1.2255299
1565000000,-1.2337182
1566000000,-1.2389159
1567000000,-1.2273139
1568000000,-1.2120622
1569000000,-1.2297798
1570000000,-1.2546862
1571000000,-1.2211767
1572000000,-1.2194741
1573000000,-1.2113913
1574000000,-1.2281855
1575000000,-1.2264973
1576000000,-1.1915303
1577000000,-1.2392291
1578000000,-1.1880037
1579000000,-1.1753229
1580000000,-1.2162921
1581000000,-1.225168
1582000000,-1.1926786
1583000000,-1.2274575
1584000000,-1.1919451
1585000000,-1.2060021
1586000000,-1.2063974
1587000000,-1.2420325
1588000000,-1.1899387
1589000000,-1.2129266
1590000000,-1.2452599
1591000000,-1.1820267
1592000000,-1.1987013
1593000000,-1.2343475
1594000000,-1.224731
1595000000,-1.1970735
1596000000,-1.2129862
1597000000,-1.2037015
1598000000,-1.2123561
1599000000,-1.1936743
1600000000,-1.2086835
1601000000,-1.2116412
1602000000,-1.1866051
1603000000,-1.211138
1604000000,-1.2159563
1605000000,-1.2112312
1606000000,-1.2310512
1607000000,-1.2119702
1608000000,-1.1990057
1609000000,-1.1733555
1610000000,-1.1993803
1611000000,-1.1888366
1612000000,-1.1808617
1613000000,-1.2029965
1614000000,-1.2111578
1615000000,-1.2095027
1616000000,-1.2103108
1617000000,-1.1987278
1618000000,-1.1986073
1619000000,-1.1967177
1620000000,-1.2052443
1621000000,-1.1777823
1622000000,-1.1877201
1623000000,-1.1956284
1624000000,-1.1783626
1625000000,-1.1618061
1626000000,-1.1915054
1627000000,-1.1954184
1628000000,-1.1532621
1629000000,-1.18475
1630000000,-1.1762329
1631000000,-1.1873124
1632000000,-1.1971577
1633000000,-1.1866648
1634000000,-1.2074683
1635000000,-1.1981486
1636000000,-1.1845092
1637000000,-1.1801027
1638000000,-1.1785828
1639000000,-1.1918322
1640000000,-1.1853456
1641000000,-1.1994522
1642000000,-1.1716988
1643000000,-1.2038726
1644000000,-1.1926767
1645000000,-1.1772534
1646000000,-1.2031115
1647000000,-1.2089814
1648000000,-1.2122636
1649000000,-1.1994139
1650000000,-1.2194067
1651000000,-1.1909953
1652000000,-1.220099
1653000000,-1.1982521
1654000000,-1.1891584
1655000000,-1.1762125
1656000000,-1.1937449
1657000000,-1.1628598
1658000000,-1.2027558
1659000000,-1.1890607
1660000000,-1.1686209
1661000000,-1.1767894
1662000000,-1.1650075
1663000000,-1.1709499
1664000000,-1.1928564
1665000000,-1.1663518
1666000000,-1.184864
1667000000,-1.2200078
1668000000,-1.1680201
1669000000,-1.1800119
1670000000,-1.190047
1671000000,-1.1711611
1672000000,-1.1337157
1673000000,-1.1710035
1674000000,-1.1707948
1675000000,-1.197145
1676000000,-1.1830211
1677000000,-1.1696182
1678000000,-1.1635541
1679000000,-1.1711402
1680000000,-1.202154
1681000000,-1.1891009
1682000000,-1.2027601
1683000000,-1.1913934
1684000000,-1.207688
1685000000,-1.1951046
1686000000,-1.2174993
1687000000,-1.1884818
1688000000,-1.211157
1689000000,-1.2005019
1690000000,-1.2005166
1691000000,-1.2251068
1692000000,-1.1961628
1693000000,-1.1915479
1694000000,-1.197597
1695000000,-1.1771432
1696000000,-1.1802609
1697000000,-1.1873595
1698000000,-1.2083097
1699000000,-1.2095364
1700000000,-1.171042
1701000000,-1.1792655
1702000000,-1.1703546
1703000000,-1.1557581
1704000000,-1.1643945
1705000000,-1.1652395
1706000000,-1.1865711
1707000000,-1.2041459
1708000000,-1.1840696
1709000000,-1.2009039
1710000000,-1.1980174
1711000000,-1.1641768
1712000000,-1.2066691
1713000000,-1.1601801
1714000000,-1.1969831
1715000000,-1.2072309
1716000000,-1.1879816
1717000000,-1.1671102
1718000000,-1.2089154
1719000000,-1.2122386
1720000000,-1.1935272
1721000000,-1.1874789
1722000000,-1.2005014
1723000000,-1.1896143
1724000000,-1.203145
1725000000,-1.2142866
1726000000,-1.1882689
1727000000,-1.1902148
1728000000,-1.2011594
1729000000,-1.2196661
1730000000,-1.2162757
1731000000,-1.1836652
1732000000,-1.1848795
1733000000,-1.1808532
1734000000,-1.2059276
1735000000,-1.2084113
1736000000,-1.1950998
1737000000,-1.1754318
1738000000,-1.1877491
1739000000,-1.1746222
1740000000,-1.1594597
1741000000,-1.1877584
1742000000,-1.1841462
1743000000,-1.1722356
1744000000,-1.1861145
1745000000,-1.1808693
1746000000,-1.1914142
1747000000,-1.1878871
1748000000,-1.1665844
1749000000,-1.1922482
1750000000,-1.1538842
1751000000,-1.1953188
1752000000,-1.1622131
1753000000,-1.2033904
1754000000,-1.2112997
1755000000,-1.2046398
1756000000,-1.165253
1757000000,-1.2180626
1758000000,-1.203992
1759000000,-1.180518
1760000000,-1.2036848
1761000000,-1.1832365
1762000000,-1.2137406
1763000000,-1.1908476
1764000000,-1.2084268
1765000000,-1.1984643
1766000000,-1.1921377
1767000000,-1.1598963
1768000000,-1.1941686
1769000000,-1.198561
1770000000,-1.1729443
1771000000,-1.1925055
1772000000,-1.1534735
1773000000,-1.1694298
1774000000,-1.1596367
1775000000,-1.1922956
1776000000,-1.2002834
1777000000,-1.1739578
1778000000,-1.1848688
1779000000,-1.1694946
1780000000,-1.1795222
1781000000,-1.1792951
1782000000,-1.1604136
1783000000,-1.1612693
1784000000,-1.1900297
1785000000,-1.1461585
1786000000,-1.1923883
1787000000,-1.1441391
1788000000,-1.1643097
1789000000,-1.181056
1790000000,-1.1650069
1791000000,-1.1774209
1792000000,-1.1814182
1793000000,-1.1757795
1794000000,-1.1811312
1795000000,-1.1457781
1796000000,-1.1861235
1797000000,-1.1815346
1798000000,-1.1915171
1799000000,-1.1712742
1800000000,-1.1701119
1801000000,-1.1757708
1802000000,-1.1837888
1803000000,-1.1524241
1804000000,-1.1815722
1805000000,-1.1657851
1806000000,-1.1949196
1807000000,-1.1626948
1808000000,-1.1974992
1809000000,-1.1988555
1810000000,-1.2068881
1811000000,-1.1834391
1812000000,-1.1781019
1813000000,-1.1672375
1814000000,-1.1712483
1815000000,-1.1731341
1816000000,-1.1857576
1817000000,-1.1667573
1818000000,-1.1997919
1819000000,-1.1614707
1820000000,-1.1777271
1821000000,-1.1680576
1822000000,-1.1745996
1823000000,-1.1658732
1824000000,-1.1590112
1825000000,-1.191795
1826000000,-1.1444948
1827000000,-1.1903435
1828000000,-1.1809193
1829000000,-1.1773951
1830000000,-1.1923058
1831000000,-1.1727924
1832000000,-1.1618025
1833000000,-1.1628486
1834000000,-1.1690474
1835000000,-1.199657
1836000000,-1.1963266
1837000000,-1.1664319
1838000000,-1.1917602
1839000000,-1.1867534
1840000000,-1.173833
1841000000,-1.1645552
1842000000,-1.1737751
1843000000,-1.174832
1844000000,-1.1814423
1845000000,-1.1877623
1846000000,-1.1885092
1847000000,-1.2052814
1848000000,-1.193519
1849000000,-1.1797224
1850000000,-1.189433
1851000000,-1.1761289
1852000000,-1.1667802
1853000000,-1.1815832
1854000000,-1.2066051
1855000000,-1.1821638
1856000000,-1.1732979
1857000000,-1.2086616
1858000000,-1.1743736
1859000000,-1.1689266
1860000000,-1.1922392
1861000000,-1.1881307
1862000000,-1.1899534
1863000000,-1.2125411
1864000000,-1.2164086
1865000000,-1.2041408
1866000000,-1.1910415
1867000000,-1.2019291
1868000000,-1.2181691
1869000000,-1.1867299
1870000000,-1.1632022
1871000000,-1.227475
1872000000,-1.2177629
1873000000,-1.1923125
1874000000,-1.2391369
1875000000,-1.202751
1876000000,-1.2136562
1877000000,-1.2037483
1878000000,-1.2207391
1879000000,-1.2045845
1880000000,-1.2044629
1881000000,-1.2153186
1882000000,-1.2077519
1883000000,-1.217663
1884000000,-1.2246488
1885000000,-1.2037637
1886000000,-1.2160234
1887000000,-1.2419583
1888000000,-1.2358484
1889000000,-1.2193903
1890000000,-1.2110382
1891000000,-1.2305495
1892000000,-1.2053968
1893000000,-1.2230651
1894000000,-1.223202
1895000000,-1.2479298
1896000000,-1.245542
1897000000,-1.2344395
1898000000,-1.2408149
1899000000,-1.2522846
1900000000,-1.2253422
1901000000,-1.234581
1902000000,-1.2540958
1903000000,-1.2095112
1904000000,-1.2684735
1905000000,-1.2470015
1906000000,-1.2686535
1907000000,-1.2428024
1908000000,-1.2590587
1909000000,-1.2713951
1910000000,-1.2113289
1911000000,-1.2321111
1912000000,-1.2291466
1913000000,-1.2428426
1914000000,-1.2130229
1915000000,-1.2173228
1916000000,-1.2344174
1917000000,-1.2208619
1918000000,-1.2387222
1919000000,-1.201263
1920000000,-1.2550061
1921000000,-1.2510344
1922000000,-1.2576133
1923000000,-1.2552959
1924000000,-1.2773761
1925000000,-1.2364656
1926000000,-1.2851363
1927000000,-1.2624605
1928000000,-1.2770753
1929000000,-1.2565589
1930000000,-1.2845397
1931000000,-1.2432644
1932000000,-1.2487986
1933000000,-1.25582
1934000000,-1.2667754
1935000000,-1.260693
1936000000,-1.2686268
1937000000,-1.2346245
1938000000,-1.2795323
1939000000,-1.2330456
1940000000,-1.2499651
1941000000,-1.2515306
1942000000,-1.2525284
1943000000,-1.2620194
1944000000,-1.2876716
1945000000,-1.2753842
1946000000,-1.257117
1947000000,-1.2615234
1948000000,-1.2343249
1949000000,-1.2251823
1950000000,-1.2610873
1951000000,-1.2539018
1952000000,-1.2580962
1953000000,-1.2428848
1954000000,-1.2872494
1955000000,-1.2689164
1956000000,-1.2671511
1957000000,-1.2906698
1958000000,-1.2713805
1959000000,-1.286458
1960000000,-1.2512692
1961000000,-1.2798197
1962000000,-1.2488408
1963000000,-1.2683351
1964000000,-1.2848134
1965000000,-1.2830155
1966000000,-1.2535608
1967000000,-1.2598646
1968000000,-1.2704167
1969000000,-1.26395
1970000000,-1.2512536
1971000000,-1.2793478
1972000000,-1.2748432
1973000000,-1.2501849
1974000000,-1.266016
1975000000,-1.275851
1976000000,-1.2661325
1977000000,-1.2605872
1978000000,-1.2508101
1979000000,-1.2993969
1980000000,-1.278923
1981000000,-1.2349203
1982000000,-1.2628388
1983000000,-1.2291548
1984000000,-1.2327336
1985000000,-1.2587947
1986000000,-1.2490194
1987000000,-1.2624247
1988000000,-1.2460743
1989000000,-1.2535546
1990000000,-1.2298768
1991000000,-1.2742341
1992000000,-1.2707978
1993000000,-1.2295491
1994000000,-1.2955985
1995000000,-1.2836642
1996000000,-1.2580757
1997000000,-1.2365359
1998000000,-1.2513039
1999000000,-1.2653069
2000000000,-1.2560714
2001000000,-1.2753115
2002000000,-1.2496711
2003000000,-1.2511306
2004000000,-1.2741907
2005000000,-1.2710884
2006000000,-1.249446
2007000000,-1.227634
2008000000,-1.2803274
2009000000,-1.2639834
2010000000,-1.2760161
2011000000,-1.2560449
2012000000,-1.2717881
2013000000,-1.2580047
2014000000,-1.2624202
2015000000,-1.2572788
2016000000,-1.2619009
2017000000,-1.2569927
2018000000,-1.2636203
2019000000,-1.2691138
2020000000,-1.2808632
2021000000,-1.2938755
2022000000,-1.2614385
2023000000,-1.2702522
2024000000,-1.2577289
2025000000,-1.2584785
2026000000,-1.2791247
2027000000,-1.2718539
2028000000,-1.2630134
2029000000,-1.271579
2030000000,-1.2456425
2031000000,-1.2821838
2032000000,-1.2904979
2033000000,-1.2630285
2034000000,-1.2811201
2035000000,-1.2861707
2036000000,-1.2415618
2037000000,-1.2881666
2038000000,-1.2637649
2039000000,-1.2717795
2040000000,-1.2884423
2041000000,-1.2761217
2042000000,-1.2683815
2043000000,-1.270213
2044000000,-1.2735934
2045000000,-1.2893655
2046000000,-1.2959155
2047000000,-1.275071
2048000000,-1.3066891
2049000000,-1.265097
2050000000,-1.294078
2051000000,-1.2606406
2052000000,-1.2680204
2053000000,-1.2610856
2054000000,-1.2434682
2055000000,-1.2898918
2056000000,-1.2978468
2057000000,-1.2766917
2058000000,-1.2490175
2059000000,-1.2679018
2060000000,-1.270786
2061000000,-1.2761956
2062000000,-1.2641827
2063000000,-1.2798468
2064000000,-1.2831221
2065000000,-1.3073964
2066000000,-1.2679672
2067000000,-1.2797092
2068000000,-1.2964756
2069000000,-1.294571
2070000000,-1.2672057
2071000000,-1.2850317
2072000000,-1.3041101
2073000000,-1.2882255
2074000000,-1.3132993
2075000000,-1.2677091
2076000000,-1.2919657
2077000000,-1.288229
2078000000,-1.3224171
2079000000,-1.2912188
2080000000,-1.262653
2081000000,-1.3243644
2082000000,-1.3083338
2083000000,-1.2965761
2084000000,-1.2848226
2085000000,-1.2957948
2086000000,-1.3363106
2087000000,-1.2783082
2088000000,-1.3129216
2089000000,-1.3176917
2090000000,-1.3386725
2091000000,-1.3167695
2092000000,-1.2850919
2093000000,-1.3050622
2094000000,-1.3222682
2095000000,-1.3197699
2096000000,-1.3182162
2097000000,-1.3456274
2098000000,-1.3207847
2099000000,-1.3002708
2100000000,-1.3114702
2101000000,-1.3062449
2102000000,-1.300871
2103000000,-1.3183638
2104000000,-1.3027328
2105000000,-1.3057358
2106000000,-1.3268994
2107000000,-1.3365899
2108000000,-1.3352789
2109000000,-1.3179073
2110000000,-1.3553551
2111000000,-1.2884744
2112000000,-1.3332285
2113000000,-1.2626879
2114000000,-1.3310566
2115000000,-1.3050814
2116000000,-1.3247086
2117000000,-1.3259929
2118000000,-1.3206437
2119000000,-1.3095552
2120000000,-1.3356298
2121000000,-1.3235614
2122000000,-1.3181119
2123000000,-1.334415
2124000000,-1.3406013
2125000000,-1.3174762
2126000000,-1.3407351
2127000000,-1.2987992
2128000000,-1.3338023
2129000000,-1.3285818
2130000000,-1.3416406
2131000000,-1.3212062
2132000000,-1.3145763
2133000000,-1.328696
2134000000,-1.3006816
2135000000,-1.3444684
2136000000,-1.3301536
2137000000,-1.3519239
2138000000,-1.335339
2139000000,-1.3112842
2140000000,-1.3453882
2141000000,-1.3174107
2142000000,-1.3208793
2143000000,-1.3490549
2144000000,-1.3271828
2145000000,-1.3169593
2146000000,-1.3131243
2147000000,-1.3074076
2148000000,-1.333366
2149000000,-1.3492829
2150000000,-1.3207521
2151000000,-1.3259525
2152000000,-1.340277
2153000000,-1.3049829
2154000000,-1.3374265
2155000000,-1.3519047
2156000000,-1.3233713
2157000000,-1.3365129
2158000000,-1.3234254
2159000000,-1.3479942
2160000000,-1.3617337
2161000000,-1.3169608
2162000000,-1.3466431
2163000000,-1.3284159
2164000000,-1.3365921
2165000000,-1.3401791
2166000000,-1.3261309
2167000000,-1.3436382
2168000000,-1.3393061
2169000000,-1.31804
2170000000,-1.3455627
2171000000,-1.3216456
2172000000,-1.3138634
2173000000,-1.3452861
2174000000,-1.3815932
2175000000,-1.3227333
2176000000,-1.3470315
2177000000,-1.3411951
2178000000,-1.3504497
2179000000,-1.3251082
2180000000,-1.2983954
2181000000,-1.3212748
2182000000,-1.3166355
2183000000,-1.3330227
2184000000,-1.3069195
2185000000,-1.3355802
2186000000,-1.3543223
2187000000,-1.366317
2188000000,-1.3298891
2189000000,-1.3566072
2190000000,-1.321563
2191000000,-1.3594065
2192000000,-1.3724518
2193000000,-1.3214911
2194000000,-1.3380377
2195000000,-1.3401917
2196000000,-1.3377142
2197000000,-1.3129736
2198000000,-1.3475444
2199000000,-1.3134871
2200000000,-1.357528
2201000000,-1.3437089
2202000000,-1.3265343
2203000000,-1.327113
2204000000,-1.3653169
2205000000,-1.2989799
2206000000,-1.3362445
2207000000,-1.316853
2208000000,-1.3232824
2209000000,-1.3453004
2210000000,-1.3716422
2211000000,-1.3415471
2212000000,-1.3055605
2213000000,-1.3218806
2214000000,-1.3402611
2215000000,-1.3468417
2216000000,-1.3504994
2217000000,-1.3361962
2218000000,-1.3640363
2219000000,-1.3116462
2220000000,-1.3312575
2221000000,-1.3070246
2222000000,-1.3352678
2223000000,-1.3319244
2224000000,-1.363801
2225000000,-1.32795
2226000000,-1.3812766
2227000000,-1.3121346
2228000000,-1.3290117
2229000000,-1.3010211
2230000000,-1.324429
2231000000,-1.3764967
2232000000,-1.3437041
2233000000,-1.354094
2234000000,-1.3448349
2235000000,-1.316095
2236000000,-1.3089175
2237000000,-1.3411224
2238000000,-1.3306979
2239000000,-1.3361572
2240000000,-1.3468237
2241000000,-1.348961
2242000000,-1.3075184
2243000000,-1.3356844
2244000000,-1.3345859
2245000000,-1.3585315
2246000000,-1.3421834
2247000000,-1.3401529
2248000000,-1.3511091
2249000000,-1.3374343
2250000000,-1.3401295
2251000000,-1.3406786
2252000000,-1.3301293
2253000000,-1.3447278
2254000000,-1.3154255
2255000000,-1.3745418
2256000000,-1.3478709
2257000000,-1.3350646
2258000000,-1.3500901
2259000000,-1.3350313
2260000000,-1.3650863
2261000000,-1.3221847
2262000000,-1.33224
2263000000,-1.3565459
2264000000,-1.35456
2265000000,-1.3512993
2266000000,-1.3411376
2267000000,-1.306457
2268000000,-1.3440772
2269000000,-1.3071561
2270000000,-1.3479979
2271000000,-1.3380994
2272000000,-1.3538573
2273000000,-1.3030529
2274000000,-1.3447516
2275000000,-1.3415182
2276000000,-1.3469625
2277000000,-1.3529859
2278000000,-1.2940463
2279000000,-1.3145204
2280000000,-1.3268204
2281000000,-1.3042719
2282000000,-1.3085245
2283000000,-1.3209095
2284000000,-1.3331292
2285000000,-1.3493333
2286000000,-1.3590043
2287000000,-1.3431473
2288000000,-1.3633803
2289000000,-1.3237072
2290000000,-1.3326656
2291000000,-1.3079555
2292000000,-1.3679506
2293000000,-1.3282477
2294000000,-1.3270447
2295000000,-1.3084557
2296000000,-1.3179049
2297000000,-1.3448839
2298000000,-1.3196236
2299000000,-1.3369713
2300000000,-1.3329772
2301000000,-1.3390399
2302000000,-1.2999736
2303000000,-1.3613902
2304000000,-1.3242356
2305000000,-1.3477917
2306000000,-1.3389288
2307000000,-1.3264071
2308000000,-1.3394543
2309000000,-1.3103181
2310000000,-1.3330528
2311000000,-1.3185457
2312000000,-1.2972075
2313000000,-1.3247194
2314000000,-1.3385265
2315000000,-1.3348762
2316000000,-1.3400007
2317000000,-1.3259858
2318000000,-1.3081803
2319000000,-1.3365818
2320000000,-1.3211672
2321000000,-1.3361275
2322000000,-1.2957968
2323000000,-1.3340107
2324000000,-1.3431309
2325000000,-1.3321515
2326000000,-1.3350474
2327000000,-1.3161991
2328000000,-1.3018976
2329000000,-1.3050088
2330000000,-1.3134645
2331000000,-1.3378512
2332000000,-1.3182899
2333000000,-1.3258293
2334000000,-1.3381656
2335000000,-1.3210955
2336000000,-1.3181788
2337000000,-1.3129719
2338000000,-1.3410182
2339000000,-1.323234
2340000000,-1.3325388
2341000000,-1.2901027
2342000000,-1.3249941
2343000000,-1.309839
2344000000,-1.2900099
2345000000,-1.3190576
2346000000,-1.3160677
2347000000,-1.2961329
2348000000,-1.3180578
2349000000,-1.3094519
2350000000,-1.3207626
2351000000,-1.3019825
2352000000,-1.3380249
2353000000,-1.3122292
2354000000,-1.3094827
2355000000,-1.3137273
2356000000,-1.3203351
2357000000,-1.3318795
2358000000,-1.2966852
2359000000,-1.3040395
2360000000,-1.3241661
2361000000,-1.3254813
2362000000,-1.3049811
2363000000,-1.285428
2364000000,-1.3018163
2365000000,-1.3244848
2366000000,-1.3229382
2367000000,-1.3281246
2368000000,-1.3195076
2369000000,-1.3047401
2370000000,-1.339133
2371000000,-1.2777524
2372000000,-1.3138126
2373000000,-1.30475
2374000000,-1.3283218
2375000000,-1.2745055
2376000000,-1.3116007
2377000000,-1.331506
2378000000,-1.3097594
2379000000,-1.3006071
2380000000,-1.2976034
2381000000,-1.3220364
2382000000,-1.262804
2383000000,-1.3173515
2384000000,-1.2982877
2385000000,-1.2981747
2386000000,-1.3036114
2387000000,-1.3145936
2388000000,-1.2603713
2389000000,-1.247126
2390000000,-1.2930821
2391000000,-1.322072
2392000000,-1.2878494
2393000000,-1.3324646
2394000000,-1.2840055
2395000000,-1.2970239
2396000000,-1.3032504
2397000000,-1.2810435
2398000000,-1.3031909
2399000000,-1.2723927
2400000000,-1.2747642
2401000000,-1.3015096
2402000000,-1.2903186
2403000000,-1.2999952
2404000000,-1.30392
2405000000,-1.2678812
2406000000,-1.3112061
2407000000,-1.2993556
2408000000,-1.2829524
2409000000,-1.2789333
2410000000,-1.3015391
2411000000,-1.2961974
2412000000,-1.3135442
2413000000,-1.2886373
2414000000,-1.304399
2415000000,-1.2971348
2416000000,-1.2755203
2417000000,-1.3015639
2418000000,-1.2792732
2419000000,-1.2652347
2420000000,-1.2795602
2421000000,-1.2752486
2422000000,-1.2650944
2423000000,-1.284867
2424000000,-1.2598841
2425000000,-1.2788461
2426000000,-1.2921022
2427000000,-1.2940984
2428000000,-1.2921201
2429000000,-1.2779248
2430000000,-1.271091
2431000000,-1.2555983
2432000000,-1.2830805
2433000000,-1.283819
2434000000,-1.3158225
2435000000,-1.2767532
2436000000,-1.2775036
2437000000,-1.2857244
2438000000,-1.2794397
2439000000,-1.2888772
2440000000,-1.2709174
2441000000,-1.277393
2442000000,-1.2508819
2443000000,-1.2873048
2444000000,-1.2349969
2445000000,-1.2668951
2446000000,-1.2888069
2447000000,-1.2678742
2448000000,-1.2626581
2449000000,-1.2358704
2450000000,-1.2944123
2451000000,-1.2487919
2452000000,-1.2594926
2453000000,-1.2676967
2454000000,-1.250948
2455000000,-1.2725047
2456000000,-1.2687873
2457000000,-1.2247511
2458000000,-1.2058272
2459000000,-1.2473098
2460000000,-1.2668091
2461000000,-1.2356759
2462000000,-1.2539554
2463000000,-1.259356
2464000000,-1.2518039
2465000000,-1.2718574
2466000000,-1.2492359
2467000000,-1.247798
2468000000,-1.277367
2469000000,-1.2444558
2470000000,-1.2537861
2471000000,-1.2807109
2472000000,-1.2751848
2473000000,-1.2619561
2474000000,-1.2537688
2475000000,-1.2800245
2476000000,-1.2416363
2477000000,-1.2380255
2478000000,-1.2835639
2479000000,-1.2495524
2480000000,-1.2414939
2481000000,-1.2697275
2482000000,-1.2867239
2483000000,-1.2457821
2484000000,-1.2613944
2485000000,-1.2424669
2486000000,-1.2578089
2487000000,-1.2515625
2488000000,-1.2852086
2489000000,-1.2448246
2490000000,-1.2278852
2491000000,-1.2535969
2492000000,-1.2768445
2493000000,-1.2530731
2494000000,-1.2668786
2495000000,-1.2673743
2496000000,-1.2471825
2497000000,-1.2580324
2498000000,-1.2022604
2499000000,-1.2309929
2500000000,-1.2306538
2501000000,-1.2847658
2502000000,-1.2076236
2503000000,-1.2751862
2504000000,-1.264595
2505000000,-1.212356
2506000000,-1.2320293
2507000000,-1.2237197
2508000000,-1.244627
2509000000,-1.2642636
2510000000,-1.2614411
2511000000,-1.2322636
2512000000,-1.2735868
2513000000,-1.2289822
2514000000,-1.2472532
2515000000,-1.2257212
2516000000,-1.2307156
2517000000,-1.2434371
2518000000,-1.2308775
2519000000,-1.2453808
2520000000,-1.2726206
2521000000,-1.1984804
2522000000,-1.2413553
2523000000,-1.2779012
2524000000,-1.2502905
2525000000,-1.2560678
2526000000,-1.2273818
2527000000,-1.2454602
2528000000,-1.2265768
2529000000,-1.229062
2530000000,-1.2200249
2531000000,-1.2463939
2532000000,-1.2300928
2533000000,-1.2545016
2534000000,-1.2334448
2535000000,-1.246582
2536000000,-1.2289249
2537000000,-1.2219918
2538000000,-1.2540233
2539000000,-1.2472596
2540000000,-1.2403572
2541000000,-1.2162297
2542000000,-1.2620548
2543000000,-1.2224904
2544000000,-1.2394629
2545000000,-1.2202117
2546000000,-1.2286273
2547000000,-1.2211914
2548000000,-1.2290869
2549000000,-1.2524241
2550000000,-1.2355574
2551000000,-1.2458847
2552000000,-1.2185555
2553000000,-1.2440523
2554000000,-1.239583
2555000000,-1.2211026
2556000000,-1.2428439
2557000000,-1.2283595
2558000000,-1.2269231
2559000000,-1.2242581
2560000000,-1.2380668
2561000000,-1.256795
2562000000,-1.2750356
2563000000,-1.2302293
2564000000,-1.2254313
2565000000,-1.2406318
2566000000,-1.2129439
2567000000,-1.2329262
2568000000,-1.2104841
2569000000,-1.2319665
2570000000,-1.2378792
2571000000,-1.2183356
2572000000,-1.2188166
2573000000,-1.2282203
2574000000,-1.243924
2575000000,-1.2438842
2576000000,-1.1879399
2577000000,-1.2458576
2578000000,-1.1950381
2579000000,-1.2380126
2580000000,-1.2531289
2581000000,-1.2583934
2582000000,-1.1905982
2583000000,-1.1836387
2584000000,-1.1992391
2585000000,-1.2031274
2586000000,-1.2366767
2587000000,-1.2134752
2588000000,-1.2245754
2589000000,-1.2267103
2590000000,-1.2223488
2591000000,-1.2236829
2592000000,-1.238377
2593000000,-1.2031126
2594000000,-1.2357842
2595000000,-1.2243766
2596000000,-1.2042817
2597000000,-1.1773287
2598000000,-1.2088997
2599000000,-1.1933707
2600000000,-1.2038695
2601000000,-1.2071649
2602000000,-1.2215005
2603000000,-1.2278874
2604000000,-1.2257788
2605000000,-1.21821
2606000000,-1.1989522
2607000000,-1.202727
2608000000,-1.1989695
2609000000,-1.2008309
2610000000,-1.1754042
2611000000,-1.222325
2612000000,-1.2305218
2613000000,-1.2237426
2614000000,-1.2109637
2615000000,-1.2306703
2616000000,-1.1996417
2617000000,-1.2033123
2618000000,-1.2300302
2619000000,-1.2396346
2620000000,-1.2140796
2621000000,-1.2193987
2622000000,-1.2309892
2623000000,-1.23826
2624000000,-1.2265486
2625000000,-1.2136801
2626000000,-1.2217237
2627000000,-1.1745697
2628000000,-1.2063286
2629000000,-1.1995578
2630000000,-1.1970804
2631000000,-1.235751
2632000000,-1.1918234
2633000000,-1.2034959
2634000000,-1.190148
2635000000,-1.2021879
2636000000,-1.2274517
2637000000,-1.2261306
2638000000,-1.2050775
2639000000,-1.2011123
2640000000,-1.2219881
2641000000,-1.2274739
2642000000,-1.1896462
2643000000,-1.2270477
2644000000,-1.1724062
2645000000,-1.2170752
2646000000,-1.2079309
2647000000,-1.1972165
2648000000,-1.2109952
2649000000,-1.2099687
2650000000,-1.2135677
2651000000,-1.2024661
2652000000,-1.1904423
2653000000,-1.2266494
2654000000,-1.2138283
2655000000,-1.2581444
2656000000,-1.2266221
2657000000,-1.2242588
2658000000,-1.2193738
2659000000,-1.2370151
2660000000,-1.2005435
2661000000,-1.2373592
2662000000,-1.2051409
2663000000,-1.2405994
2664000000,-1.2077844
2665000000,-1.192035
2666000000,-1.1952612
2667000000,-1.2248276
2668000000,-1.2505983
2669000000,-1.2414316
2670000000,-1.2160504
2671000000,-1.2119447
2672000000,-1.1666893
2673000000,-1.2215868
2674000000,-1.2014166
2675000000,-1.2399906
2676000000,-1.2051988
2677000000,-1.2418627
2678000000,-1.210314
2679000000,-1.2167943
2680000000,-1.2121321
2681000000,-1.2313442
2682000000,-1.2046758
2683000000,-1.2443846
2684000000,-1.223089
2685000000,-1.2176766
2686000000,-1.2379042
2687000000,-1.2018383
2688000000,-1.1989989
2689000000,-1.1975353
2690000000,-1.2282887
2691000000,-1.2357239
2692000000,-1.2089106
2693000000,-1.2214121
2694000000,-1.2028689
2695000000,-1.2261357
2696000000,-1.2444537
2697000000,-1.2223529
2698000000,-1.2149255
2699000000,-1.2443128
2700000000,-1.2328501
2701000000,-1.2301503
2702000000,-1.2449657
2703000000,-1.2039795
2704000000,-1.2287469
2705000000,-1.2132909
2706000000,-1.2468789
2707000000,-1.1954641
2708000000,-1.229254
2709000000,-1.2060432
2710000000,-1.2228963
2711000000,-1.2174536
2712000000,-1.2082975
2713000000,-1.2262062
2714000000,-1.2122631
2715000000,-1.2261971
2716000000,-1.2102104
2717000000,-1.2257197
2718000000,-1.2103757
2719000000,-1.2477757
2720000000,-1.2267605
2721000000,-1.229352
2722000000,-1.2511407
2723000000,-1.2226979
2724000000,-1.2443241
2725000000,-1.2206548
2726000000,-1.2433102
2727000000,-1.2507447
2728000000,-1.2459013
2729000000,-1.2287902
2730000000,-1.2217531
2731000000,-1.2202166
2732000000,-1.2386465
2733000000,-1.251622
2734000000,-1.2115717
2735000000,-1.2433209
2736000000,-1.2450159
2737000000,-1.2288377
2738000000,-1.2312788
2739000000,-1.2330544
2740000000,-1.2343
2741000000,-1.2311674
2742000000,-1.2247301
2743000000,-1.2272341
2744000000,-1.2251111
2745000000,-1.213989
2746000000,-1.2402685
2747000000,-1.2445103
2748000000,-1.2197009
2749000000,-1.2156649
2750000000,-1.2115954
2751000000,-1.2370316
2752000000,-1.2413998
2753000000,-1.2348483
2754000000,-1.2653383
2755000000,-1.216058
2756000000,-1.208546
2757000000,-1.2513064
2758000000,-1.2233119
2759000000,-1.2430329
2760000000,-1.2659147
2761000000,-1.2516366
2762000000,-1.2440045
2763000000,-1.2260054
2764000000,-1.2353947
2765000000,-1.2482796
2766000000,-1.2342809
2767000000,-1.218447
2768000000,-1.2399737
2769000000,-1.2252352
2770000000,-1.2394989
2771000000,-1.2417301
2772000000,-1.2239921
2773000000,-1.2357157
2774000000,-1.2262411
2775000000,-1.2319862
2776000000,-1.2592353
2777000000,-1.2391316
2778000000,-1.2387044
2779000000,-1.2366543
2780000000,-1.2644465
2781000000,-1.2642297
2782000000,-1.217104
2783000000,-1.2374041
2784000000,-1.2492441
2785000000,-1.2133701
2786000000,-1.2577562
2787000000,-1.2026982
2788000000,-1.2357968
2789000000,-1.2372882
2790000000,-1.2497373
2791000000,-1.2558423
2792000000,-1.214342
2793000000,-1.2448254
2794000000,-1.2462795
2795000000,-1.2566023
2796000000,-1.2178807
2797000000,-1.2692554
2798000000,-1.2144903
2799000000,-1.2398263
2800000000,-1.2365549
2801000000,-1.2279277
2802000000,-1.261937
2803000000,-1.2415372
2804000000,-1.230685
2805000000,-1.2591873
2806000000,-1.2420981
2807000000,-1.2221633
2808000000,-1.2233466
2809000000,-1.2778305
2810000000,-1.2439147
2811000000,-1.2169453
2812000000,-1.2463707
2813000000,-1.2269915
2814000000,-1.2016697
2815000000,-1.2088411
2816000000,-1.2589384
2817000000,-1.2432013
2818000000,-1.2469426
2819000000,-1.248961
2820000000,-1.2504847
2821000000,-1.2126378
2822000000,-1.2456579
2823000000,-1.2225715
2824000000,-1.2436035
2825000000,-1.2447059
2826000000,-1.2141336
2827000000,-1.2364386
2828000000,-1.2329054
2829000000,-1.2333081
2830000000,-1.2504745
2831000000,-1.2366669
2832000000,-1.2124337
2833000000,-1.257425
2834000000,-1.2272103
2835000000,-1.2164721
2836000000,-1.2410122
2837000000,-1.2410069
2838000000,-1.2309469
2839000000,-1.2429459
2840000000,-1.239527
2841000000,-1.2313263
2842000000,-1.2627248
2843000000,-1.228327
2844000000,-1.2532567
2845000000,-1.242027
2846000000,-1.2445661
2847000000,-1.2401545
2848000000,-1.2499988
2849000000,-1.2620219
2850000000,-1.2826984
2851000000,-1.2608864
2852000000,-1.2010319
2853000000,-1.2488298
2854000000,-1.239413
2855000000,-1.2573726
2856000000,-1.2543448
2857000000,-1.2341136
2858000000,-1.23524
2859000000,-1.2513359
2860000000,-1.2331845
2861000000,-1.2436712
2862000000,-1.24918
2863000000,-1.2293884
2864000000,-1.2646973
2865000000,-1.2316972
2866000000,-1.2592469
2867000000,-1.2827713
2868000000,-1.2491224
2869000000,-1.233723
2870000000,-1.2553773
2871000000,-1.2506312
2872000000,-1.2545021
2873000000,-1.2359012
2874000000,-1.2294996
2875000000,-1.271457
2876000000,-1.238415
2877000000,-1.2416706
2878000000,-1.2380531
2879000000,-1.2432895
2880000000,-1.2601432
2881000000,-1.2205619
2882000000,-1.2531362
2883000000,-1.2419399
2884000000,-1.251834
2885000000,-1.2304286
2886000000,-1.2374486
2887000000,-1.2420293
2888000000,-1.2741278
2889000000,-1.2536776
2890000000,-1.2466581
2891000000,-1.2646537
2892000000,-1.2481788
2893000000,-1.2605573
2894000000,-1.2682097
2895000000,-1.2460365
2896000000,-1.2598579
2897000000,-1.2330227
2898000000,-1.2279927
2899000000,-1.265044
2900000000,-1.2638651
2901000000,-1.2268417
2902000000,-1.240206
2903000000,-1.2535002
2904000000,-1.2905791
2905000000,-1.2355126
2906000000,-1.243016
2907000000,-1.2527199
2908000000,-1.2290413
2909000000,-1.2564443
2910000000,-1.2550812
2911000000,-1.2628824
2912000000,-1.2389443
2913000000,-1.2517653
2914000000,-1.2447994
2915000000,-1.2384452
2916000000,-1.2131106
2917000000,-1.2738345
2918000000,-1.2548468
2919000000,-1.2685003
2920000000,-1.2615442
2921000000,-1.254536
2922000000,-1.2443625
2923000000,-1.248697
2924000000,-1.2657056
2925000000,-1.2456098
2926000000,-1.2496928
2927000000,-1.2830187
2928000000,-1.2637771
2929000000,-1.242245
2930000000,-1.2654158
2931000000,-1.2632912
2932000000,-1.252718
2933000000,-1.2741911
2934000000,-1.2460506
2935000000,-1.2540641
2936000000,-1.2674216
2937000000,-1.2573776
2938000000,-1.2316208
2939000000,-1.2592641
2940000000,-1.2475129
2941000000,-1.2652352
2942000000,-1.2435453
2943000000,-1.2383416
2944000000,-1.2479595
2945000000,-1.2359449
2946000000,-1.2415652
2947000000,-1.2330176
2948000000,-1.2705404
2949000000,-1.2756917
2950000000,-1.2363586
2951000000,-1.2728586
2952000000,-1.249974
2953000000,-1.2561502
2954000000,-1.2719498
2955000000,-1.2747968
2956000000,-1.2408398
2957000000,-1.2501032
2958000000,-1.2675292
2959000000,-1.2406471
2960000000,-1.273702
2961000000,-1.2751582
2962000000,-1.2512711
2963000000,-1.2545875
2964000000,-1.2852155
2965000000,-1.2830241
2966000000,-1.2335756
2967000000,-1.251973
2968000000,-1.2630072
2969000000,-1.2629408
2970000000,-1.239978
2971000000,-1.240344
2972000000,-1.2106555
2973000000,-1.2353472
2974000000,-1.2008525
2975000000,-1.2517691
2976000000,-1.2478811
2977000000,-1.2217613
2978000000,-1.2271385
2979000000,-1.2434853
2980000000,-1.2314442
2981000000,-1.2346579
2982000000,-1.2305986
2983000000,-1.2330855
2984000000,-1.2253387
2985000000,-1.2592272
2986000000,-1.2524444
2987000000,-1.2479898
2988000000,-1.26274
2989000000,-1.2371018
2990000000,-1.2213485
2991000000,-1.2279032
2992000000,-1.23149
2993000000,-1.2548839
2994000000,-1.2278571
2995000000,-1.2297601
2996000000,-1.2503347
2997000000,-1.2408718
2998000000,-1.2079256
2999000000,-1.2223912
3000000000,-1.2323071
3001000000,-1.2205169
3002000000,-1.2102419
3003000000,-1.2276617
3004000000,-1.2142292
3005000000,-1.2252736
3006000000,-1.2256365
3007000000,-1.2010642
3008000000,-1.209896
3009000000,-1.2316673
3010000000,-1.2274414
3011000000,-1.2285324
3012000000,-1.2355937
3013000000,-1.2323515
3014000000,-1.1918892
3015000000,-1.2343631
3016000000,-1.2413292
3017000000,-1.2496738
3018000000,-1.2315959
3019000000,-1.2253681
3020000000,-1.1933568
3021000000,-1.2200099
3022000000,-1.1802734
3023000000,-1.2332437
3024000000,-1.2183627
3025000000,-1.2295847
3026000000,-1.2265683
3027000000,-1.2058699
3028000000,-1.2084895
3029000000,-1.1949109
3030000000,-1.1954572
3031000000,-1.2281698
3032000000,-1.2291384
3033000000,-1.1754476
3034000000,-1.2284135
3035000000,-1.2056364
3036000000,-1.221831
3037000000,-1.216856
3038000000,-1.1998045
3039000000,-1.1997993
3040000000,-1.2151337
3041000000,-1.2125657
3042000000,-1.1982177
3043000000,-1.2080293
3044000000,-1.2198324
3045000000,-1.1836132
3046000000,-1.2157105
3047000000,-1.211224
3048000000,-1.2117078
3049000000,-1.2191082
3050000000,-1.1935135
3051000000,-1.2293159
3052000000,-1.223604
3053000000,-1.2291806
3054000000,-1.1764959
3055000000,-1.1603919
3056000000,-1.2202318
3057000000,-1.2025793
3058000000,-1.2036685
3059000000,-1.1978387
3060000000,-1.2054241
3061000000,-1.2071742
3062000000,-1.2141932
3063000000,-1.2058246
3064000000,-1.2157832
3065000000,-1.1815534
3066000000,-1.2033234
3067000000,-1.2208456
3068000000,-1.2048206
3069000000,-1.2126971
3070000000,-1.2314126
3071000000,-1.2229702
3072000000,-1.2115622
3073000000,-1.1993655
3074000000,-1.1845136
3075000000,-1.2102648
3076000000,-1.1955638
3077000000,-1.1914941
3078000000,-1.2198985
3079000000,-1.1715871
3080000000,-1.1959692
3081000000,-1.2091749
3082000000,-1.1837641
3083000000,-1.2010331
3084000000,-1.1979336
3085000000,-1.199176
3086000000,-1.2087535
3087000000,-1.1801407
3088000000,-1.1922996
3089000000,-1.173625
3090000000,-1.1865777
3091000000,-1.1957252
3092000000,-1.1749156
3093000000,-1.1811445
3094000000,-1.1888739
3095000000,-1.1811941
3096000000,-1.1949966
3097000000,-1.19489
3098000000,-1.1964899
3099000000,-1.2038221
3100000000,-1.1711625
3101000000,-1.1922897
3102000000,-1.2004738
3103000000,-1.2125812
3104000000,-1.1794879
3105000000,-1.2109356
3106000000,-1.1967372
3107000000,-1.2074623
3108000000,-1.1894876
3109000000,-1.1852663
3110000000,-1.2211834
3111000000,-1.1853375
3112000000,-1.1839691
3113000000,-1.1862293
3114000000,-1.1972367
3115000000,-1.1980852
3116000000,-1.1916393
3117000000,-1.1941634
3118000000,-1.1845043
3119000000,-1.1790793
3120000000,-1.2049919
3121000000,-1.1903833
3122000000,-1.1823465
3123000000,-1.1873082
3124000000,-1.1768999
3125000000,-1.189069
3126000000,-1.173512
3127000000,-1.1692588
3128000000,-1.1849635
3129000000,-1.2049925
3130000000,-1.1500263
3131000000,-1.1691244
3132000000,-1.184468
3133000000,-1.176
3134000000,-1.2043475
3135000000,-1.1831182
3136000000,-1.2082868
3137000000,-1.1802505
3138000000,-1.1923772
3139000000,-1.1795136
3140000000,-1.1850328
3141000000,-1.1765113
3142000000,-1.1738397
3143000000,-1.1587605
3144000000,-1.1637548
3145000000,-1.1792217
3146000000,-1.1647996
3147000000,-1.1913671
3148000000,-1.1604066
3149000000,-1.1349093
3150000000,-1.1643176
3151000000,-1.1924392
3152000000,-1.1849321
3153000000,-1.1605769
3154000000,-1.1758859
3155000000,-1.1736039
3156000000,-1.1651448
3157000000,-1.1585003
3158000000,-1.1691108
3159000000,-1.1722496
3160000000,-1.2405009
3161000000,-1.1629558
3162000000,-1.1721802
3163000000,-1.1930102
3164000000,-1.1520683
3165000000,-1.1615601
3166000000,-1.1561127
3167000000,-1.1643814
3168000000,-1.172803
3169000000,-1.1642281
3170000000,-1.1657963
3171000000,-1.1766881
3172000000,-1.1699284
3173000000,-1.1467537
3174000000,-1.1707948
3175000000,-1.1573609
3176000000,-1.167731
3177000000,-1.1659776
3178000000,-1.1771513
3179000000,-1.172985
3180000000,-1.1626199
3181000000,-1.1811627
3182000000,-1.1666989
3183000000,-1.1730356
3184000000,-1.1570619
3185000000,-1.1886922
3186000000,-1.1539882
3187000000,-1.1642907
3188000000,-1.1610557
3189000000,-1.1496731
3190000000,-1.1554939
3191000000,-1.1589297
3192000000,-1.191136
3193000000,-1.1831105
3194000000,-1.1577748
3195000000,-1.1625059
3196000000,-1.1761299
3197000000,-1.194187
3198000000,-1.157644
3199000000,-1.1818941
3200000000,-1.1800851
3201000000,-1.1658659
3202000000,-1.1544988
3203000000,-1.1733178
3204000000,-1.167742
3205000000,-1.1739174
3206000000,-1.1551377
3207000000,-1.1734947
3208000000,-1.1807438
3209000000,-1.1794286
3210000000,-1.1621112
3211000000,-1.1399564
3212000000,-1.1612234
3213000000,-1.2085479
3214000000,-1.1917698
3215000000,-1.160901
3216000000,-1.1813846
3217000000,-1.1858757
3218000000,-1.1847252
3219000000,-1.1818053
3220000000,-1.1817343
3221000000,-1.1600237
3222000000,-1.1894671
3223000000,-1.1857299
3224000000,-1.1966189
3225000000,-1.1629847
3226000000,-1.1813935
3227000000,-1.1589537
3228000000,-1.1931075
3229000000,-1.1868403
3230000000,-1.1732122
3231000000,-1.161734
3232000000,-1.1583062
3233000000,-1.2146751
3234000000,-1.1861919
3235000000,-1.1899278
3236000000,-1.189207
3237000000,-1.2162166
3238000000,-1.1878972
3239000000,-1.1734676
3240000000,-1.191183
3241000000,-1.1996123
3242000000,-1.218292
3243000000,-1.1842077
3244000000,-1.1938739
3245000000,-1.1863657
3246000000,-1.2082951
3247000000,-1.2022017
3248000000,-1.1993786
3249000000,-1.2069304
3250000000,-1.195827
3251000000,-1.1679329
3252000000,-1.1765854
3253000000,-1.1817145
3254000000,-1.2047465
3255000000,-1.1977988
3256000000,-1.2088276
3257000000,-1.2058723
3258000000,-1.1671515
3259000000,-1.2011861
3260000000,-1.2004079
3261000000,-1.2387125
3262000000,-1.1735257
3263000000,-1.1869011
3264000000,-1.1995325
3265000000,-1.1717033
3266000000,-1.1927464
3267000000,-1.1993088
3268000000,-1.21422
3269000000,-1.1887604
3270000000,-1.2238742
3271000000,-1.1973091
3272000000,-1.2106245
3273000000,-1.1903484
3274000000,-1.184185
3275000000,-1.2160358
3276000000,-1.2344419
3277000000,-1.221442
3278000000,-1.2210718
3279000000,-1.2400506
3280000000,-1.2366236
3281000000,-1.2085817
3282000000,-1.2026455
3283000000,-1.2273346
3284000000,-1.223823
3285000000,-1.2532849
3286000000,-1.2339796
3287000000,-1.2062603
3288000000,-1.2252258
3289000000,-1.2283365
3290000000,-1.251081
3291000000,-1.2489936
3292000000,-1.2144369
3293000000,-1.2498193
3294000000,-1.2350742
3295000000,-1.25368
3296000000,-1.224281
3297000000,-1.227417
3298000000,-1.2494525
3299000000,-1.2171794
3300000000,-1.2389443
3301000000,-1.1966963
3302000000,-1.266021
3303000000,-1.2549838
3304000000,-1.2463962
3305000000,-1.2742274
3306000000,-1.264021
3307000000,-1.2389169
3308000000,-1.2735252
3309000000,-1.2509838
3310000000,-1.2455915
3311000000,-1.2590195
3312000000,-1.2479274
3313000000,-1.2346244
3314000000,-1.2230641
3315000000,-1.2342399
3316000000,-1.2452447
3317000000,-1.2484537
3318000000,-1.2664366
3319000000,-1.2730739
3320000000,-1.2875141
3321000000,-1.2497722
3322000000,-1.2805537
3323000000,-1.2920907
3324000000,-1.2714686
3325000000,-1.2339357
3326000000,-1.2479794
3327000000,-1.2785064
3328000000,-1.2656314
3329000000,-1.2865514
3330000000,-1.2384118
3331000000,-1.2319641
3332000000,-1.2749538
3333000000,-1.235086
3334000000,-1.2967501
3335000000,-1.2718766
3336000000,-1.2633687
3337000000,-1.2647376
3338000000,-1.2518975
3339000000,-1.2678109
3340000000,-1.2301239
3341000000,-1.2702184
3342000000,-1.2747931
3343000000,-1.2915441
3344000000,-1.2524019
3345000000,-1.3011017
3346000000,-1.257621
3347000000,-1.2898754
3348000000,-1.311311
3349000000,-1.284127
3350000000,-1.3006502
3351000000,-1.2721939
3352000000,-1.2813728
3353000000,-1.2840611
3354000000,-1.2920177
3355000000,-1.274557
3356000000,-1.3216559
3357000000,-1.2859774
3358000000,-1.2912512
3359000000,-1.3008825
3360000000,-1.2734293
3361000000,-1.3018481
3362000000,-1.2975632
3363000000,-1.2847245
3364000000,-1.3018744
3365000000,-1.340595
3366000000,-1.302518
3367000000,-1.3236763
3368000000,-1.338395
3369000000,-1.2967029
3370000000,-1.3101817
3371000000,-1.3322107
3372000000,-1.3025863
3373000000,-1.3040442
3374000000,-1.3275367
3375000000,-1.3258436
3376000000,-1.3204842
3377000000,-1.3193281
3378000000,-1.345283
3379000000,-1.3509743
3380000000,-1.3189796
3381000000,-1.3140942
3382000000,-1.3045721
3383000000,-1.3489716
3384000000,-1.3134133
3385000000,-1.3411853
3386000000,-1.3507439
3387000000,-1.3194972
3388000000,-1.3370045
3389000000,-1.3136829
3390000000,-1.33944
3391000000,-1.3615172
3392000000,-1.3206011
3393000000,-1.3367158
3394000000,-1.3778763
3395000000,-1.3505447
3396000000,-1.3395621
3397000000,-1.3329802
3398000000,-1.3820235
3399000000,-1.3554174
3400000000,-1.3463382
3401000000,-1.3527095
3402000000,-1.3725635
3403000000,-1.3649945
3404000000,-1.3683535
3405000000,-1.3406867
3406000000,-1.3581835
3407000000,-1.3735985
3408000000,-1.3467776
3409000000,-1.3477652
3410000000,-1.3688604
3411000000,-1.3901819
3412000000,-1.3617083
3413000000,-1.3872874
3414000000,-1.3555689
3415000000,-1.3679717
3416000000,-1.3830247
3417000000,-1.4016218
3418000000,-1.3455833
3419000000,-1.3704299
3420000000,-1.3916581
3421000000,-1.3709943
3422000000,-1.4002357
3423000000,-1.3767124
3424000000,-1.4196044
3425000000,-1.4043713
3426000000,-1.3817325
3427000000,-1.3981949
3428000000,-1.3926165
3429000000,-1.3642833
3430000000,-1.370942
3431000000,-1.3871595
3432000000,-1.3984052
3433000000,-1.404497
3434000000,-1.4136497
3435000000,-1.399928
3436000000,-1.4018444
3437000000,-1.4329772
3438000000,-1.4390311
3439000000,-1.4084927
3440000000,-1.4300498
3441000000,-1.4321941
3442000000,-1.4295667
3443000000,-1.421472
3444000000,-1.4413346
3445000000,-1.4273883
3446000000,-1.44807
3447000000,-1.4339379
3448000000,-1.4344155
3449000000,-1.4187586
3450000000,-1.452943
3451000000,-1.4418433
3452000000,-1.4244667
3453000000,-1.4496982
3454000000,-1.4305514
3455000000,-1.4101551
3456000000,-1.4345118
3457000000,-1.4354373
3458000000,-1.4957376
3459000000,-1.4107803
3460000000,-1.4321673
3461000000,-1.4912598
3462000000,-1.420224
3463000000,-1.413805
3464000000,-1.4476666
3465000000,-1.4629288
3466000000,-1.4506721
3467000000,-1.4510125
3468000000,-1.4311136
3469000000,-1.4831674
3470000000,-1.4619809
3471000000,-1.4507449
3472000000,-1.5190389
3473000000,-1.4694549
3474000000,-1.4601736
3475000000,-1.4843962
3476000000,-1.4766923
3477000000,-1.4574696
3478000000,-1.4984403
3479000000,-1.5051361
3480000000,-1.4920752
3481000000,-1.5008802
3482000000,-1.4849116
3483000000,-1.4934195
3484000000,-1.4931988
3485000000,-1.5006299
3486000000,-1.4687901
3487000000,-1.4861662
3488000000,-1.5153409
3489000000,-1.5073695
3490000000,-1.4778848
3491000000,-1.4975257
3492000000,-1.515584
3493000000,-1.5126162
3494000000,-1.5048511
3495000000,-1.5069333
3496000000,-1.5128279
3497000000,-1.4842013
3498000000,-1.4939483
3499000000,-1.5566713
3500000000,-1.5279963
3501000000,-1.5068272
3502000000,-1.4998745
3503000000,-1.5226163
3504000000,-1.4910319
3505000000,-1.5344518
3506000000,-1.5094811
3507000000,-1.5203893
3508000000,-1.5121328
3509000000,-1.5345666
3510000000,-1.5069491
3511000000,-1.5614396
3512000000,-1.5548385
3513000000,-1.5491365
3514000000,-1.5315859
3515000000,-1.5439684
3516000000,-1.5608279
3517000000,-1.5276451
3518000000,-1.5357269
3519000000,-1.5631336
3520000000,-1.5470778
3521000000,-1.576123
3522000000,-1.5530858
3523000000,-1.5562534
3524000000,-1.5588524
3525000000,-1.5284884
3526000000,-1.5539597
3527000000,-1.5887783
3528000000,-1.5491
3529000000,-1.5559163
3530000000,-1.5516381
3531000000,-1.5615227
3532000000,-1.5795852
3533000000,-1.5664918
3534000000,-1.5620228
3535000000,-1.5569733
3536000000,-1.6066426
3537000000,-1.5771778
3538000000,-1.5881813
3539000000,-1.5609944
3540000000,-1.5611168
3541000000,-1.5970932
3542000000,-1.5993061
3543000000,-1.5481192
3544000000,-1.5505583
3545000000,-1.5191063
3546000000,-1.5749997
3547000000,-1.5588319
3548000000,-1.6148757
3549000000,-1.5612192
3550000000,-1.5876919
3551000000,-1.5964847
3552000000,-1.5942655
3553000000,-1.5794896
3554000000,-1.5959713
3555000000,-1.6016227
3556000000,-1.6220753
3557000000,-1.5654634
3558000000,-1.6204057
3559000000,-1.6060877
3560000000,-1.5881312
3561000000,-1.6139292
3562000000,-1.5950717
3563000000,-1.6123273
3564000000,-1.6236655
3565000000,-1.6321799
3566000000,-1.6228923
3567000000,-1.6321765
3568000000,-1.6273535
3569000000,-1.618715
3570000000,-1.6495157
3571000000,-1.6406767
3572000000,-1.6119965
3573000000,-1.6127917
3574000000,-1.6318128
3575000000,-1.6326659
3576000000,-1.6422422
3577000000,-1.6182504
3578000000,-1.6469877
3579000000,-1.6368949
3580000000,-1.6801202
3581000000,-1.6439286
3582000000,-1.6493142
3583000000,-1.6337932
3584000000,-1.6594341
3585000000,-1.6579324
3586000000,-1.6137369
3587000000,-1.6262039
3588000000,-1.6542013
3589000000,-1.6406585
3590000000,-1.6233447
3591000000,-1.6596712
3592000000,-1.6583611
3593000000,-1.6503119
3594000000,-1.6342361
3595000000,-1.7019616
3596000000,-1.6880639
3597000000,-1.6828781
3598000000,-1.6772317
3599000000,-1.6567405
3600000000,-1.6674654
3601000000,-1.6930865
3602000000,-1.6665078
3603000000,-1.654968
3604000000,-1.7082232
3605000000,-1.6604304
3606000000,-1.6574879
3607000000,-1.6903015
3608000000,-1.7056301
3609000000,-1.7046039
3610000000,-1.7203952
3611000000,-1.6547804
3612000000,-1.7068857
3613000000,-1.6875876
3614000000,-1.6628217
3615000000,-1.7331091
3616000000,-1.6767644
3617000000,-1.7037073
3618000000,-1.7117708
3619000000,-1.7548441
3620000000,-1.7119704
3621000000,-1.6650816
3622000000,-1.7026713
3623000000,-1.7045578
3624000000,-1.7043123
3625000000,-1.7216588
3626000000,-1.7153201
3627000000,-1.7441062
3628000000,-1.7518375
3629000000,-1.7032593
3630000000,-1.7354946
3631000000,-1.7306929
3632000000,-1.7267838
3633000000,-1.7478261
3634000000,-1.7413372
3635000000,-1.7302343
3636000000,-1.7502316
3637000000,-1.7597704
3638000000,-1.7845613
3639000000,-1.7414465
3640000000,-1.7620839
3641000000,-1.783632
3642000000,-1.7577479
3643000000,-1.7350655
3644000000,-1.6884857
3645000000,-1.7120898
3646000000,-1.7338194
3647000000,-1.7673932
3648000000,-1.7743249
3649000000,-1.7411213
3650000000,-1.7719492
3651000000,-1.8068143
3652000000,-1.7950407
3653000000,-1.790238
3654000000,-1.8052262
3655000000,-1.7637432
3656000000,-1.7792189
3657000000,-1.7565515
3658000000,-1.7999271
3659000000,-1.7938313
3660000000,-1.7579676
3661000000,-1.783114
3662000000,-1.7760377
3663000000,-1.7709514
3664000000,-1.7982924
3665000000,-1.7931445
3666000000,-1.8279568
3667000000,-1.7832749
3668000000,-1.8178214
3669000000,-1.7953825
3670000000,-1.831279
3671000000,-1.8106871
3672000000,-1.814213
3673000000,-1.8121378
3674000000,-1.8260539
3675000000,-1.8448511
3676000000,-1.8329376
3677000000,-1.8393555
3678000000,-1.8652303
3679000000,-1.8546878
3680000000,-1.8436222
3681000000,-1.8972766
3682000000,-1.8401957
3683000000,-1.868245
3684000000,-1.842167
3685000000,-1.860196
3686000000,-1.8492399
3687000000,-1.8566312
3688000000,-1.8696468
3689000000,-1.8515009
3690000000,-1.8568369
3691000000,-1.8596938
3692000000,-1.8932824
3693000000,-1.9035009
3694000000,-1.8791863
3695000000,-1.8513601
3696000000,-1.8314543
3697000000,-1.8980526
3698000000,-1.8767297
3699000000,-1.8978091
3700000000,-1.8444251
3701000000,-1.8770854
3702000000,-1.8875793
3703000000,-1.8971927
3704000000,-1.8917955
3705000000,-1.9287976
3706000000,-1.8892927
3707000000,-1.8858057
3708000000,-1.8631471
3709000000,-1.869549
3710000000,-1.8797868
3711000000,-1.9036179
3712000000,-1.8893381
3713000000,-1.8968779
3714000000,-1.9510739
3715000000,-1.9591792
3716000000,-1.9538778
3717000000,-1.9342017
3718000000,-1.9265034
3719000000,-1.9437772
3720000000,-1.9325265
3721000000,-1.9584782
3722000000,-1.9608885
3723000000,-1.9271538
3724000000,-1.9774208
3725000000,-1.9510938
3726000000,-1.9497375
3727000000,-1.9467213
3728000000,-1.9717164
3729000000,-1.9681983
3730000000,-1.996573
3731000000,-1.9609319
3732000000,-1.994983
3733000000,-1.9846716
3734000000,-1.9417834
3735000000,-1.9756434
3736000000,-2.0099833
3737000000,-1.960035
3738000000,-2.0008459
3739000000,-2.0127809
3740000000,-1.9905539
3741000000,-1.9917432
3742000000,-1.9898258
3743000000,-2.0384116
3744000000,-2.0001118
3745000000,-1.9729325
3746000000,-2.0035818
3747000000,-1.9686641
3748000000,-1.9899129
3749000000,-1.9826787
3750000000,-2.0361402
3751000000,-1.9849004
3752000000,-2.0377274
3753000000,-2.0038881
3754000000,-2.018708
3755000000,-2.0398574
3756000000,-2.0280902
3757000000,-2.0395303
3758000000,-2.0217764
3759000000,-2.0419972
3760000000,-2.0814383
3761000000,-2.0330462
3762000000,-2.0529993
3763000000,-2.0653512
3764000000,-2.081567
3765000000,-2.0899367
3766000000,-2.0722227
3767000000,-2.0667708
3768000000,-2.05725
3769000000,-2.1040053
3770000000,-2.1050572
3771000000,-2.0898364
3772000000,-2.1109774
3773000000,-2.0864372
3774000000,-2.0677562
3775000000,-2.10338
3776000000,-2.0971146
3777000000,-2.0858116
3778000000,-2.0955806
3779000000,-2.1023972
3780000000,-2.1121852
3781000000,-2.1186161
3782000000,-2.1086714
3783000000,-2.1375365
3784000000,-2.1568232
3785000000,-2.1261351
3786000000,-2.1353309
3787000000,-2.1333218
3788000000,-2.122637
3789000000,-2.1324983
3790000000,-2.1412549
3791000000,-2.1692939
3792000000,-2.1389971
3793000000,-2.1398909
3794000000,-2.175204
3795000000,-2.1785164
3796000000,-2.1980143
3797000000,-2.1856289
3798000000,-2.2212708
3799000000,-2.208214
3800000000,-2.2117798
3801000000,-2.2136493
3802000000,-2.1772175
3803000000,-2.1820669
3804000000,-2.2146783
3805000000,-2.2112463
3806000000,-2.2138915
3807000000,-2.2038491
3808000000,-2.244554
3809000000,-2.1777012
3810000000,-2.2000017
3811000000,-2.2273948
3812000000,-2.2621272
3813000000,-2.242712
3814000000,-2.2537413
3815000000,-2.2460816
3816000000,-2.237251
3817000000,-2.2409635
3818000000,-2.2599118
3819000000,-2.2277794
3820000000,-2.2551997
3821000000,-2.2798142
3822000000,-2.2617936
3823000000,-2.2881627
3824000000,-2.2313399
3825000000,-2.3002915
3826000000,-2.3198221
3827000000,-2.2632792
3828000000,-2.3270042
3829000000,-2.278168
3830000000,-2.2898369
3831000000,-2.3210363
3832000000,-2.3318608
3833000000,-2.363028
3834000000,-2.320823
3835000000,-2.2928741
3836000000,-2.3190989
3837000000,-2.3522768
3838000000,-2.3636174
3839000000,-2.3560455
3840000000,-2.3846104
3841000000,-2.395792
3842000000,-2.3966637
3843000000,-2.3744783
3844000000,-2.3797188
3845000000,-2.4422216
3846000000,-2.4032052
3847000000,-2.3753409
3848000000,-2.3821595
3849000000,-2.4170558
3850000000,-2.4225483
3851000000,-2.4087672
3852000000,-2.4332075
3853000000,-2.4344742
3854000000,-2.4662626
3855000000,-2.4784577
3856000000,-2.4518411
3857000000,-2.4468248
3858000000,-2.4337645
3859000000,-2.4414344
3860000000,-2.4611657
3861000000,-2.4792848
3862000000,-2.4834042
3863000000,-2.4472542
3864000000,-2.5031986
3865000000,-2.5106566
3866000000,-2.5084727
3867000000,-2.5001385
3868000000,-2.4972761
3869000000,-2.5351801
3870000000,-2.5145984
3871000000,-2.5469425
3872000000,-2.5562673
3873000000,-2.5602572
3874000000,-2.5872858
3875000000,-2.5608206
3876000000,-2.5649199
3877000000,-2.6056452
3878000000,-2.5651472
3879000000,-2.6096516
3880000000,-2.6174893
3881000000,-2.6217909
3882000000,-2.6340311
3883000000,-2.6568804
3884000000,-2.626436
3885000000,-2.6305873
3886000000,-2.6703739
3887000000,-2.6578004
3888000000,-2.6750083
3889000000,-2.6440051
3890000000,-2.6824164
3891000000,-2.6783457
3892000000,-2.6983483
3893000000,-2.6582038
3894000000,-2.6787131
3895000000,-2.6825769
3896000000,-2.6818342
3897000000,-2.7143762
3898000000,-2.7034178
3899000000,-2.7640018
3900000000,-2.7606883
3901000000,-2.6645477
3902000000,-2.7255964
3903000000,-2.7404907
3904000000,-2.7168465
3905000000,-2.7791486
3906000000,-2.7782345
3907000000,-2.7774992
3908000000,-2.7638431
3909000000,-2.783567
3910000000,-2.7513011
3911000000,-2.7326288
3912000000,-2.8041375
3913000000,-2.8072486
3914000000,-2.8173025
3915000000,-2.8316159
3916000000,-2.8782504
3917000000,-2.8686297
3918000000,-2.896302
3919000000,-2.8647845
3920000000,-2.8366241
3921000000,-2.8721807
3922000000,-2.8907895
3923000000,-2.8942826
3924000000,-2.8678706
3925000000,-2.9089961
3926000000,-2.8999395
3927000000,-2.9026103
3928000000,-2.9569402
3929000000,-2.9340081
3930000000,-2.9499195
3931000000,-2.9667883
3932000000,-2.9500728
3933000000,-2.9691973
3934000000,-2.984611
3935000000,-2.9648747
3936000000,-2.9821687
3937000000,-2.9979458
3938000000,-3.0102274
3939000000,-3.0432715
3940000000,-2.9918492
3941000000,-3.0045688
3942000000,-3.0560813
3943000000,-3.0084791
3944000000,-3.0674748
3945000000,-3.088443
3946000000,-3.059979
3947000000,-3.0577579
3948000000,-3.0703936
3949000000,-3.0691545
3950000000,-3.1144857
3951000000,-3.1193995
3952000000,-3.095506
3953000000,-3.1227481
3954000000,-3.1412168
3955000000,-3.1619234
3956000000,-3.1805863
3957000000,-3.1893091
3958000000,-3.1600268
3959000000,-3.2222331
3960000000,-3.2239668
3961000000,-3.2198853
3962000000,-3.2275717
3963000000,-3.2400987
3964000000,-3.2335587
3965000000,-3.2261071
3966000000,-3.2134123
3967000000,-3.2232215
3968000000,-3.2689512
3969000000,-3.2816226
3970000000,-3.235518
3971000000,-3.3060517
3972000000,-3.293107
3973000000,-3.2962945
3974000000,-3.33324
3975000000,-3.322736
3976000000,-3.3766577
3977000000,-3.3367612
3978000000,-3.3773296
3979000000,-3.4068077
3980000000,-3.3549948
3981000000,-3.3409097
3982000000,-3.3307106
3983000000,-3.369669
3984000000,-3.3948176
3985000000,-3.4512906
3986000000,-3.4496791
3987000000,-3.4118569
3988000000,-3.4297531
3989000000,-3.488426
3990000000,-3.4513085
3991000000,-3.5001564
3992000000,-3.4802239
3993000000,-3.5151906
3994000000,-3.4656396
3995000000,-3.4905424
3996000000,-3.5188651
3997000000,-3.5265744
3998000000,-3.517812
3999000000,-3.5903141
4000000000,-3.5686674
4001000000,-3.5498948
4002000000,-3.6024902
4003000000,-3.6049259
4004000000,-3.5856533
4005000000,-3.5903587
4006000000,-3.6308873
4007000000,-3.6528676
4008000000,-3.6434538
4009000000,-3.6702933
4010000000,-3.6632183
4011000000,-3.6714234
4012000000,-3.6783032
4013000000,-3.7128198
4014000000,-3.7219052
4015000000,-3.7612307
4016000000,-3.748035
4017000000,-3.7294834
4018000000,-3.7240252
4019000000,-3.7844069
4020000000,-3.7965965
4021000000,-3.7884445
4022000000,-3.8032334
4023000000,-3.8183644
4024000000,-3.8185055
4025000000,-3.8430362
4026000000,-3.8789456
4027000000,-3.8851731
4028000000,-3.8785295
4029000000,-3.8771043
4030000000,-3.8930995
4031000000,-3.8863087
4032000000,-3.9411559
4033000000,-3.932343
4034000000,-3.9392002
4035000000,-3.9568343
4036000000,-3.9308538
4037000000,-3.9478674
4038000000,-3.9662831
4039000000,-3.976707
4040000000,-4.0034232
4041000000,-4.0430512
4042000000,-4.0169268
4043000000,-4.0725036
4044000000,-4.0068383
4045000000,-4.0504866
4046000000,-4.0497422
4047000000,-4.0909328
4048000000,-4.1174693
4049000000,-4.0889306
4050000000,-4.1204638
4051000000,-4.1335239
4052000000,-4.1701245
4053000000,-4.1712327
4054000000,-4.1397028
4055000000,-4.1772981
4056000000,-4.2273793
4057000000,-4.2043681
4058000000,-4.262094
4059000000,-4.2606263
4060000000,-4.2342639
4061000000,-4.2676902
4062000000,-4.2944775
4063000000,-4.2843323
4064000000,-4.3073964
4065000000,-4.3136773
4066000000,-4.3659396
4067000000,-4.3607936
4068000000,-4.3445916
4069000000,-4.4529743
4070000000,-4.4087081
4071000000,-4.4287267
4072000000,-4.434453
4073000000,-4.4370327
4074000000,-4.450809
4075000000,-4.4722013
4076000000,-4.4611635
4077000000,-4.5081258
4078000000,-4.5003548
4079000000,-4.5262842
4080000000,-4.5348897
4081000000,-4.5494576
4082000000,-4.5364389
4083000000,-4.6137042
4084000000,-4.607357
4085000000,-4.6202569
4086000000,-4.654882
4087000000,-4.6603084
4088000000,-4.6395016
4089000000,-4.6633067
4090000000,-4.7400932
4091000000,-4.7070928
4092000000,-4.7328229
4093000000,-4.7622881
4094000000,-4.7526627
4095000000,-4.7438641
4096000000,-4.8155146
4097000000,-4.787899
4098000000,-4.8313847
4099000000,-4.8060479
4100000000,-4.8264861
4101000000,-4.8444338
4102000000,-4.8476925
4103000000,-4.9234838
4104000000,-4.9233985
4105000000,-4.9318962
4106000000,-4.9566736
4107000000,-4.9463596
4108000000,-4.9780622
4109000000,-5.0405354
4110000000,-5.0380335
4111000000,-5.0359039
4112000000,-5.0635967
4113000000,-5.0653415
4114000000,-5.0506172
4115000000,-5.0501881
4116000000,-5.1005998
4117000000,-5.1325088
4118000000,-5.1511579
4119000000,-5.1990676
4120000000,-5.1939735
4121000000,-5.2193432
4122000000,-5.2355061
4123000000,-5.2321696
4124000000,-5.2206883
4125000000,-5.2659845
4126000000,-5.2722468
4127000000,-5.2954822
4128000000,-5.306983
4129000000,-5.3549457
4130000000,-5.3848367
4131000000,-5.3726416
4132000000,-5.3862324
4133000000,-5.4372773
4134000000,-5.4177046
4135000000,-5.4637713
4136000000,-5.4775124
4137000000,-5.4988956
4138000000,-5.4863338
4139000000,-5.5082006
4140000000,-5.4908037
4141000000,-5.5633531
4142000000,-5.5724254
4143000000,-5.556098
4144000000,-5.6099606
4145000000,-5.6000576
4146000000,-5.604804
4147000000,-5.6406245
4148000000,-5.6808224
4149000000,-5.6630116
4150000000,-5.697
4151000000,-5.7483015
4152000000,-5.7198176
4153000000,-5.7869563
4154000000,-5.7442498
4155000000,-5.8195291
4156000000,-5.8486109
4157000000,-5.8179927
4158000000,-5.8467269
4159000000,-5.8486729
4160000000,-5.8900151
4161000000,-5.8991308
4162000000,-5.9279275
4163000000,-5.9177327
4164000000,-5.9522557
4165000000,-5.9559407
4166000000,-5.9866414
4167000000,-6.0027637
4168000000,-6.0591803
4169000000,-6.0694652
4170000000,-6.0522327
4171000000,-6.0756073
4172000000,-6.1202617
4173000000,-6.1276021
4174000000,-6.1468992
4175000000,-6.2009859
4176000000,-6.1845541
4177000000,-6.2098656
4178000000,-6.2314091
4179000000,-6.2516456
4180000000,-6.2880225
4181000000,-6.2970834
4182000000,-6.3247266
4183000000,-6.3406301
4184000000,-6.3365135
4185000000,-6.3725181
4186000000,-6.3837109
4187000000,-6.4284945
4188000000,-6.4757051
4189000000,-6.4480581
4190000000,-6.4681101
4191000000,-6.4962745
4192000000,-6.4856234
4193000000,-6.5232511
4194000000,-6.5296903
4195000000,-6.5731468
4196000000,-6.5893812
4197000000,-6.611568
4198000000,-6.6612086
4199000000,-6.6380954
4200000000,-6.6685352
4201000000,-6.7160172
4202000000,-6.6889305
4203000000,-6.7265382
4204000000,-6.7456503
4205000000,-6.7944474
4206000000,-6.788126
4207000000,-6.8253846
4208000000,-6.8172827
4209000000,-6.8706651
4210000000,-6.8821101
4211000000,-6.9042974
4212000000,-6.8932371
4213000000,-6.9087596
4214000000,-6.9162812
4215000000,-6.9653115
4216000000,-7.0031505
4217000000,-7.0032916
4218000000,-7.012126
4219000000,-7.0170074
4220000000,-7.0621562
4221000000,-7.0859647
4222000000,-7.101553
4223000000,-7.107656
4224000000,-7.1326771
4225000000,-7.1465034
4226000000,-7.1625133
4227000000,-7.2013187
4228000000,-7.2411809
4229000000,-7.253315
4230000000,-7.2599525
4231000000,-7.2840939
4232000000,-7.2810593
4233000000,-7.3526926
4234000000,-7.3372893
4235000000,-7.3308282
4236000000,-7.3632274
4237000000,-7.4119792
4238000000,-7.3896079
4239000000,-7.4363871
4240000000,-7.486104
4241000000,-7.4715033
4242000000,-7.4893942
4243000000,-7.5160813
4244000000,-7.5452452
4245000000,-7.5678983
4246000000,-7.55479
4247000000,-7.5883675
4248000000,-7.571559
4249000000,-7.616046
4250000000,-7.5772057
4251000000,-7.6468611
4252000000,-7.6618009
4253000000,-7.7006774
4254000000,-7.7177811
4255000000,-7.7014809
4256000000,-7.7265034
4257000000,-7.7319551
4258000000,-7.7604089
4259000000,-7.7693868
4260000000,-7.7902117
4261000000,-7.8144641
4262000000,-7.8442006
4263000000,-7.841763
4264000000,-7.8432646
4265000000,-7.8510332
4266000000,-7.8454647
4267000000,-7.8470426
4268000000,-7.8920827
4269000000,-7.9111075
4270000000,-7.9169064
4271000000,-7.9533348
4272000000,-7.9674549
4273000000,-7.9555259
4274000000,-7.9430165
4275000000,-8.0409527
4276000000,-7.9942465
4277000000,-8.0393438
4278000000,-8.0416403
4279000000,-8.0477905
4280000000,-8.0700045
4281000000,-8.0956564
4282000000,-8.0769024
4283000000,-8.0933199
4284000000,-8.0996542
4285000000,-8.0839529
4286000000,-8.1357946
4287000000,-8.1417742
4288000000,-8.1396933
4289000000,-8.1590776
4290000000,-8.1653681
4291000000,-8.1742506
4292000000,-8.1551476
4293000000,-8.1935492
4294000000,-8.1842718
4295000000,-8.216013
4296000000,-8.1972284
4297000000,-8.1785717
4298000000,-8.2166471
4299000000,-8.2023106
4300000000,-8.214262
4301000000,-8.2330303
4302000000,-8.2093
4303000000,-8.2236795
4304000000,-8.2421331
4305000000,-8.2536888
4306000000,-8.262785
4307000000,-8.2381611
4308000000,-8.2411613
4309000000,-8.2513361
4310000000,-8.2940388
4311000000,-8.2596207
4312000000,-8.273181
4313000000,-8.2777586
4314000000,-8.2654305
4315000000,-8.3016796
4316000000,-8.2316294
4317000000,-8.2653618
4318000000,-8.2609015
4319000000,-8.2849331
4320000000,-8.2474842
4321000000,-8.2701149
4322000000,-8.2823563
4323000000,-8.2981901
4324000000,-8.2788906
4325000000,-8.256381
4326000000,-8.2513151
4327000000,-8.2621508
4328000000,-8.2663536
4329000000,-8.2425566
4330000000,-8.2587452
4331000000,-8.228035
4332000000,-8.2336617
4333000000,-8.2345095
4334000000,-8.2136478
4335000000,-8.2141685
4336000000,-8.2284269
4337000000,-8.2106953
4338000000,-8.1896467
4339000000,-8.1705713
4340000000,-8.1889782
4341000000,-8.1699562
4342000000,-8.197669
4343000000,-8.1795988
4344000000,-8.1681004
4345000000,-8.1773882
4346000000,-8.1306381
4347000000,-8.1399565
4348000000,-8.1304808
4349000000,-8.1131849
4350000000,-8.1136389
4351000000,-8.1106443
4352000000,-8.08957
4353000000,-8.0611076
4354000000,-8.0367537
4355000000,-8.0632563
4356000000,-8.0544481
4357000000,-8.0297861
4358000000,-8.0557642
4359000000,-8.0124779
4360000000,-7.9986343
4361000000,-7.9976058
4362000000,-7.9826903
4363000000,-7.9323344
4364000000,-7.927073
4365000000,-7.9001708
4366000000,-7.9124265
4367000000,-7.9127316
4368000000,-7.893394
4369000000,-7.8724713
4370000000,-7.8694296
4371000000,-7.8305993
4372000000,-7.8322196
4373000000,-7.79633
4374000000,-7.798171
4375000000,-7.7829647
4376000000,-7.7507448
4377000000,-7.7409105
4378000000,-7.7406435
4379000000,-7.7079568
4380000000,-7.6639109
4381000000,-7.6550083
4382000000,-7.6503906
4383000000,-7.6517768
4384000000,-7.6229877
4385000000,-7.5945539
4386000000,-7.5959916
4387000000,-7.5698009
4388000000,-7.5587025
4389000000,-7.5507536
4390000000,-7.5109315
4391000000,-7.5124769
4392000000,-7.5041037
4393000000,-7.4247365
4394000000,-7.4371748
4395000000,-7.4293661
4396000000,-7.4332199
4397000000,-7.3802333
4398000000,-7.3547649
4399000000,-7.3354325
4400000000,-7.3523026
4401000000,-7.3055997
4402000000,-7.2952881
4403000000,-7.288403
4404000000,-7.2338891
4405000000,-7.2395301
4406000000,-7.2078733
4407000000,-7.1825213
4408000000,-7.1917119
4409000000,-7.1553369
4410000000,-7.138514
4411000000,-7.1169848
4412000000,-7.1268368
4413000000,-7.0706134
4414000000,-7.0372758
4415000000,-7.0458579
4416000000,-7.0281839
4417000000,-7.000658
4418000000,-6.9702439
4419000000,-6.9474874
4420000000,-6.9458032
4421000000,-6.8725991
4422000000,-6.8991318
4423000000,-6.8627615
4424000000,-6.8409328
4425000000,-6.7984376
4426000000,-6.803318
4427000000,-6.8001499
4428000000,-6.7413549
4429000000,-6.7510982
4430000000,-6.7324653
4431000000,-6.7128787
4432000000,-6.6626158
4433000000,-6.6555901
4434000000,-6.6263418
4435000000,-6.6031537
4436000000,-6.5860004
4437000000,-6.5710297
4438000000,-6.5458679
4439000000,-6.4896708
4440000000,-6.4775448
4441000000,-6.4728594
4442000000,-6.4562659
4443000000,-6.4147086
4444000000,-6.3922834
4445000000,-6.4063444
4446000000,-6.3472333
4447000000,-6.3410063
4448000000,-6.3054066
4449000000,-6.2725224
4450000000,-6.2648716
4451000000,-6.2351747
4452000000,-6.2251582
4453000000,-6.2291765
4454000000,-6.1467729
4455000000,-6.1554918
4456000000,-6.1260967
4457000000,-6.0944591
4458000000,-6.1053381
4459000000,-6.0961699
4460000000,-6.0619321
4461000000,-6.0383396
4462000000,-6.0101461
4463000000,-5.9883947
4464000000,-5.9640465
4465000000,-5.9506149
4466000000,-5.9184265
4467000000,-5.8999319
4468000000,-5.8709893
4469000000,-5.8646626
4470000000,-5.8651638
4471000000,-5.8324819
4472000000,-5.8290663
4473000000,-5.7594557
4474000000,-5.7643251
4475000000,-5.7649217
4476000000,-5.6980414
4477000000,-5.7163706
4478000000,-5.6861873
4479000000,-5.6678472
4480000000,-5.6174369
4481000000,-5.6017771
4482000000,-5.5850039
4483000000,-5.5793791
4484000000,-5.550221
4485000000,-5.5302639
4486000000,-5.5247364
4487000000,-5.4930911
4488000000,-5.4388494
4489000000,-5.4421148
4490000000,-5.3984189
4491000000,-5.3939362
4492000000,-5.3463264
4493000000,-5.3550839
4494000000,-5.3068991
4495000000,-5.2967563
4496000000,-5.295012
4497000000,-5.2623596
4498000000,-5.2404332
4499000000,-5.227252
4500000000,-5.2365065
4501000000,-5.1901846
4502000000,-5.1589479
4503000000,-5.1568341
4504000000,-5.1214695
4505000000,-5.0750928
4506000000,-5.0880904
4507000000,-5.0699582
4508000000,-5.0423679
4509000000,-5.0131288
4510000000,-4.9984264
4511000000,-4.9788003
4512000000,-4.9730697
4513000000,-4.9252148
4514000000,-4.9135909
4515000000,-4.9043112
4516000000,-4.8968935
4517000000,-4.8877435
4518000000,-4.8186612
4519000000,-4.8352728
4520000000,-4.7959194
4521000000,-4.7639432
4522000000,-4.7519035
4523000000,-4.7250581
4524000000,-4.7450767
4525000000,-4.6911178
4526000000,-4.6867838
4527000000,-4.665729
4528000000,-4.6440187
4529000000,-4.620338
4530000000,-4.6002097
4531000000,-4.5925069
4532000000,-4.5384207
4533000000,-4.5377135
4534000000,-4.4939909
4535000000,-4.4857073
4536000000,-4.4505291
4537000000,-4.4600372
4538000000,-4.4475026
4539000000,-4.4110718
4540000000,-4.3782501
4541000000,-4.3923922
4542000000,-4.3583941
4543000000,-4.341466
4544000000,-4.3176455
4545000000,-4.2792439
4546000000,-4.2643256
4547000000,-4.2473035
4548000000,-4.2432489
4549000000,-4.2470012
4550000000,-4.1941586
4551000000,-4.1533985
4552000000,-4.1540051
4553000000,-4.1734948
4554000000,-4.103754
4555000000,-4.086585
4556000000,-4.0923557
4557000000,-4.0441389
4558000000,-4.0498552
4559000000,-4.0385556
4560000000,-3.983458
4561000000,-3.9728532
4562000000,-3.9747305
4563000000,-3.9666686
4564000000,-3.9410939
4565000000,-3.9246187
4566000000,-3.8871424
4567000000,-3.8657775
4568000000,-3.8444488
4569000000,-3.8560028
4570000000,-3.8005812
4571000000,-3.8168621
4572000000,-3.771924
4573000000,-3.7913721
4574000000,-3.7494948
4575000000,-3.7083647
4576000000,-3.7068033
4577000000,-3.7164178
4578000000,-3.6838191
4579000000,-3.6673841
4580000000,-3.6543202
4581000000,-3.6182806
4582000000,-3.5935605
4583000000,-3.5791349
4584000000,-3.5593808
4585000000,-3.5353146
4586000000,-3.5340123
4587000000,-3.5171449
4588000000,-3.4890454
4589000000,-3.4776318
4590000000,-3.4772582
4591000000,-3.4312787
4592000000,-3.4422519
4593000000,-3.4330189
4594000000,-3.4008253
4595000000,-3.4044518
4596000000,-3.3807981
4597000000,-3.3637264
4598000000,-3.3404508
4599000000,-3.3293195
4600000000,-3.3198919
4601000000,-3.3106704
4602000000,-3.2799635
4603000000,-3.2712226
4604000000,-3.2663395
4605000000,-3.2435391
4606000000,-3.2428029
4607000000,-3.2375305
4608000000,-3.1754332
4609000000,-3.1990993
4610000000,-3.1634648
4611000000,-3.1695325
4612000000,-3.1571631
4613000000,-3.1471932
4614000000,-3.1216521
4615000000,-3.1015975
4616000000,-3.1067989
4617000000,-3.0828764
4618000000,-3.0703053
4619000000,-3.0569031
4620000000,-3.0423746
4621000000,-3.0339882
4622000000,-3.0273991
4623000000,-3.00984
4624000000,-2.9792898
4625000000,-2.9524419
4626000000,-2.9646542
4627000000,-2.9617791
4628000000,-2.9424164
4629000000,-2.9805715
4630000000,-2.9443345
4631000000,-2.9308894
4632000000,-2.9286139
4633000000,-2.8890121
4634000000,-2.9063895
4635000000,-2.8964016
4636000000,-2.8724563
4637000000,-2.8347607
4638000000,-2.8761365
4639000000,-2.8522546
4640000000,-2.8276713
4641000000,-2.837148
4642000000,-2.8297513
4643000000,-2.8307574
4644000000,-2.8146193
4645000000,-2.7930689
4646000000,-2.774827
4647000000,-2.7895966
4648000000,-2.7529767
4649000000,-2.7710836
4650000000,-2.7435424
4651000000,-2.7560315
4652000000,-2.7728691
4653000000,-2.7408955
4654000000,-2.7292404
4655000000,-2.7285712
4656000000,-2.7194674
4657000000,-2.7303131
4658000000,-2.7080307
4659000000,-2.7162724
4660000000,-2.6914735
4661000000,-2.6648664
4662000000,-2.6943536
4663000000,-2.6632855
4664000000,-2.6613634
4665000000,-2.6856382
4666000000,-2.6766675
4667000000,-2.6488147
4668000000,-2.6855562
4669000000,-2.6462493
4670000000,-2.622452
4671000000,-2.6549706
4672000000,-2.6332104
4673000000,-2.636426
4674000000,-2.6456041
4675000000,-2.6096776
4676000000,-2.6214037
4677000000,-2.6142681
4678000000,-2.6156797
4679000000,-2.6008461
4680000000,-2.5833576
4681000000,-2.5939317
4682000000,-2.5749173
4683000000,-2.5789881
4684000000,-2.5968909
4685000000,-2.5691648
4686000000,-2.5477967
4687000000,-2.5669198
4688000000,-2.5686231
4689000000,-2.5565364
4690000000,-2.5653303
4691000000,-2.5440834
4692000000,-2.5488591
4693000000,-2.5393665
4694000000,-2.5466044
4695000000,-2.5315351
4696000000,-2.5427439
4697000000,-2.4985697
4698000000,-2.5201495
4699000000,-2.4998803
4700000000,-2.5052197
4701000000,-2.5001225
4702000000,-2.5146763
4703000000,-2.4904146
4704000000,-2.4919529
4705000000,-2.4885328
4706000000,-2.4753582
4707000000,-2.4890511
4708000000,-2.4687462
4709000000,-2.4964969
4710000000,-2.4700513
4711000000,-2.488153
4712000000,-2.451277
4713000000,-2.4685602
4714000000,-2.4792399
4715000000,-2.4559271
4716000000,-2.4765735
4717000000,-2.4436684
4718000000,-2.4999101
4719000000,-2.4827905
4720000000,-2.4192924
4721000000,-2.4694738
4722000000,-2.4528556
4723000000,-2.4341552
4724000000,-2.4374089
4725000000,-2.4057944
4726000000,-2.4126387
4727000000,-2.4467177
4728000000,-2.4559023
4729000000,-2.4392228
4730000000,-2.4422822
4731000000,-2.4278314
4732000000,-2.4179902
4733000000,-2.418257
4734000000,-2.4448364
4735000000,-2.4213042
4736000000,-2.4217174
4737000000,-2.4116914
4738000000,-2.3904779
4739000000,-2.3983517
4740000000,-2.3843737
4741000000,-2.4039912
4742000000,-2.4192703
4743000000,-2.3916404
4744000000,-2.3993888
4745000000,-2.4173403
4746000000,-2.3927889
4747000000,-2.3764427
4748000000,-2.3621686
4749000000,-2.3816297
4750000000,-2.3466942
4751000000,-2.3792422
4752000000,-2.3852844
4753000000,-2.3643701
4754000000,-2.3497813
4755000000,-2.3501163
4756000000,-2.3784242
4757000000,-2.3691306
4758000000,-2.3497791
4759000000,-2.3893664
4760000000,-2.3466713
4761000000,-2.3846147
4762000000,-2.3870909
4763000000,-2.3672533
4764000000,-2.3458774
4765000000,-2.3802412
4766000000,-2.3347445
4767000000,-2.3519609
4768000000,-2.3648529
4769000000,-2.3609529
4770000000,-2.3642426
4771000000,-2.3365061
4772000000,-2.3544903
4773000000,-2.3550141
4774000000,-2.3546505
4775000000,-2.3651025
4776000000,-2.3313
4777000000,-2.2969007
4778000000,-2.3296175
4779000000,-2.3180623
4780000000,-2.325531
4781000000,-2.3423743
4782000000,-2.3107631
4783000000,-2.2984557
4784000000,-2.3316286
4785000000,-2.3261168
4786000000,-2.3297784
4787000000,-2.3171465
4788000000,-2.3160412
4789000000,-2.300662
4790000000,-2.304713
4791000000,-2.2985554
4792000000,-2.2879226
4793000000,-2.3019412
4794000000,-2.3047409
4795000000,-2.3131053
4796000000,-2.2958028
4797000000,-2.2864215
4798000000,-2.2769024
4799000000,-2.3020608
4800000000,-2.3020904
4801000000,-2.279053
4802000000,-2.3180854
4803000000,-2.286329
4804000000,-2.2726071
4805000000,-2.2739573
4806000000,-2.3034818
4807000000,-2.2847676
4808000000,-2.2874329
4809000000,-2.287765
4810000000,-2.2931464
4811000000,-2.2905447
4812000000,-2.2685308
4813000000,-2.2823811
4814000000,-2.2601731
4815000000,-2.2825956
4816000000,-2.2840452
4817000000,-2.2740195
4818000000,-2.2816546
4819000000,-2.2765663
4820000000,-2.3116016
4821000000,-2.3067467
4822000000,-2.2782791
4823000000,-2.2764225
4824000000,-2.2597797
4825000000,-2.2724552
4826000000,-2.2692103
4827000000,-2.2491775
4828000000,-2.2550814
4829000000,-2.2760665
4830000000,-2.2772584
4831000000,-2.2586699
4832000000,-2.2693598
4833000000,-2.265857
4834000000,-2.2824705
4835000000,-2.2544723
4836000000,-2.2563102
4837000000,-2.2710121
4838000000,-2.2615876
4839000000,-2.2712452
4840000000,-2.2851541
4841000000,-2.2743905
4842000000,-2.2699041
4843000000,-2.2454767
4844000000,-2.2771614
4845000000,-2.2676096
4846000000,-2.2627544
4847000000,-2.2769005
4848000000,-2.2513666
4849000000,-2.2680671
4850000000,-2.2550197
4851000000,-2.2440114
4852000000,-2.2452803
4853000000,-2.2633657
4854000000,-2.2410152
4855000000,-2.263494
4856000000,-2.2331212
4857000000,-2.2365119
4858000000,-2.2488151
4859000000,-2.2636847
4860000000,-2.2182238
4861000000,-2.2260661
4862000000,-2.2435572
4863000000,-2.2341392
4864000000,-2.2136292
4865000000,-2.232338
4866000000,-2.2315412
4867000000,-2.2179091
4868000000,-2.224961
4869000000,-2.2045951
4870000000,-2.2083752
4871000000,-2.2361164
4872000000,-2.240135
4873000000,-2.2347035
4874000000,-2.2185242
4875000000,-2.2406511
4876000000,-2.2354062
4877000000,-2.2052042
4878000000,-2.2158673
4879000000,-2.2283442
4880000000,-2.2113788
4881000000,-2.2603316
4882000000,-2.2269475
4883000000,-2.2332988
4884000000,-2.235383
4885000000,-2.2302544
4886000000,-2.2278106
4887000000,-2.2223196
4888000000,-2.2148345
4889000000,-2.1905007
4890000000,-2.2376149
4891000000,-2.2302098
4892000000,-2.2192645
4893000000,-2.2163298
4894000000,-2.2151911
4895000000,-2.2404883
4896000000,-2.2244616
4897000000,-2.2249053
4898000000,-2.1956978
4899000000,-2.1993353
4900000000,-2.2045102
4901000000,-2.2245712
4902000000,-2.2077758
4903000000,-2.184912
4904000000,-2.2099113
4905000000,-2.202558
4906000000,-2.2066109
4907000000,-2.2232642
4908000000,-2.2162998
4909000000,-2.200402
4910000000,-2.1894534
4911000000,-2.2082925
4912000000,-2.2125332
4913000000,-2.2079163
4914000000,-2.2121253
4915000000,-2.2284861
4916000000,-2.1884253
4917000000,-2.2173197
4918000000,-2.2031279
4919000000,-2.2195666
4920000000,-2.1791463
4921000000,-2.1906645
4922000000,-2.2076998
4923000000,-2.2225378
4924000000,-2.2134361
4925000000,-2.1959288
4926000000,-2.2152526
4927000000,-2.1958799
4928000000,-2.2205107
4929000000,-2.2358334
4930000000,-2.2096848
4931000000,-2.2031529
4932000000,-2.1960473
4933000000,-2.1910806
4934000000,-2.2125597
4935000000,-2.2048097
4936000000,-2.1905358
4937000000,-2.2092028
4938000000,-2.2107961
4939000000,-2.1894786
4940000000,-2.1837568
4941000000,-2.2157209
4942000000,-2.1766443
4943000000,-2.2082634
4944000000,-2.196378
4945000000,-2.2012026
4946000000,-2.1758924
4947000000,-2.2114439
4948000000,-2.1797845
4949000000,-2.1680048
4950000000,-2.2169645
4951000000,-2.2045746
4952000000,-2.2210047
4953000000,-2.2012434
4954000000,-2.2075312
4955000000,-2.160917
4956000000,-2.1977882
4957000000,-2.194366
4958000000,-2.1958857
4959000000,-2.1877286
4960000000,-2.1968951
4961000000,-2.201184
4962000000,-2.1834395
4963000000,-2.2442815
4964000000,-2.2088919
4965000000,-2.1769955
4966000000,-2.1618142
4967000000,-2.1754127
4968000000,-2.168952
4969000000,-2.1712465
4970000000,-2.186166
4971000000,-2.2008758
4972000000,-2.1712925
4973000000,-2.180506
4974000000,-2.1812749
4975000000,-2.1832261
4976000000,-2.171175
4977000000,-2.1858759
4978000000,-2.1711504
4979000000,-2.1905041
4980000000,-2.1813774
4981000000,-2.1670945
4982000000,-2.1598191
4983000000,-2.1626742
4984000000,-2.156992
4985000000,-2.1614776
4986000000,-2.1740735
4987000000,-2.1958191
4988000000,-2.1831899
4989000000,-2.1663585
4990000000,-2.1448095
4991000000,-2.1597986
4992000000,-2.1774795
4993000000,-2.1886494
4994000000,-2.1839163
4995000000,-2.1652315
4996000000,-2.1409757
4997000000,-2.158432
4998000000,-2.1942832
4999000000,-2.1840923
5000000000,-2.2007957
END

