!CSV A.01.01
!Agilent Technologies,E8362C,MY49020225,A.09.42.22
!Agilent E8362C: A.09.42.22
!Date: Tuesday, March 08, 2016 15:12:05
!Source: Standard

BEGIN CH1_DATA
Freq(Hz),S22 Log Mag(dB),S22 Phase(°)
1000000000,-4.7709212,165.33699
1001000000,-4.7923937,165.45609
1002000000,-4.8094316,165.47244
1003000000,-4.7837152,165.47125
1004000000,-4.7994709,165.22273
1005000000,-4.790782,165.47707
1006000000,-4.7812772,165.2135
1007000000,-4.8051977,165.16368
1008000000,-4.768518,165.12802
1009000000,-4.8063264,165.1422
1010000000,-4.777885,165.13838
1011000000,-4.8007431,165.16425
1012000000,-4.780057,165.12494
1013000000,-4.7509232,165.24586
1014000000,-4.7863097,164.87096
1015000000,-4.7479253,164.86725
1016000000,-4.7619405,164.93011
1017000000,-4.7528925,164.46107
1018000000,-4.7718086,164.99411
1019000000,-4.7706552,165.03571
1020000000,-4.8200903,164.7224
1021000000,-4.7520123,164.82524
1022000000,-4.7614775,164.82278
1023000000,-4.7229271,164.46118
1024000000,-4.7688437,164.56142
1025000000,-4.7931275,164.61258
1026000000,-4.7351613,164.63144
1027000000,-4.780272,164.56374
1028000000,-4.7843332,164.63974
1029000000,-4.7440286,164.35172
1030000000,-4.7701921,164.6113
1031000000,-4.7668958,164.49149
1032000000,-4.7467623,164.40552
1033000000,-4.7626553,164.41733
1034000000,-4.7767644,164.38066
1035000000,-4.7573247,164.39124
1036000000,-4.7891669,164.12294
1037000000,-4.7726765,164.22838
1038000000,-4.7579708,164.32971
1039000000,-4.74546,163.97319
1040000000,-4.7704701,163.82758
1041000000,-4.7627835,164.01437
1042000000,-4.7488794,163.9921
1043000000,-4.7234354,163.9648
1044000000,-4.7360315,164.34958
1045000000,-4.7775998,163.9431
1046000000,-4.7673192,163.8951
1047000000,-4.7301288,163.77879
1048000000,-4.7501864,163.99782
1049000000,-4.7457938,163.83952
1050000000,-4.7526822,163.60945
1051000000,-4.7268939,163.68134
1052000000,-4.7700796,163.85359
1053000000,-4.7330008,163.67419
1054000000,-4.7523274,163.65196
1055000000,-4.7427692,163.42183
1056000000,-4.7315807,163.53889
1057000000,-4.7137032,163.43887
1058000000,-4.7496195,163.59161
1059000000,-4.7317762,163.46292
1060000000,-4.7489958,163.26814
1061000000,-4.7488561,163.31766
1062000000,-4.7258735,163.26837
1063000000,-4.7051821,163.24203
1064000000,-4.740447,163.40802
1065000000,-4.7072387,163.1008
1066000000,-4.7437015,163.06281
1067000000,-4.7311106,162.92873
1068000000,-4.7096219,163.05928
1069000000,-4.7382483,162.97697
1070000000,-4.7321424,163.12888
1071000000,-4.7073865,162.91685
1072000000,-4.699729,163.02675
1073000000,-4.6785054,162.84496
1074000000,-4.7224317,162.88571
1075000000,-4.7137327,162.59682
1076000000,-4.7166619,162.74719
1077000000,-4.7418137,162.74417
1078000000,-4.7048616,162.76575
1079000000,-4.696034,162.81741
1080000000,-4.702527,162.74551
1081000000,-4.7010627,162.61905
1082000000,-4.6988516,162.63576
1083000000,-4.6874781,162.53773
1084000000,-4.6960979,162.52654
1085000000,-4.6916699,162.63983
1086000000,-4.697659,162.55702
1087000000,-4.6710391,162.36134
1088000000,-4.6883841,162.26672
1089000000,-4.6839461,162.32596
1090000000,-4.6535354,162.2059
1091000000,-4.6745734,162.20142
1092000000,-4.6872888,162.31456
1093000000,-4.6745715,162.12224
1094000000,-4.6767502,162.12633
1095000000,-4.655395,161.94151
1096000000,-4.6781259,162.06149
1097000000,-4.6847916,161.89658
1098000000,-4.6879787,161.7106
1099000000,-4.6669888,161.8703
1100000000,-4.6757355,162.09915
1101000000,-4.6514688,161.82767
1102000000,-4.7030034,162.00227
1103000000,-4.6513643,161.91699
1104000000,-4.6832981,161.73584
1105000000,-4.6866441,161.802
1106000000,-4.6982489,161.63596
1107000000,-4.6611686,161.59093
1108000000,-4.6626897,161.48965
1109000000,-4.6794043,161.67842
1110000000,-4.6662822,161.47264
1111000000,-4.6346779,161.54559
1112000000,-4.6914897,161.12503
1113000000,-4.6800179,161.44742
1114000000,-4.6860609,161.32315
1115000000,-4.7105517,161.4039
1116000000,-4.7095165,161.05727
1117000000,-4.6629734,161.24287
1118000000,-4.6825533,161.23743
1119000000,-4.6806092,161.18175
1120000000,-4.6866808,161.04314
1121000000,-4.6938639,160.95
1122000000,-4.6739626,160.89465
1123000000,-4.6522145,161.18565
1124000000,-4.6555123,160.92772
1125000000,-4.6708627,161.02795
1126000000,-4.6546144,161.03116
1127000000,-4.6419754,161.06183
1128000000,-4.6830301,160.8186
1129000000,-4.7202754,160.94965
1130000000,-4.6908789,161.09106
1131000000,-4.6818943,160.61191
1132000000,-4.6743317,160.69226
1133000000,-4.68607,160.71565
1134000000,-4.6704173,160.4977
1135000000,-4.6933169,160.70898
1136000000,-4.6702623,160.47878
1137000000,-4.6732535,160.2426
1138000000,-4.675528,160.53725
1139000000,-4.6490774,160.25586
1140000000,-4.6726084,160.35719
1141000000,-4.6779227,160.34314
1142000000,-4.687911,160.31598
1143000000,-4.6704893,160.18001
1144000000,-4.6417661,160.10745
1145000000,-4.6823711,160.07072
1146000000,-4.6733775,160.04436
1147000000,-4.6706762,160.08371
1148000000,-4.6603699,159.85825
1149000000,-4.644177,159.87292
1150000000,-4.6711378,159.84401
1151000000,-4.650455,159.8205
1152000000,-4.6781187,159.83626
1153000000,-4.6712098,159.79253
1154000000,-4.660109,159.66138
1155000000,-4.6872334,159.53935
1156000000,-4.6751881,159.68436
1157000000,-4.6535082,159.53641
1158000000,-4.650301,159.47612
1159000000,-4.6773486,159.41536
1160000000,-4.6598406,159.39316
1161000000,-4.6475744,159.35564
1162000000,-4.6572995,159.21803
1163000000,-4.6549473,159.26691
1164000000,-4.6478934,159.30099
1165000000,-4.6516161,159.38515
1166000000,-4.6504025,159.13245
1167000000,-4.6507301,159.11015
1168000000,-4.6244245,159.11337
1169000000,-4.643054,159.21669
1170000000,-4.6465821,159.0191
1171000000,-4.6496429,158.74785
1172000000,-4.6071644,158.94199
1173000000,-4.6399469,158.91058
1174000000,-4.6425934,158.96249
1175000000,-4.6111732,158.68501
1176000000,-4.6448927,158.9072
1177000000,-4.6553025,158.82372
1178000000,-4.6038923,158.6734
1179000000,-4.6560597,158.55225
1180000000,-4.5990262,158.74258
1181000000,-4.598084,158.61383
1182000000,-4.6220818,158.52977
1183000000,-4.6127634,158.24301
1184000000,-4.630724,158.71774
1185000000,-4.6275373,158.54976
1186000000,-4.6318803,158.3685
1187000000,-4.6403871,158.2693
1188000000,-4.6166301,158.41144
1189000000,-4.6397157,158.33949
1190000000,-4.589313,158.15285
1191000000,-4.6269374,158.12077
1192000000,-4.6245742,158.30132
1193000000,-4.6406093,158.08217
1194000000,-4.650825,158.05579
1195000000,-4.6057153,158.15941
1196000000,-4.6321392,157.86356
1197000000,-4.6391482,157.76656
1198000000,-4.6286516,157.83824
1199000000,-4.6128368,157.88554
1200000000,-4.6222444,157.75002
1201000000,-4.5876136,157.85699
1202000000,-4.6253414,157.54216
1203000000,-4.6299968,157.55597
1204000000,-4.6405973,157.62517
1205000000,-4.6406994,157.32304
1206000000,-4.6113806,157.51025
1207000000,-4.5964632,157.59625
1208000000,-4.624496,157.48087
1209000000,-4.6636691,157.51239
1210000000,-4.6519284,157.33571
1211000000,-4.6336875,157.2401
1212000000,-4.5970192,157.32468
1213000000,-4.6029658,157.10518
1214000000,-4.6377721,157.15674
1215000000,-4.6294594,157.23468
1216000000,-4.6023011,157.22417
1217000000,-4.6513095,156.93268
1218000000,-4.6367774,156.99188
1219000000,-4.6392479,157.00909
1220000000,-4.6060348,156.93599
1221000000,-4.612637,156.93849
1222000000,-4.6075048,156.85081
1223000000,-4.6322279,156.85623
1224000000,-4.6115851,156.83107
1225000000,-4.6474175,156.77324
1226000000,-4.6245184,156.72404
1227000000,-4.6211638,156.34868
1228000000,-4.6276369,156.57687
1229000000,-4.6255107,156.61807
1230000000,-4.6341586,156.20767
1231000000,-4.6040053,156.54915
1232000000,-4.6063914,156.3784
1233000000,-4.6128492,156.40689
1234000000,-4.6025376,156.26187
1235000000,-4.593955,156.29105
1236000000,-4.6459699,156.31987
1237000000,-4.6201415,156.21063
1238000000,-4.6301799,156.14813
1239000000,-4.629169,156.09081
1240000000,-4.6217418,155.93401
1241000000,-4.6286592,155.89642
1242000000,-4.620831,155.91602
1243000000,-4.6327429,155.81717
1244000000,-4.6295891,155.9556
1245000000,-4.6148324,155.83331
1246000000,-4.575213,155.79927
1247000000,-4.6347833,155.67404
1248000000,-4.6058378,155.50893
1249000000,-4.5902576,155.53758
1250000000,-4.6240315,155.60933
1251000000,-4.6032491,155.43456
1252000000,-4.596252,155.49547
1253000000,-4.6061683,155.55251
1254000000,-4.637012,155.2794
1255000000,-4.5845189,155.31029
1256000000,-4.6007438,155.21356
1257000000,-4.6016378,155.3782
1258000000,-4.5815701,155.04674
1259000000,-4.5455713,155.07115
1260000000,-4.5708036,155.35439
1261000000,-4.5749021,155.15137
1262000000,-4.5796146,154.98758
1263000000,-4.6155186,155.09576
1264000000,-4.5815668,154.91055
1265000000,-4.6197791,155.00497
1266000000,-4.567513,155.20439
1267000000,-4.584167,154.77802
1268000000,-4.5660129,154.69768
1269000000,-4.5997591,154.64848
1270000000,-4.6064057,154.64008
1271000000,-4.5998778,154.70445
1272000000,-4.5911217,154.73911
1273000000,-4.5840702,154.50803
1274000000,-4.5702219,154.63269
1275000000,-4.5983,154.37991
1276000000,-4.6029892,154.29077
1277000000,-4.5934658,154.45271
1278000000,-4.5980005,154.38846
1279000000,-4.5827651,154.2226
1280000000,-4.6011767,154.32164
1281000000,-4.5917516,154.11946
1282000000,-4.5963683,153.98883
1283000000,-4.6039782,154.19032
1284000000,-4.5848074,154.03984
1285000000,-4.6046877,154.02202
1286000000,-4.6165228,154.03307
1287000000,-4.5914907,153.8631
1288000000,-4.6069026,154.01016
1289000000,-4.6004,153.92917
1290000000,-4.6083236,153.89285
1291000000,-4.6117105,153.8701
1292000000,-4.6174216,153.7365
1293000000,-4.6045189,153.992
1294000000,-4.6009989,153.65129
1295000000,-4.6400981,153.59512
1296000000,-4.6049414,153.47859
1297000000,-4.6013908,153.52602
1298000000,-4.6151619,153.55908
1299000000,-4.6063256,153.16615
1300000000,-4.6512771,153.21729
1301000000,-4.5802584,153.41943
1302000000,-4.5997849,153.31749
1303000000,-4.6044102,153.22501
1304000000,-4.6008463,153.14276
1305000000,-4.621984,153.14183
1306000000,-4.6095328,153.11642
1307000000,-4.6332426,153.17667
1308000000,-4.6069546,153.01405
1309000000,-4.6228471,152.8063
1310000000,-4.6385031,152.86148
1311000000,-4.6205173,152.93263
1312000000,-4.6074104,152.85162
1313000000,-4.6410532,152.73015
1314000000,-4.6277447,152.74182
1315000000,-4.6484385,152.64493
1316000000,-4.6150994,152.48595
1317000000,-4.6332626,152.56071
1318000000,-4.6318283,152.50464
1319000000,-4.5951681,152.35446
1320000000,-4.6306443,152.31836
1321000000,-4.6307926,152.32899
1322000000,-4.5984864,152.47099
1323000000,-4.6211534,152.31491
1324000000,-4.6360998,152.23528
1325000000,-4.6483917,152.20119
1326000000,-4.6387224,151.92384
1327000000,-4.6500149,152.13741
1328000000,-4.6410685,151.99294
1329000000,-4.6655421,151.97575
1330000000,-4.6366153,151.80251
1331000000,-4.6283569,151.62863
1332000000,-4.6315184,151.75606
1333000000,-4.6283932,151.78798
1334000000,-4.6496663,151.47794
1335000000,-4.6541419,151.64746
1336000000,-4.6563272,151.61665
1337000000,-4.6516743,151.58038
1338000000,-4.6008544,151.25957
1339000000,-4.6337833,151.34691
1340000000,-4.6156001,151.4024
1341000000,-4.6213255,151.41821
1342000000,-4.6152864,151.17323
1343000000,-4.6159391,151.17957
1344000000,-4.6335058,151.17583
1345000000,-4.6553564,151.23224
1346000000,-4.6509542,150.92517
1347000000,-4.6193128,151.15521
1348000000,-4.6312566,150.91498
1349000000,-4.6370401,150.93282
1350000000,-4.6313119,150.85709
1351000000,-4.6266518,150.9525
1352000000,-4.6681709,150.78778
1353000000,-4.6226926,150.72762
1354000000,-4.6425171,150.81129
1355000000,-4.6539712,150.63611
1356000000,-4.6589642,150.63007
1357000000,-4.6323438,150.47734
1358000000,-4.6424088,150.65248
1359000000,-4.6508512,150.37787
1360000000,-4.6517506,150.30856
1361000000,-4.6447606,150.22607
1362000000,-4.6648669,150.08128
1363000000,-4.6572814,150.25586
1364000000,-4.6746678,150.16911
1365000000,-4.6728969,150.15466
1366000000,-4.6522269,150.14803
1367000000,-4.662065,150.01552
1368000000,-4.6578422,149.96121
1369000000,-4.6305304,150.07535
1370000000,-4.6663542,149.85504
1371000000,-4.6654692,149.976
1372000000,-4.6550546,149.68855
1373000000,-4.6942639,149.67224
1374000000,-4.657042,149.48361
1375000000,-4.6637897,149.81065
1376000000,-4.6779189,149.63162
1377000000,-4.635076,149.66258
1378000000,-4.6726961,149.38219
1379000000,-4.6714458,149.36107
1380000000,-4.6750278,149.40974
1381000000,-4.6796441,149.46515
1382000000,-4.6894827,149.27396
1383000000,-4.6677661,149.25711
1384000000,-4.6663527,149.38194
1385000000,-4.6642718,149.22888
1386000000,-4.6735458,149.10033
1387000000,-4.678822,149.15082
1388000000,-4.6895142,149.01041
1389000000,-4.7051392,148.91515
1390000000,-4.6609588,148.90485
1391000000,-4.6740365,148.942
1392000000,-4.6966901,148.86719
1393000000,-4.6808248,148.68161
1394000000,-4.7218966,148.46877
1395000000,-4.6842699,148.87785
1396000000,-4.712708,148.48482
1397000000,-4.7028046,148.54037
1398000000,-4.6615109,148.49826
1399000000,-4.6891136,148.36183
1400000000,-4.6727848,148.24249
1401000000,-4.6676955,148.10164
1402000000,-4.7172842,148.23651
1403000000,-4.6986938,148.24889
1404000000,-4.6916304,148.17126
1405000000,-4.7297649,147.94144
1406000000,-4.6996827,147.83127
1407000000,-4.717495,147.86301
1408000000,-4.7509656,147.89769
1409000000,-4.7221031,147.79924
1410000000,-4.7228913,147.67885
1411000000,-4.715528,147.62776
1412000000,-4.711628,147.6702
1413000000,-4.6929226,147.67593
1414000000,-4.7029781,147.46057
1415000000,-4.6947918,147.26099
1416000000,-4.7135944,147.57811
1417000000,-4.704392,147.32121
1418000000,-4.7440987,147.24115
1419000000,-4.6985512,147.08626
1420000000,-4.7324677,147.4449
1421000000,-4.7269626,147.20979
1422000000,-4.7010117,147.19165
1423000000,-4.6954546,147.16428
1424000000,-4.7156124,146.95653
1425000000,-4.7112622,146.82574
1426000000,-4.7262034,146.85109
1427000000,-4.723702,146.98145
1428000000,-4.6982946,146.81696
1429000000,-4.6928029,146.7066
1430000000,-4.7236028,146.72168
1431000000,-4.7244759,146.59821
1432000000,-4.712594,146.54254
1433000000,-4.71911,146.4232
1434000000,-4.7228646,146.61374
1435000000,-4.7380514,146.48613
1436000000,-4.7025108,146.4684
1437000000,-4.7433209,146.09445
1438000000,-4.7503977,146.2011
1439000000,-4.7645202,146.19305
1440000000,-4.7361135,146.05112
1441000000,-4.7571969,146.10161
1442000000,-4.769691,146.0506
1443000000,-4.7513189,145.83543
1444000000,-4.7287879,145.89572
1445000000,-4.7590718,145.98407
1446000000,-4.7476797,145.98131
1447000000,-4.7334566,145.87639
1448000000,-4.7375593,145.7394
1449000000,-4.7484646,145.59671
1450000000,-4.7418756,145.55029
1451000000,-4.7604456,145.55634
1452000000,-4.7592916,145.49219
1453000000,-4.7868943,145.47206
1454000000,-4.7741208,145.25441
1455000000,-4.7722549,145.31857
1456000000,-4.8025117,145.32465
1457000000,-4.7629666,145.24355
1458000000,-4.7904577,145.01477
1459000000,-4.7806821,145.16733
1460000000,-4.7720413,145.011
1461000000,-4.7831898,145.10909
1462000000,-4.786983,144.93216
1463000000,-4.7815094,144.82957
1464000000,-4.7924461,144.86885
1465000000,-4.7877793,144.83725
1466000000,-4.7784395,144.64705
1467000000,-4.7592716,144.72829
1468000000,-4.8026204,144.5847
1469000000,-4.7866402,144.36852
1470000000,-4.8049903,144.51512
1471000000,-4.7784715,144.35251
1472000000,-4.785675,144.37608
1473000000,-4.7899704,144.44391
1474000000,-4.8190851,144.31485
1475000000,-4.7768736,144.23119
1476000000,-4.7840714,144.01479
1477000000,-4.811872,144.17657
1478000000,-4.8358507,143.9861
1479000000,-4.8228168,143.93309
1480000000,-4.8225589,143.88104
1481000000,-4.8234978,144.01482
1482000000,-4.8232942,143.59966
1483000000,-4.8356099,143.59612
1484000000,-4.8229642,143.69095
1485000000,-4.8502479,143.67361
1486000000,-4.8119454,143.55095
1487000000,-4.8435817,143.64986
1488000000,-4.8354502,143.33411
1489000000,-4.8375106,143.4249
1490000000,-4.8522887,143.46381
1491000000,-4.8297791,143.29442
1492000000,-4.8419418,143.13481
1493000000,-4.8436341,143.29308
1494000000,-4.8554225,143.1785
1495000000,-4.8607693,143.14474
1496000000,-4.8728843,142.87604
1497000000,-4.8140421,142.82523
1498000000,-4.8334293,142.9207
1499000000,-4.8422213,142.59789
1500000000,-4.8669381,142.74178
1501000000,-4.8614173,142.58847
1502000000,-4.8953629,142.56673
1503000000,-4.85496,142.56288
1504000000,-4.8585029,142.8105
1505000000,-4.8598466,142.33942
1506000000,-4.8724837,142.4577
1507000000,-4.8740602,142.32304
1508000000,-4.8793812,142.03329
1509000000,-4.8835855,142.20093
1510000000,-4.8687105,142.04745
1511000000,-4.8824368,141.98477
1512000000,-4.8826733,141.91429
1513000000,-4.8934069,141.90411
1514000000,-4.8821788,141.86682
1515000000,-4.8837433,141.67096
1516000000,-4.8887801,141.75871
1517000000,-4.8906817,141.726
1518000000,-4.8761272,141.56599
1519000000,-4.8653846,141.59747
1520000000,-4.915679,141.54208
1521000000,-4.9086523,141.25536
1522000000,-4.8799176,141.51149
1523000000,-4.879334,141.23772
1524000000,-4.9094005,141.21414
1525000000,-4.9020085,141.26155
1526000000,-4.8969636,141.2303
1527000000,-4.9067373,140.94139
1528000000,-4.8953938,141.06592
1529000000,-4.9050221,140.9379
1530000000,-4.9253197,140.80678
1531000000,-4.923945,140.69905
1532000000,-4.9318728,140.91406
1533000000,-4.9140501,140.64737
1534000000,-4.9300528,140.85725
1535000000,-4.9309936,140.56895
1536000000,-4.9159627,140.71954
1537000000,-4.9278646,140.64731
1538000000,-4.9354873,140.29495
1539000000,-4.9273357,140.34656
1540000000,-4.9329362,140.21019
1541000000,-4.941875,139.99207
1542000000,-4.9516191,140.3746
1543000000,-4.9609952,140.12666
1544000000,-4.9384828,140.03862
1545000000,-4.999218,140.19618
1546000000,-4.9571261,139.77293
1547000000,-4.954226,139.98013
1548000000,-4.982964,139.87993
1549000000,-4.9714904,139.74911
1550000000,-4.9989572,139.59805
1551000000,-4.9806538,139.51341
1552000000,-4.9733491,139.54121
1553000000,-4.9777107,139.57903
1554000000,-4.9649944,139.49525
1555000000,-4.960916,139.45721
1556000000,-4.9819942,139.53239
1557000000,-4.95823,139.20045
1558000000,-4.9886947,139.05217
1559000000,-5.0045347,139.10838
1560000000,-5.0193872,138.94801
1561000000,-5.0000358,139.026
1562000000,-5.0063057,138.82462
1563000000,-5.0126843,139.02734
1564000000,-4.9994311,138.91553
1565000000,-5.0293956,138.63599
1566000000,-5.0393958,138.702
1567000000,-5.008266,138.76701
1568000000,-5.0351667,138.56059
1569000000,-5.0366693,138.62437
1570000000,-5.0305734,138.36714
1571000000,-5.0524216,138.45923
1572000000,-5.0360656,138.4395
1573000000,-5.0497637,138.17271
1574000000,-5.0633259,138.10921
1575000000,-5.0497413,138.16823
1576000000,-5.0746636,138.05153
1577000000,-5.0444498,137.8625
1578000000,-5.0470438,138.00865
1579000000,-5.0536518,137.93974
1580000000,-5.0843439,137.75969
1581000000,-5.0696507,137.75992
1582000000,-5.0770383,137.62114
1583000000,-5.0809197,137.4906
1584000000,-5.0851674,137.54056
1585000000,-5.1073194,137.61302
1586000000,-5.0891409,137.34792
1587000000,-5.0994339,137.31625
1588000000,-5.0998898,137.18898
1589000000,-5.1132083,137.29698
1590000000,-5.0813088,136.97749
1591000000,-5.1184692,137.10402
1592000000,-5.106956,136.91197
1593000000,-5.1226749,136.8705
1594000000,-5.1020751,136.80559
1595000000,-5.1468415,137.02493
1596000000,-5.1297135,136.51938
1597000000,-5.1513519,136.66768
1598000000,-5.1192698,136.67174
1599000000,-5.1337991,136.59644
1600000000,-5.1412783,136.4382
1601000000,-5.1318264,136.42879
1602000000,-5.1047478,136.29971
1603000000,-5.1580453,136.18216
1604000000,-5.1368375,136.32649
1605000000,-5.1369653,136.03062
1606000000,-5.1342363,136.295
1607000000,-5.1811242,136.00175
1608000000,-5.1731262,135.98169
1609000000,-5.1933846,135.85817
1610000000,-5.1726217,135.82158
1611000000,-5.1822901,135.75224
1612000000,-5.1919026,135.79262
1613000000,-5.1804895,135.57759
1614000000,-5.2049727,135.41275
1615000000,-5.1744022,135.61804
1616000000,-5.186605,135.53847
1617000000,-5.1856155,135.44896
1618000000,-5.2000909,135.33049
1619000000,-5.1711421,135.17102
1620000000,-5.1865664,135.14302
1621000000,-5.2409086,135.06996
1622000000,-5.2186384,135.0295
1623000000,-5.2106304,134.73236
1624000000,-5.2254677,134.88043
1625000000,-5.2178116,134.75577
1626000000,-5.2238784,134.95912
1627000000,-5.2246056,134.85217
1628000000,-5.2376542,134.77864
1629000000,-5.2542672,134.58708
1630000000,-5.2347627,134.40501
1631000000,-5.2359815,134.30885
1632000000,-5.23844,134.48204
1633000000,-5.2411017,134.19196
1634000000,-5.2656822,134.29424
1635000000,-5.2488418,134.00914
1636000000,-5.2449994,133.95749
1637000000,-5.2687049,134.12695
1638000000,-5.2536135,134.11368
1639000000,-5.2345657,133.92429
1640000000,-5.2943611,133.77257
1641000000,-5.2785139,133.79643
1642000000,-5.2558417,133.57028
1643000000,-5.2772317,133.68169
1644000000,-5.2896876,133.51718
1645000000,-5.272017,133.69594
1646000000,-5.3104725,133.5209
1647000000,-5.2745309,133.46985
1648000000,-5.3032598,133.25031
1649000000,-5.3078485,133.22491
1650000000,-5.2853961,133.32497
1651000000,-5.3042545,133.18468
1652000000,-5.315558,133.18224
1653000000,-5.2987676,132.90541
1654000000,-5.337235,132.89879
1655000000,-5.3118057,133.00368
1656000000,-5.3302817,132.85245
1657000000,-5.344214,132.90448
1658000000,-5.3478003,132.68642
1659000000,-5.359901,132.73329
1660000000,-5.3670359,132.69237
1661000000,-5.3406944,132.47131
1662000000,-5.3697877,132.51648
1663000000,-5.392899,132.2935
1664000000,-5.3996787,132.49017
1665000000,-5.3634148,132.06856
1666000000,-5.3908482,132.14211
1667000000,-5.3693051,132.12666
1668000000,-5.4050627,131.91504
1669000000,-5.3667278,131.96213
1670000000,-5.4066725,131.67819
1671000000,-5.3761463,131.76747
1672000000,-5.4254479,131.76672
1673000000,-5.4074831,131.57721
1674000000,-5.3937731,131.60025
1675000000,-5.403091,131.50748
1676000000,-5.4169173,131.4722
1677000000,-5.4531827,131.55215
1678000000,-5.4575138,131.33542
1679000000,-5.4662328,131.32535
1680000000,-5.4506755,131.23083
1681000000,-5.4839778,131.23004
1682000000,-5.4682178,131.01598
1683000000,-5.4693174,130.97932
1684000000,-5.4700122,131.01726
1685000000,-5.5056052,130.93668
1686000000,-5.4858251,130.84277
1687000000,-5.4657254,130.89961
1688000000,-5.4656758,130.75812
1689000000,-5.5064058,130.59685
1690000000,-5.5150466,130.59206
1691000000,-5.5308199,130.63869
1692000000,-5.515101,130.50247
1693000000,-5.5069981,130.29871
1694000000,-5.5184603,130.12367
1695000000,-5.5206008,130.06424
1696000000,-5.5270448,130.08315
1697000000,-5.5074825,130.03909
1698000000,-5.5594168,129.94308
1699000000,-5.5265589,129.86617
1700000000,-5.5581098,129.80223
1701000000,-5.5246177,129.7373
1702000000,-5.607656,129.69814
1703000000,-5.5783262,129.46895
1704000000,-5.5700436,129.94923
1705000000,-5.5776744,129.31776
1706000000,-5.5485463,129.49281
1707000000,-5.5837917,129.36697
1708000000,-5.610425,129.24248
1709000000,-5.6275177,129.02542
1710000000,-5.6106067,129.04077
1711000000,-5.6075754,129.078
1712000000,-5.620122,129.10411
1713000000,-5.6434197,128.88008
1714000000,-5.6205893,128.78207
1715000000,-5.6425261,128.85603
1716000000,-5.6381259,128.6138
1717000000,-5.6334486,128.66182
1718000000,-5.6431251,128.34886
1719000000,-5.666882,128.50128
1720000000,-5.6520677,128.53999
1721000000,-5.6461272,128.44978
1722000000,-5.6643071,128.43628
1723000000,-5.6517801,128.33864
1724000000,-5.6762214,128.08676
1725000000,-5.7046633,128.13918
1726000000,-5.6643476,127.81969
1727000000,-5.7050018,128.13696
1728000000,-5.6817918,127.81178
1729000000,-5.7024126,127.79187
1730000000,-5.7212586,127.55757
1731000000,-5.6895471,127.5769
1732000000,-5.7337508,127.52454
1733000000,-5.7194386,127.50155
1734000000,-5.7346797,127.24432
1735000000,-5.7332239,127.29565
1736000000,-5.7240601,127.38081
1737000000,-5.7435889,127.21077
1738000000,-5.7423568,127.20647
1739000000,-5.7560773,127.20638
1740000000,-5.7457433,126.98724
1741000000,-5.7337065,126.65679
1742000000,-5.7959967,126.78338
1743000000,-5.7754478,126.63115
1744000000,-5.7807531,126.68548
1745000000,-5.8200984,126.50314
1746000000,-5.8174891,126.45791
1747000000,-5.7985158,126.29378
1748000000,-5.8198037,126.27097
1749000000,-5.7930675,126.6785
1750000000,-5.8122764,126.1506
1751000000,-5.8621178,126.13187
1752000000,-5.8480287,126.04344
1753000000,-5.8182397,125.94614
1754000000,-5.8637948,125.72059
1755000000,-5.8482695,125.7151
1756000000,-5.8827453,125.66132
1757000000,-5.8703108,125.57504
1758000000,-5.8706703,125.67873
1759000000,-5.893569,125.7166
1760000000,-5.8756881,125.64984
1761000000,-5.8863778,125.48253
1762000000,-5.879159,125.40842
1763000000,-5.9206138,125.25746
1764000000,-5.9238882,125.291
1765000000,-5.8770013,125.06178
1766000000,-5.9215832,125.04752
1767000000,-5.935607,124.99522
1768000000,-5.9315095,124.83896
1769000000,-5.9187431,124.78072
1770000000,-5.9360466,124.70333
1771000000,-5.9629478,124.60362
1772000000,-5.925827,124.60331
1773000000,-5.9371161,124.46486
1774000000,-5.9851875,124.64738
1775000000,-5.9832473,124.52187
1776000000,-5.9720569,124.21914
1777000000,-6.0094867,124.20596
1778000000,-5.9791393,124.06446
1779000000,-6.0122013,123.88174
1780000000,-5.9952016,123.93942
1781000000,-6.0091224,123.85757
1782000000,-6.0265145,123.88697
1783000000,-6.0033946,123.90492
1784000000,-6.0620337,123.93533
1785000000,-6.0665383,123.85215
1786000000,-6.0795884,123.45518
1787000000,-6.0729346,123.34684
1788000000,-6.0646996,123.52531
1789000000,-6.0598426,123.22179
1790000000,-6.0658402,123.31733
1791000000,-6.0980864,123.27052
1792000000,-6.0962663,123.01157
1793000000,-6.0871544,122.88304
1794000000,-6.0834737,123.11324
1795000000,-6.1336145,122.8579
1796000000,-6.1488385,122.99368
1797000000,-6.1139379,122.69109
1798000000,-6.1197553,122.57869
1799000000,-6.1352553,122.42355
1800000000,-6.1641221,122.58556
1801000000,-6.1867533,122.1765
1802000000,-6.1496296,122.40737
1803000000,-6.1847582,122.16128
1804000000,-6.1777711,122.13653
1805000000,-6.1870236,121.97202
1806000000,-6.1848655,121.88988
1807000000,-6.1924691,122.02723
1808000000,-6.2121229,121.85442
1809000000,-6.2164884,121.8028
1810000000,-6.1718559,121.82264
1811000000,-6.2394447,121.80122
1812000000,-6.2178297,121.79595
1813000000,-6.2436194,121.50218
1814000000,-6.2715535,121.42119
1815000000,-6.2844515,121.36305
1816000000,-6.3006687,121.24689
1817000000,-6.2635522,121.31529
1818000000,-6.2611766,121.15099
1819000000,-6.3134723,121.10645
1820000000,-6.2850165,120.96559
1821000000,-6.3228364,121.02367
1822000000,-6.3060503,120.9015
1823000000,-6.3271775,120.80162
1824000000,-6.3511801,120.70837
1825000000,-6.3149734,120.66047
1826000000,-6.3480492,120.74921
1827000000,-6.3496571,120.77561
1828000000,-6.3481903,120.40952
1829000000,-6.3806753,120.29764
1830000000,-6.360755,120.16726
1831000000,-6.3844519,120.20077
1832000000,-6.4287424,120.03529
1833000000,-6.4151621,119.93343
1834000000,-6.4054842,120.0729
1835000000,-6.3739066,119.94497
1836000000,-6.3879828,119.70966
1837000000,-6.4732537,119.73475
1838000000,-6.435946,119.57281
1839000000,-6.4772139,119.82302
1840000000,-6.4364057,119.46487
1841000000,-6.4757113,119.39803
1842000000,-6.4919181,119.23898
1843000000,-6.4826484,119.45803
1844000000,-6.5463133,119.21461
1845000000,-6.5290833,118.96546
1846000000,-6.5120459,119.03396
1847000000,-6.5162802,118.96043
1848000000,-6.5579147,118.8791
1849000000,-6.5284705,118.81268
1850000000,-6.5550275,118.68881
1851000000,-6.5600781,118.79058
1852000000,-6.5883989,118.54305
1853000000,-6.6172538,118.47102
1854000000,-6.5934353,118.5727
1855000000,-6.6214228,118.38014
1856000000,-6.5994358,118.39409
1857000000,-6.6024036,118.33139
1858000000,-6.6090684,118.23203
1859000000,-6.6266298,118.18893
1860000000,-6.6735063,118.12366
1861000000,-6.6692047,117.86334
1862000000,-6.6427341,117.87806
1863000000,-6.6506901,117.87688
1864000000,-6.6799846,117.55752
1865000000,-6.6936655,117.68011
1866000000,-6.6903648,117.52245
1867000000,-6.7349844,117.46375
1868000000,-6.7004623,117.36983
1869000000,-6.7238588,117.60015
1870000000,-6.7305579,117.2286
1871000000,-6.7241139,117.19879
1872000000,-6.7252774,116.96382
1873000000,-6.7601662,117.03294
1874000000,-6.766808,117.14204
1875000000,-6.7756453,117.0293
1876000000,-6.7603226,116.89259
1877000000,-6.7925868,116.72867
1878000000,-6.7886143,116.54839
1879000000,-6.8094044,116.56363
1880000000,-6.8172188,116.41704
1881000000,-6.8638239,116.5937
1882000000,-6.8441153,116.42134
1883000000,-6.8546557,116.36176
1884000000,-6.8838005,116.41614
1885000000,-6.8820133,116.14098
1886000000,-6.8924642,116.10502
1887000000,-6.904923,116.13502
1888000000,-6.9028587,115.94342
1889000000,-6.8954072,115.80651
1890000000,-6.9359093,115.95317
1891000000,-6.9322844,115.70714
1892000000,-6.9410915,115.57149
1893000000,-6.9578257,115.6112
1894000000,-6.9762154,115.40741
1895000000,-6.9975567,115.16608
1896000000,-6.9675994,115.32304
1897000000,-6.9852104,115.22182
1898000000,-7.0040607,115.19791
1899000000,-7.0446057,114.89094
1900000000,-7.0366101,114.90099
1901000000,-7.0474329,115.08611
1902000000,-7.0736232,114.91616
1903000000,-7.0690913,114.66198
1904000000,-7.0396481,114.90158
1905000000,-7.1282372,114.64017
1906000000,-7.1139164,114.55801
1907000000,-7.0948954,114.44723
1908000000,-7.1348276,114.38178
1909000000,-7.1159806,114.4449
1910000000,-7.1200595,114.28771
1911000000,-7.1656499,114.27707
1912000000,-7.1604505,114.31886
1913000000,-7.1440611,113.95897
1914000000,-7.1904125,113.78534
1915000000,-7.18819,113.82993
1916000000,-7.2258148,113.66785
1917000000,-7.2632608,113.66713
1918000000,-7.2673454,113.638
1919000000,-7.2286758,113.51263
1920000000,-7.2732649,113.46799
1921000000,-7.2690668,113.3093
1922000000,-7.2992401,113.38367
1923000000,-7.3044968,113.2944
1924000000,-7.2966466,113.12539
1925000000,-7.3157706,113.20748
1926000000,-7.3427892,112.94398
1927000000,-7.369957,112.98397
1928000000,-7.3401656,113.00331
1929000000,-7.3739734,112.92548
1930000000,-7.378757,112.83643
1931000000,-7.405746,112.67347
1932000000,-7.4030929,112.55789
1933000000,-7.4152441,112.47583
1934000000,-7.4214954,112.51539
1935000000,-7.4364829,112.66708
1936000000,-7.4269652,112.29301
1937000000,-7.4404211,112.20494
1938000000,-7.448349,112.05405
1939000000,-7.4697471,111.95319
1940000000,-7.5079293,112.04988
1941000000,-7.5117655,112.01225
1942000000,-7.5250306,111.66719
1943000000,-7.5199499,111.68413
1944000000,-7.5412774,111.57862
1945000000,-7.5575299,111.46057
1946000000,-7.5822515,111.46539
1947000000,-7.587574,111.37933
1948000000,-7.5797567,111.39648
1949000000,-7.6001825,111.4015
1950000000,-7.592823,111.06261
1951000000,-7.6100445,111.12909
1952000000,-7.6140618,110.92082
1953000000,-7.6335511,110.86469
1954000000,-7.6537681,110.66256
1955000000,-7.6280293,110.89933
1956000000,-7.6689391,110.76472
1957000000,-7.6930923,110.37946
1958000000,-7.7003241,110.3391
1959000000,-7.703898,110.50748
1960000000,-7.7163067,110.15932
1961000000,-7.7203717,110.34711
1962000000,-7.7244158,110.43901
1963000000,-7.8013716,110.2364
1964000000,-7.7910542,110.20601
1965000000,-7.8117671,110.09889
1966000000,-7.7881408,109.92564
1967000000,-7.8129992,109.93574
1968000000,-7.8313289,109.87576
1969000000,-7.810842,109.74548
1970000000,-7.8671336,109.76115
1971000000,-7.8751688,109.50279
1972000000,-7.8484564,109.50896
1973000000,-7.8639441,109.50962
1974000000,-7.8885293,109.33839
1975000000,-7.9321709,109.30711
1976000000,-7.9400187,109.27974
1977000000,-7.9572959,109.27032
1978000000,-7.9674625,109.05695
1979000000,-7.9956679,109.10007
1980000000,-7.9931893,108.91781
1981000000,-8.0216913,108.87697
1982000000,-8.0218287,109.13519
1983000000,-8.0220194,108.91187
1984000000,-8.0440207,108.9289
1985000000,-8.0838957,108.64084
1986000000,-8.0261765,108.50433
1987000000,-8.1150265,108.63223
1988000000,-8.0888166,108.47379
1989000000,-8.0686064,108.41318
1990000000,-8.1352081,108.42828
1991000000,-8.1435509,107.9074
1992000000,-8.1406155,108.27229
1993000000,-8.1466646,108.23399
1994000000,-8.1789246,108.04035
1995000000,-8.2032871,108.06917
1996000000,-8.2769566,107.74905
1997000000,-8.2398148,107.57106
1998000000,-8.2567263,107.50385
1999000000,-8.2805614,107.50687
2000000000,-8.2279282,107.48961
2001000000,-8.2593441,107.36034
2002000000,-8.3177557,107.36931
2003000000,-8.3122234,107.34681
2004000000,-8.3545723,107.27566
2005000000,-8.3598566,107.21808
2006000000,-8.3722734,106.87158
2007000000,-8.3544865,107.14631
2008000000,-8.4303617,107.03787
2009000000,-8.3984709,106.87382
2010000000,-8.4030972,106.90392
2011000000,-8.4457026,106.74018
2012000000,-8.4575195,106.74303
2013000000,-8.4624987,106.62006
2014000000,-8.4964085,106.44964
2015000000,-8.5069027,106.43201
2016000000,-8.5367308,106.26609
2017000000,-8.5277205,106.04707
2018000000,-8.522294,106.08874
2019000000,-8.5802898,105.80022
2020000000,-8.5801315,106.04226
2021000000,-8.5815945,105.9378
2022000000,-8.5858965,105.93422
2023000000,-8.6177034,105.68496
2024000000,-8.6427574,105.82896
2025000000,-8.6735182,105.48585
2026000000,-8.6736765,105.70145
2027000000,-8.6886129,105.37749
2028000000,-8.6881666,105.45764
2029000000,-8.7485743,105.47325
2030000000,-8.7224913,105.26044
2031000000,-8.7248077,105.12646
2032000000,-8.767416,105.07727
2033000000,-8.7664976,104.96906
2034000000,-8.8033495,104.97046
2035000000,-8.8134775,104.75111
2036000000,-8.8277416,104.81986
2037000000,-8.8390589,104.45977
2038000000,-8.8371706,104.55763
2039000000,-8.8632259,104.68054
2040000000,-8.9015226,104.56912
2041000000,-8.8861971,104.47092
2042000000,-8.9261503,104.2155
2043000000,-8.8930359,104.331
2044000000,-8.9019346,104.4628
2045000000,-8.9546385,104.16744
2046000000,-8.9433279,104.05493
2047000000,-8.9815712,104.03554
2048000000,-8.997653,104.02023
2049000000,-9.0464888,103.84882
2050000000,-9.0180082,103.75696
2051000000,-9.0492125,103.85046
2052000000,-9.0966158,103.55576
2053000000,-9.0711718,103.60329
2054000000,-9.0683689,103.25885
2055000000,-9.1073046,103.38486
2056000000,-9.1398096,103.3856
2057000000,-9.1561356,103.41558
2058000000,-9.1541872,103.35156
2059000000,-9.1763706,103.11197
2060000000,-9.1857204,103.06964
2061000000,-9.2013521,102.80669
2062000000,-9.2309732,102.60505
2063000000,-9.2471256,102.88631
2064000000,-9.2564583,102.75613
2065000000,-9.299798,102.88435
2066000000,-9.2765064,102.66712
2067000000,-9.3233414,102.63321
2068000000,-9.313282,102.28184
2069000000,-9.2985497,102.55238
2070000000,-9.342659,102.39293
2071000000,-9.3669987,102.33044
2072000000,-9.3714819,102.57597
2073000000,-9.3788872,102.24834
2074000000,-9.4031849,102.29406
2075000000,-9.4399233,102.1357
2076000000,-9.4718256,101.87546
2077000000,-9.4607573,101.99633
2078000000,-9.4811859,101.85564
2079000000,-9.504962,101.81405
2080000000,-9.5291414,101.64061
2081000000,-9.5488539,101.67954
2082000000,-9.5438566,101.59992
2083000000,-9.5734177,101.68846
2084000000,-9.5838366,101.4536
2085000000,-9.5717115,101.27156
2086000000,-9.6361856,101.3528
2087000000,-9.6282349,101.29858
2088000000,-9.6497755,101.38951
2089000000,-9.6807394,101.29813
2090000000,-9.681715,101.28336
2091000000,-9.707448,101.25175
2092000000,-9.7283964,101.13542
2093000000,-9.7530975,100.99733
2094000000,-9.7548485,101.09212
2095000000,-9.8057842,100.75723
2096000000,-9.8055468,100.7737
2097000000,-9.7878075,100.80059
2098000000,-9.8473558,100.73213
2099000000,-9.8423319,100.79682
2100000000,-9.9210091,100.36831
2101000000,-9.8861904,100.40438
2102000000,-9.9049721,100.25896
2103000000,-9.9341431,100.23849
2104000000,-9.9496078,100.23021
2105000000,-10.006563,100.23444
2106000000,-9.9940701,100.04322
2107000000,-10.011657,100.09188
2108000000,-10.035348,99.93557
2109000000,-10.044881,100.17433
2110000000,-10.095626,99.974144
2111000000,-10.089103,99.8545
2112000000,-10.105534,99.511292
2113000000,-10.147734,99.735847
2114000000,-10.164887,99.587624
2115000000,-10.174861,99.51239
2116000000,-10.215676,99.562103
2117000000,-10.210887,99.27404
2118000000,-10.275072,99.403725
2119000000,-10.235487,99.364334
2120000000,-10.29391,99.319878
2121000000,-10.302018,99.357018
2122000000,-10.318021,99.179909
2123000000,-10.352544,99.039917
2124000000,-10.358128,99.103996
2125000000,-10.392428,98.775291
2126000000,-10.373798,99.086868
2127000000,-10.434794,98.924957
2128000000,-10.436036,98.778427
2129000000,-10.487431,98.742615
2130000000,-10.460954,98.660095
2131000000,-10.480777,98.617371
2132000000,-10.49754,98.580826
2133000000,-10.551712,98.545158
2134000000,-10.564307,98.327835
2135000000,-10.57881,98.47744
2136000000,-10.600864,98.230637
2137000000,-10.639764,98.31337
2138000000,-10.615088,98.317711
2139000000,-10.678841,98.254135
2140000000,-10.70512,98.188553
2141000000,-10.719008,98.177452
2142000000,-10.720114,98.005447
2143000000,-10.720241,97.976242
2144000000,-10.797861,97.950089
2145000000,-10.801958,97.690598
2146000000,-10.776548,97.581665
2147000000,-10.810106,97.693558
2148000000,-10.832655,97.804352
2149000000,-10.871651,97.754692
2150000000,-10.8601,97.68515
2151000000,-10.911297,97.477058
2152000000,-10.933073,97.605171
2153000000,-10.912202,97.415314
2154000000,-10.980714,97.492165
2155000000,-11.001678,97.30555
2156000000,-11.04235,97.186691
2157000000,-11.027803,97.301498
2158000000,-11.046309,97.218918
2159000000,-11.046863,97.159698
2160000000,-11.073866,97.012726
2161000000,-11.086419,97.190331
2162000000,-11.13676,96.748138
2163000000,-11.167713,96.706696
2164000000,-11.185689,96.827873
2165000000,-11.177617,96.61496
2166000000,-11.204403,96.518738
2167000000,-11.253262,96.831207
2168000000,-11.248034,96.655983
2169000000,-11.323318,96.750549
2170000000,-11.308006,96.737808
2171000000,-11.315102,96.5075
2172000000,-11.307593,96.595337
2173000000,-11.301023,96.377151
2174000000,-11.379919,96.323738
2175000000,-11.361678,96.517876
2176000000,-11.415292,96.128075
2177000000,-11.452913,96.208481
2178000000,-11.448204,96.321007
2179000000,-11.52355,96.050255
2180000000,-11.546308,96.148376
2181000000,-11.541583,95.950165
2182000000,-11.565719,96.056915
2183000000,-11.606676,96.163086
2184000000,-11.596566,95.88166
2185000000,-11.61371,96.213486
2186000000,-11.632675,95.789978
2187000000,-11.648163,95.755943
2188000000,-11.71244,95.613884
2189000000,-11.684052,95.593918
2190000000,-11.729161,95.497688
2191000000,-11.765205,95.322403
2192000000,-11.793461,95.500031
2193000000,-11.789928,95.253601
2194000000,-11.851542,95.398941
2195000000,-11.850946,95.207901
2196000000,-11.869174,95.548698
2197000000,-11.88223,95.202568
2198000000,-11.934431,95.221107
2199000000,-11.943726,94.957481
2200000000,-11.974156,94.787811
2201000000,-11.966447,95.072014
2202000000,-12.043228,94.966614
2203000000,-12.067003,94.861832
2204000000,-12.037449,94.952187
2205000000,-12.12854,95.006638
2206000000,-12.13449,94.798508
2207000000,-12.128497,94.505836
2208000000,-12.156318,94.703468
2209000000,-12.188946,94.508781
2210000000,-12.202178,94.335022
2211000000,-12.238449,94.601105
2212000000,-12.282248,94.285088
2213000000,-12.246819,94.350754
2214000000,-12.325184,94.04541
2215000000,-12.293599,94.252251
2216000000,-12.376517,93.902435
2217000000,-12.35493,94.141663
2218000000,-12.399024,93.746284
2219000000,-12.396902,93.844879
2220000000,-12.457436,93.926155
2221000000,-12.46582,94.027893
2222000000,-12.489361,94.04464
2223000000,-12.494424,93.699928
2224000000,-12.560919,93.9235
2225000000,-12.549677,93.560692
2226000000,-12.570709,93.622665
2227000000,-12.628569,93.393188
2228000000,-12.643348,93.463692
2229000000,-12.627541,93.593834
2230000000,-12.677651,93.296135
2231000000,-12.687844,93.193405
2232000000,-12.755552,93.400124
2233000000,-12.755928,93.29705
2234000000,-12.763531,93.201202
2235000000,-12.805868,93.116371
2236000000,-12.80185,93.27108
2237000000,-12.824505,93.105881
2238000000,-12.8621,92.986412
2239000000,-12.882297,93.031113
2240000000,-12.912514,92.939987
2241000000,-12.907688,93.098228
2242000000,-12.979954,93.024124
2243000000,-12.962321,92.990372
2244000000,-13.016029,92.82666
2245000000,-13.042691,92.771957
2246000000,-13.033741,92.819817
2247000000,-13.082907,92.879021
2248000000,-13.083426,92.806366
2249000000,-13.095406,92.594948
2250000000,-13.146121,92.615273
2251000000,-13.192037,92.404602
2252000000,-13.183202,92.376205
2253000000,-13.232878,92.579849
2254000000,-13.267683,92.568192
2255000000,-13.260059,92.32489
2256000000,-13.319143,92.372314
2257000000,-13.367496,92.285095
2258000000,-13.39502,92.337341
2259000000,-13.391792,92.329643
2260000000,-13.402986,92.445381
2261000000,-13.431686,92.40403
2262000000,-13.484876,92.048874
2263000000,-13.494001,92.167526
2264000000,-13.552105,92.012917
2265000000,-13.550934,92.073166
2266000000,-13.570984,91.894035
2267000000,-13.612946,91.899643
2268000000,-13.620122,91.88559
2269000000,-13.691799,91.775497
2270000000,-13.690451,91.756966
2271000000,-13.737385,91.599129
2272000000,-13.765473,91.618309
2273000000,-13.779144,91.875786
2274000000,-13.833567,91.644295
2275000000,-13.894159,91.58931
2276000000,-13.907088,91.569511
2277000000,-13.912514,91.389885
2278000000,-13.927444,91.593719
2279000000,-13.959686,91.292252
2280000000,-13.996243,91.471169
2281000000,-13.991723,91.393379
2282000000,-14.0692,91.416939
2283000000,-14.075489,91.327194
2284000000,-14.094139,91.446487
2285000000,-14.1311,91.186798
2286000000,-14.186481,90.751976
2287000000,-14.198106,90.833405
2288000000,-14.224999,90.846779
2289000000,-14.254102,91.009804
2290000000,-14.311,90.821304
2291000000,-14.325103,90.65316
2292000000,-14.366969,90.86367
2293000000,-14.379637,90.767509
2294000000,-14.385217,90.808922
2295000000,-14.461802,90.719727
2296000000,-14.468536,90.568283
2297000000,-14.507861,90.664825
2298000000,-14.557207,90.594612
2299000000,-14.561001,90.559616
2300000000,-14.569405,90.371994
2301000000,-14.623273,90.375305
2302000000,-14.630712,90.120125
2303000000,-14.713573,90.353088
2304000000,-14.73842,90.191826
2305000000,-14.784985,90.309563
2306000000,-14.770992,90.183723
2307000000,-14.793115,89.948944
2308000000,-14.840377,90.004097
2309000000,-14.900104,90.066071
2310000000,-14.914745,89.806908
2311000000,-14.908002,90.029686
2312000000,-14.984554,89.97731
2313000000,-15.032469,89.626389
2314000000,-15.050824,89.750351
2315000000,-15.045225,89.435471
2316000000,-15.080075,89.622856
2317000000,-15.180318,89.590515
2318000000,-15.174685,89.454239
2319000000,-15.184306,89.509384
2320000000,-15.240416,89.529266
2321000000,-15.25953,89.382729
2322000000,-15.289712,89.404938
2323000000,-15.300261,89.112717
2324000000,-15.32567,89.06028
2325000000,-15.359521,89.401833
2326000000,-15.419489,89.216064
2327000000,-15.445642,89.159843
2328000000,-15.465681,89.048904
2329000000,-15.509265,89.08638
2330000000,-15.552694,89.067245
2331000000,-15.568957,89.177032
2332000000,-15.580265,88.787056
2333000000,-15.643558,88.609169
2334000000,-15.685148,88.986519
2335000000,-15.667589,88.633499
2336000000,-15.717412,88.877403
2337000000,-15.804331,88.81205
2338000000,-15.791881,88.647766
2339000000,-15.806202,88.515022
2340000000,-15.849273,88.483307
2341000000,-15.896595,88.648376
2342000000,-15.887581,88.711433
2343000000,-15.949896,88.695557
2344000000,-16.011301,88.555489
2345000000,-15.990695,88.730209
2346000000,-16.053505,88.217102
2347000000,-16.079288,88.665451
2348000000,-16.104153,88.577904
2349000000,-16.143402,88.450378
2350000000,-16.21278,88.467697
2351000000,-16.255802,88.62072
2352000000,-16.259834,88.342392
2353000000,-16.3353,88.235535
2354000000,-16.336275,88.261253
2355000000,-16.438606,88.402176
2356000000,-16.440016,88.325592
2357000000,-16.476067,88.382874
2358000000,-16.494043,88.401924
2359000000,-16.553545,88.262566
2360000000,-16.597517,88.232056
2361000000,-16.631525,88.21534
2362000000,-16.666731,88.214859
2363000000,-16.72801,88.383873
2364000000,-16.697721,88.112297
2365000000,-16.790972,88.205231
2366000000,-16.822155,88.101921
2367000000,-16.844889,87.851265
2368000000,-16.876478,87.959389
2369000000,-16.923429,87.945976
2370000000,-16.946012,88.145874
2371000000,-17.036787,88.126358
2372000000,-17.055527,87.81089
2373000000,-17.081648,87.721169
2374000000,-17.106895,88.04158
2375000000,-17.170046,87.6726
2376000000,-17.230867,87.744255
2377000000,-17.253588,87.705978
2378000000,-17.299454,87.167313
2379000000,-17.349726,87.579491
2380000000,-17.363567,87.477104
2381000000,-17.412355,87.710068
2382000000,-17.495003,87.271118
2383000000,-17.492874,87.197121
2384000000,-17.553473,87.311874
2385000000,-17.569193,87.190613
2386000000,-17.601843,87.481071
2387000000,-17.668285,87.225502
2388000000,-17.688217,87.024055
2389000000,-17.737223,87.243759
2390000000,-17.824348,86.886223
2391000000,-17.83806,86.895912
2392000000,-17.894182,87.238342
2393000000,-17.921009,86.797562
2394000000,-17.965212,87.174103
2395000000,-17.990252,86.93737
2396000000,-18.031122,86.771721
2397000000,-18.097033,86.969612
2398000000,-18.145054,86.716492
2399000000,-18.176857,87.026611
2400000000,-18.209778,86.852356
2401000000,-18.232676,86.758041
2402000000,-18.283377,86.837334
2403000000,-18.352209,86.668419
2404000000,-18.362316,86.78933
2405000000,-18.442333,86.579552
2406000000,-18.454962,86.454941
2407000000,-18.50271,86.632133
2408000000,-18.555889,86.62561
2409000000,-18.554838,86.616364
2410000000,-18.649612,86.394295
2411000000,-18.671793,86.388512
2412000000,-18.771811,86.470779
2413000000,-18.773113,86.627632
2414000000,-18.832968,86.435326
2415000000,-18.870674,86.445808
2416000000,-18.933275,86.486626
2417000000,-18.968409,86.252739
2418000000,-19.033918,86.578354
2419000000,-19.070784,86.447166
2420000000,-19.134361,86.796638
2421000000,-19.139431,86.413277
2422000000,-19.178591,86.530441
2423000000,-19.253176,86.531784
2424000000,-19.365849,86.134094
2425000000,-19.359718,86.543282
2426000000,-19.416647,86.685349
2427000000,-19.44553,86.711807
2428000000,-19.481821,86.504875
2429000000,-19.519564,86.454056
2430000000,-19.598042,86.40966
2431000000,-19.658062,86.627007
2432000000,-19.726109,86.144562
2433000000,-19.765224,86.762596
2434000000,-19.80596,86.283737
2435000000,-19.887197,86.474228
2436000000,-19.938427,86.184433
2437000000,-19.977501,86.388145
2438000000,-19.988461,86.150375
2439000000,-20.084396,86.332611
2440000000,-20.150356,86.454811
2441000000,-20.213829,86.692818
2442000000,-20.299778,86.450218
2443000000,-20.319885,86.613197
2444000000,-20.417097,86.365685
2445000000,-20.447077,86.41642
2446000000,-20.534883,86.229591
2447000000,-20.562387,86.489494
2448000000,-20.644665,86.262604
2449000000,-20.715271,86.581642
2450000000,-20.778973,86.460342
2451000000,-20.809654,86.430435
2452000000,-20.893253,86.235611
2453000000,-20.961012,86.572998
2454000000,-20.993006,86.393158
2455000000,-21.047333,86.072464
2456000000,-21.167509,86.252739
2457000000,-21.240219,86.49791
2458000000,-21.245413,86.614822
2459000000,-21.337185,86.810425
2460000000,-21.373621,86.986778
2461000000,-21.430231,86.592285
2462000000,-21.54141,86.730652
2463000000,-21.575741,86.311462
2464000000,-21.664825,86.204247
2465000000,-21.763119,86.551765
2466000000,-21.719749,86.491669
2467000000,-21.870111,86.582169
2468000000,-21.940851,86.528618
2469000000,-22.001619,86.34967
2470000000,-22.12048,86.396149
2471000000,-22.15505,86.43029
2472000000,-22.214064,86.529663
2473000000,-22.294519,86.551231
2474000000,-22.369469,86.382835
2475000000,-22.45997,86.457253
2476000000,-22.509954,86.382866
2477000000,-22.567064,86.47049
2478000000,-22.739817,86.808113
2479000000,-22.78582,86.645393
2480000000,-22.871941,86.6884
2481000000,-22.923449,86.389465
2482000000,-22.996948,87.106865
2483000000,-23.07185,86.795311
2484000000,-23.199472,87.142197
2485000000,-23.276585,86.691483
2486000000,-23.358469,86.875671
2487000000,-23.484673,86.661499
2488000000,-23.557552,86.855545
2489000000,-23.589357,87.005272
2490000000,-23.697069,87.433823
2491000000,-23.793058,86.882858
2492000000,-23.847292,87.029045
2493000000,-23.934681,87.064148
2494000000,-24.030613,87.356346
2495000000,-24.151896,87.159836
2496000000,-24.201202,86.923462
2497000000,-24.275143,87.250061
2498000000,-24.338156,87.08136
2499000000,-24.444639,87.412102
2500000000,-24.572964,87.397324
2501000000,-24.66485,87.108658
2502000000,-24.645018,87.490524
2503000000,-24.830118,87.285248
2504000000,-24.937313,88.359711
2505000000,-25.055344,87.254478
2506000000,-25.139112,88.349373
2507000000,-25.201197,88.257851
2508000000,-25.384605,88.078613
2509000000,-25.399128,88.533577
2510000000,-25.612511,88.102501
2511000000,-25.584644,88.90789
2512000000,-25.750902,88.604828
2513000000,-25.958893,89.016174
2514000000,-25.87678,88.335808
2515000000,-26.093134,89.325684
2516000000,-26.145966,89.335312
2517000000,-26.242785,88.922516
2518000000,-26.447104,89.438393
2519000000,-26.552885,89.665085
2520000000,-26.59046,90.480026
2521000000,-26.785809,89.696411
2522000000,-27.055641,89.642456
2523000000,-27.028605,90.598053
2524000000,-27.111927,91.071114
2525000000,-27.263084,91.055351
2526000000,-27.399588,91.17926
2527000000,-27.61558,91.488853
2528000000,-27.684866,92.132797
2529000000,-27.840195,92.252831
2530000000,-27.940788,92.049057
2531000000,-28.053448,92.642357
2532000000,-28.321478,93.430336
2533000000,-28.374079,93.195381
2534000000,-28.604252,93.914749
2535000000,-28.712097,93.523819
2536000000,-28.873745,94.490547
2537000000,-28.995033,94.315063
2538000000,-29.253616,95.168465
2539000000,-29.421106,95.60408
2540000000,-29.49296,95.847054
2541000000,-29.736212,96.54673
2542000000,-30.03001,96.822731
2543000000,-30.002125,97.219498
2544000000,-30.318539,98.726746
2545000000,-30.370115,98.719986
2546000000,-30.592003,97.687927
2547000000,-30.798973,99.407066
2548000000,-30.938036,99.682304
2549000000,-31.103573,100.95567
2550000000,-31.330198,101.14828
2551000000,-31.443693,102.43119
2552000000,-31.899218,101.25792
2553000000,-31.830957,103.61344
2554000000,-32.150932,104.30146
2555000000,-32.283291,104.20472
2556000000,-32.483711,105.18658
2557000000,-32.712921,107.53136
2558000000,-33.019592,108.66808
2559000000,-33.336819,107.57127
2560000000,-33.507202,108.44552
2561000000,-33.591797,112.10894
2562000000,-33.70433,111.78558
2563000000,-34.032661,112.32607
2564000000,-34.441566,114.89717
2565000000,-34.556061,115.51507
2566000000,-34.890076,117.60088
2567000000,-35.084091,116.37012
2568000000,-35.379082,119.56887
2569000000,-35.182613,118.24178
2570000000,-35.806534,123.43143
2571000000,-36.024998,123.42719
2572000000,-36.158691,124.78582
2573000000,-36.568794,126.58345
2574000000,-36.949165,131.19838
2575000000,-36.988094,131.11362
2576000000,-36.915077,134.30675
2577000000,-37.493473,137.50233
2578000000,-37.327335,139.34496
2579000000,-37.249062,140.93596
2580000000,-37.723549,144.13971
2581000000,-37.454964,147.17288
2582000000,-37.859661,149.49966
2583000000,-37.782784,154.59079
2584000000,-37.582272,153.20897
2585000000,-38.085903,158.7397
2586000000,-37.797939,163.11526
2587000000,-37.854301,167.85347
2588000000,-37.805576,166.44643
2589000000,-37.953876,170.58098
2590000000,-37.499935,173.85715
2591000000,-37.474449,176.51585
2592000000,-37.219471,179.15182
2593000000,-37.362209,181.98355
2594000000,-37.0532,184.56996
2595000000,-36.820004,185.44374
2596000000,-36.37529,187.22601
2597000000,-36.515545,189.6424
2598000000,-36.056957,191.42918
2599000000,-36.135273,192.53331
2600000000,-35.689117,196.7359
2601000000,-35.529198,196.90819
2602000000,-35.563923,197.35455
2603000000,-35.03001,200.09074
2604000000,-34.937603,201.2775
2605000000,-34.721855,204.49272
2606000000,-34.107212,205.25381
2607000000,-34.263657,205.91563
2608000000,-33.877304,208.21486
2609000000,-33.820236,208.89461
2610000000,-33.547836,207.7822
2611000000,-33.245148,210.49406
2612000000,-33.017719,213.62402
2613000000,-32.839401,212.03267
2614000000,-32.873196,213.89499
2615000000,-32.372726,214.68481
2616000000,-32.104008,216.8739
2617000000,-31.830864,216.86375
2618000000,-32.067352,216.89313
2619000000,-31.456852,217.39276
2620000000,-31.338261,218.73451
2621000000,-31.194426,219.32248
2622000000,-30.962093,217.77835
2623000000,-30.705723,221.13907
2624000000,-30.379793,220.74345
2625000000,-30.548979,220.65393
2626000000,-30.023396,221.52182
2627000000,-30.233419,221.25699
2628000000,-29.788038,222.3335
2629000000,-29.602703,223.25104
2630000000,-29.48629,223.22519
2631000000,-29.328655,221.8806
2632000000,-29.008461,224.41829
2633000000,-29.007793,224.59047
2634000000,-28.784292,225.11597
2635000000,-28.631245,225.24649
2636000000,-28.616503,225.00607
2637000000,-28.436171,226.76479
2638000000,-28.297634,227.05933
2639000000,-28.088507,226.04054
2640000000,-27.941088,226.1505
2641000000,-27.792459,226.757
2642000000,-27.730764,227.5528
2643000000,-27.599369,226.67915
2644000000,-27.345327,227.82646
2645000000,-27.182266,228.31042
2646000000,-27.038189,227.70677
2647000000,-27.005095,228.12408
2648000000,-26.867403,227.95744
2649000000,-26.720982,228.91043
2650000000,-26.596283,228.21312
2651000000,-26.524696,228.99223
2652000000,-26.475756,229.23271
2653000000,-26.367432,228.64091
2654000000,-26.249887,229.74104
2655000000,-26.073942,229.57205
2656000000,-25.905064,230.0007
2657000000,-25.695129,230.94562
2658000000,-25.637091,230.57582
2659000000,-25.674025,230.60202
2660000000,-25.47296,231.16219
2661000000,-25.408911,231.0676
2662000000,-25.349022,231.7092
2663000000,-25.219257,230.8255
2664000000,-25.057518,230.97926
2665000000,-25.119562,231.08319
2666000000,-24.89296,231.68794
2667000000,-24.771084,230.51744
2668000000,-24.77564,231.62622
2669000000,-24.699499,231.68816
2670000000,-24.574938,231.98714
2671000000,-24.474852,231.15131
2672000000,-24.29006,230.99979
2673000000,-24.186508,232.03407
2674000000,-24.170719,231.88484
2675000000,-24.025322,232.36414
2676000000,-23.944794,232.22461
2677000000,-23.954079,231.78523
2678000000,-23.862509,232.03656
2679000000,-23.682199,231.89362
2680000000,-23.578062,232.35014
2681000000,-23.529364,231.50407
2682000000,-23.47337,232.20966
2683000000,-23.312929,231.66071
2684000000,-23.356268,232.07625
2685000000,-23.281393,232.68861
2686000000,-22.991325,232.03671
2687000000,-23.075535,232.49181
2688000000,-22.939802,232.58119
2689000000,-22.881798,232.69424
2690000000,-22.782543,232.51628
2691000000,-22.702856,232.01746
2692000000,-22.710592,232.46071
2693000000,-22.659328,232.18303
2694000000,-22.529303,231.96028
2695000000,-22.410904,232.13075
2696000000,-22.313782,231.90916
2697000000,-22.240366,232.29575
2698000000,-22.235035,232.23859
2699000000,-22.119745,232.25528
2700000000,-22.106638,232.43243
2701000000,-21.919535,232.31154
2702000000,-21.93055,232.15182
2703000000,-21.75609,232.82962
2704000000,-21.754017,232.13057
2705000000,-21.626308,231.67131
2706000000,-21.566847,231.67851
2707000000,-21.499872,232.31569
2708000000,-21.432112,232.19859
2709000000,-21.3447,232.34435
2710000000,-21.278978,232.11989
2711000000,-21.213387,232.03877
2712000000,-21.118059,232.32802
2713000000,-21.031414,232.35951
2714000000,-21.008465,232.17513
2715000000,-20.934069,231.98181
2716000000,-20.849518,232.17468
2717000000,-20.771893,232.3291
2718000000,-20.714567,232.08942
2719000000,-20.628962,231.86646
2720000000,-20.653841,232.32703
2721000000,-20.508636,231.98976
2722000000,-20.390989,232.18275
2723000000,-20.391014,231.98175
2724000000,-20.339924,231.62836
2725000000,-20.239897,232.16925
2726000000,-20.257856,231.94621
2727000000,-19.98431,231.90475
2728000000,-20.065153,231.69969
2729000000,-19.953112,232.3573
2730000000,-19.902184,232.1409
2731000000,-19.898678,231.97391
2732000000,-19.720387,231.79741
2733000000,-19.796377,231.56058
2734000000,-19.767944,231.69289
2735000000,-19.688002,231.87807
2736000000,-19.510372,231.37422
2737000000,-19.464697,231.84416
2738000000,-19.397587,232.03453
2739000000,-19.424538,231.97585
2740000000,-19.374186,231.65193
2741000000,-19.294537,231.48572
2742000000,-19.139091,231.82968
2743000000,-19.191263,231.67639
2744000000,-19.070372,232.60403
2745000000,-19.095188,232.01448
2746000000,-18.992718,231.59058
2747000000,-18.942968,232.27774
2748000000,-18.930107,231.45755
2749000000,-18.837301,231.60527
2750000000,-18.845516,231.8638
2751000000,-18.682812,231.73051
2752000000,-18.64152,231.86044
2753000000,-18.606176,231.80783
2754000000,-18.585226,232.00487
2755000000,-18.593925,232.02948
2756000000,-18.528252,231.9323
2757000000,-18.468758,231.99754
2758000000,-18.412704,231.46997
2759000000,-18.4468,231.35597
2760000000,-18.264633,231.32446
2761000000,-18.301252,231.45421
2762000000,-18.250977,231.2419
2763000000,-18.218241,231.38583
2764000000,-18.233217,231.48143
2765000000,-18.082857,231.34335
2766000000,-18.095942,231.61511
2767000000,-17.997757,231.20238
2768000000,-17.947584,231.24808
2769000000,-17.843761,230.92261
2770000000,-17.922436,231.44533
2771000000,-17.83429,231.22675
2772000000,-17.706339,230.93246
2773000000,-17.809122,230.83464
2774000000,-17.699991,231.10962
2775000000,-17.714565,231.16261
2776000000,-17.601444,230.71114
2777000000,-17.581934,230.39911
2778000000,-17.514076,230.82356
2779000000,-17.525139,230.75475
2780000000,-17.445339,230.86154
2781000000,-17.376831,230.75505
2782000000,-17.303782,231.06836
2783000000,-17.239317,230.32106
2784000000,-17.258028,230.85535
2785000000,-17.257284,230.5788
2786000000,-17.218069,229.84764
2787000000,-17.247538,230.70462
2788000000,-17.096312,230.29095
2789000000,-17.04871,230.16837
2790000000,-16.994675,229.79396
2791000000,-17.013741,230.11729
2792000000,-16.86463,230.13713
2793000000,-16.892565,230.31477
2794000000,-16.807056,230.24631
2795000000,-16.857491,230.06602
2796000000,-16.856703,230.37302
2797000000,-16.726913,230.39471
2798000000,-16.70966,230.37196
2799000000,-16.613325,229.14331
2800000000,-16.640541,229.8206
2801000000,-16.544243,229.8185
2802000000,-16.565407,229.55521
2803000000,-16.496813,229.94696
2804000000,-16.433016,229.4987
2805000000,-16.403498,229.29475
2806000000,-16.402977,229.20535
2807000000,-16.408525,229.65771
2808000000,-16.294447,229.24561
2809000000,-16.187616,229.35254
2810000000,-16.157808,229.40228
2811000000,-16.173265,229.51505
2812000000,-16.071201,228.80571
2813000000,-16.111713,228.9436
2814000000,-16.031706,229.5201
2815000000,-16.026785,229.01987
2816000000,-15.980023,228.89542
2817000000,-15.960372,228.84439
2818000000,-15.902491,229.10579
2819000000,-15.848707,228.75937
2820000000,-15.781698,228.7794
2821000000,-15.792274,228.97783
2822000000,-15.766496,228.62767
2823000000,-15.66304,228.97328
2824000000,-15.643498,228.74496
2825000000,-15.576145,228.9568
2826000000,-15.58687,228.81404
2827000000,-15.602908,228.44327
2828000000,-15.513933,228.60478
2829000000,-15.494312,228.64583
2830000000,-15.443905,228.64902
2831000000,-15.458574,228.46388
2832000000,-15.392294,228.52129
2833000000,-15.37396,228.70534
2834000000,-15.320647,228.78166
2835000000,-15.321053,228.18976
2836000000,-15.239164,228.71594
2837000000,-15.187989,228.6032
2838000000,-15.158962,228.14264
2839000000,-15.203571,228.45851
2840000000,-15.157517,227.70274
2841000000,-15.108048,227.85457
2842000000,-15.039173,227.677
2843000000,-15.052548,228.00876
2844000000,-15.005054,228.08327
2845000000,-14.930101,228.26819
2846000000,-14.977077,227.79523
2847000000,-14.946225,227.19159
2848000000,-14.866862,227.60834
2849000000,-14.845303,227.54866
2850000000,-14.857429,227.53163
2851000000,-14.812418,227.48534
2852000000,-14.799482,227.44885
2853000000,-14.695547,227.3051
2854000000,-14.755403,227.36238
2855000000,-14.642949,227.56111
2856000000,-14.637484,227.29382
2857000000,-14.65282,226.98322
2858000000,-14.59883,227.27679
2859000000,-14.567672,226.93192
2860000000,-14.578598,226.89853
2861000000,-14.476694,226.74411
2862000000,-14.456014,227.08191
2863000000,-14.510134,226.89758
2864000000,-14.446704,226.94084
2865000000,-14.329757,226.31668
2866000000,-14.423368,226.76184
2867000000,-14.354362,226.89771
2868000000,-14.342453,226.61618
2869000000,-14.280951,226.44852
2870000000,-14.271603,226.05984
2871000000,-14.241049,226.07115
2872000000,-14.218329,226.10381
2873000000,-14.214499,226.19966
2874000000,-14.134258,225.66798
2875000000,-14.161407,226.09108
2876000000,-14.075057,225.77063
2877000000,-14.044201,225.82758
2878000000,-14.036825,225.81612
2879000000,-14.007107,225.75378
2880000000,-13.977591,225.70894
2881000000,-13.951394,225.69057
2882000000,-13.892228,225.18945
2883000000,-13.874927,225.57788
2884000000,-13.859228,225.34302
2885000000,-13.854449,225.13876
2886000000,-13.81261,225.41585
2887000000,-13.793643,225.20764
2888000000,-13.760417,225.40253
2889000000,-13.703972,224.93752
2890000000,-13.691212,224.97612
2891000000,-13.659287,224.99896
2892000000,-13.658488,224.71881
2893000000,-13.673303,224.99675
2894000000,-13.600169,225.07205
2895000000,-13.571521,224.68712
2896000000,-13.554806,224.50937
2897000000,-13.493406,224.54112
2898000000,-13.469518,224.33847
2899000000,-13.422628,224.66975
2900000000,-13.476274,224.95244
2901000000,-13.476789,224.39352
2902000000,-13.351287,224.4017
2903000000,-13.347764,224.54732
2904000000,-13.33248,224.61093
2905000000,-13.29576,224.42819
2906000000,-13.299435,224.46146
2907000000,-13.280793,224.50893
2908000000,-13.203823,224.22766
2909000000,-13.204891,224.09058
2910000000,-13.164234,223.7529
2911000000,-13.19979,224.03258
2912000000,-13.13309,223.90276
2913000000,-13.058022,223.8811
2914000000,-13.052066,223.9422
2915000000,-13.089491,224.03178
2916000000,-13.029148,223.79005
2917000000,-13.055328,223.83853
2918000000,-12.965064,223.61652
2919000000,-12.943856,223.90271
2920000000,-12.892928,223.61661
2921000000,-12.910221,223.49014
2922000000,-12.861285,223.30205
2923000000,-12.910958,223.51613
2924000000,-12.828617,223.43246
2925000000,-12.826221,223.47282
2926000000,-12.766649,223.27287
2927000000,-12.757724,223.26694
2928000000,-12.71905,223.15292
2929000000,-12.726027,223.13457
2930000000,-12.704614,222.57491
2931000000,-12.694916,222.6877
2932000000,-12.68402,223.10136
2933000000,-12.617224,223.00591
2934000000,-12.625002,222.55011
2935000000,-12.533357,222.77464
2936000000,-12.574318,222.64842
2937000000,-12.532231,222.1127
2938000000,-12.508309,222.68797
2939000000,-12.527487,222.24539
2940000000,-12.518141,222.49683
2941000000,-12.492351,222.30498
2942000000,-12.455272,222.27641
2943000000,-12.398796,222.22882
2944000000,-12.357819,221.94688
2945000000,-12.395187,221.82661
2946000000,-12.387964,221.68254
2947000000,-12.33774,221.66208
2948000000,-12.349374,221.88492
2949000000,-12.302524,221.48163
2950000000,-12.313237,221.53981
2951000000,-12.303663,221.82872
2952000000,-12.270901,221.81973
2953000000,-12.208355,221.48975
2954000000,-12.225883,221.4366
2955000000,-12.208006,221.62402
2956000000,-12.176378,220.76599
2957000000,-12.139434,221.08916
2958000000,-12.100577,221.0527
2959000000,-12.075176,221.25262
2960000000,-12.027579,220.90875
2961000000,-12.03035,220.76202
2962000000,-11.997209,221.09093
2963000000,-12.025779,220.55823
2964000000,-11.963645,220.93188
2965000000,-11.99128,220.39111
2966000000,-11.975206,220.73648
2967000000,-11.952982,220.47839
2968000000,-11.893558,220.24046
2969000000,-11.904045,220.06793
2970000000,-11.852478,220.23975
2971000000,-11.840847,220.3838
2972000000,-11.808933,220.26865
2973000000,-11.791583,220.06982
2974000000,-11.782165,219.56004
2975000000,-11.763016,219.90936
2976000000,-11.727217,220.05945
2977000000,-11.703908,219.83011
2978000000,-11.664553,219.81911
2979000000,-11.700913,219.76233
2980000000,-11.693565,219.77342
2981000000,-11.625875,219.78467
2982000000,-11.557055,219.52921
2983000000,-11.602796,219.27419
2984000000,-11.604692,219.45871
2985000000,-11.601238,219.39597
2986000000,-11.562735,219.2874
2987000000,-11.479506,219.29541
2988000000,-11.464926,219.35672
2989000000,-11.498492,219.25351
2990000000,-11.475898,219.09805
2991000000,-11.490033,219.27893
2992000000,-11.389161,219.08644
2993000000,-11.433413,219.11105
2994000000,-11.38223,218.79044
2995000000,-11.335067,218.97166
2996000000,-11.324383,218.73853
2997000000,-11.370371,218.62259
2998000000,-11.314791,218.6674
2999000000,-11.270947,218.79942
3000000000,-11.29181,218.79356
3001000000,-11.260715,219.05492
3002000000,-11.263273,218.59044
3003000000,-11.208707,218.56465
3004000000,-11.20801,218.62207
3005000000,-11.131908,218.10295
3006000000,-11.172629,218.15318
3007000000,-11.151286,218.36858
3008000000,-11.151139,218.11479
3009000000,-11.075495,218.15019
3010000000,-11.083147,218.05531
3011000000,-11.095232,217.99031
3012000000,-11.053308,217.95682
3013000000,-11.04199,217.97664
3014000000,-11.039207,217.79669
3015000000,-10.999576,217.80122
3016000000,-11.027762,217.85962
3017000000,-10.987438,217.70045
3018000000,-10.952621,217.61137
3019000000,-10.954026,217.42393
3020000000,-10.904474,217.67265
3021000000,-10.915201,217.60927
3022000000,-10.883179,217.51614
3023000000,-10.938281,216.86771
3024000000,-10.84332,217.26173
3025000000,-10.890559,217.55161
3026000000,-10.879521,217.13339
3027000000,-10.795513,217.10388
3028000000,-10.825717,217.00221
3029000000,-10.80908,217.13283
3030000000,-10.726418,216.85657
3031000000,-10.748924,216.77669
3032000000,-10.734282,216.54323
3033000000,-10.715757,216.6799
3034000000,-10.68973,216.46912
3035000000,-10.653562,216.75073
3036000000,-10.668056,216.25844
3037000000,-10.688562,216.27461
3038000000,-10.658853,216.43584
3039000000,-10.619805,216.13809
3040000000,-10.667371,216.02187
3041000000,-10.60415,216.35666
3042000000,-10.579906,216.16568
3043000000,-10.549391,215.84843
3044000000,-10.542893,215.82443
3045000000,-10.519372,215.83101
3046000000,-10.536729,215.71555
3047000000,-10.496987,216.0027
3048000000,-10.50808,215.81505
3049000000,-10.498915,215.44684
3050000000,-10.490391,215.4019
3051000000,-10.457134,215.3524
3052000000,-10.434508,215.60017
3053000000,-10.41088,215.50807
3054000000,-10.384346,214.84628
3055000000,-10.375637,215.15498
3056000000,-10.378839,215.09396
3057000000,-10.375208,214.90799
3058000000,-10.29872,215.19572
3059000000,-10.308598,214.85463
3060000000,-10.313088,215.13004
3061000000,-10.271502,214.58124
3062000000,-10.287876,214.66754
3063000000,-10.289802,214.76646
3064000000,-10.251873,214.59601
3065000000,-10.256974,214.48264
3066000000,-10.200352,214.48589
3067000000,-10.194015,214.62582
3068000000,-10.16699,214.3181
3069000000,-10.157274,214.22783
3070000000,-10.109346,214.07922
3071000000,-10.17611,214.19931
3072000000,-10.114236,214.17395
3073000000,-10.104036,214.23778
3074000000,-10.0481,214.15196
3075000000,-10.052735,213.78146
3076000000,-10.078419,214.17027
3077000000,-10.048767,213.70149
3078000000,-10.024347,213.65523
3079000000,-10.016554,213.78139
3080000000,-9.9972734,213.57069
3081000000,-9.9632721,213.54199
3082000000,-9.9536266,213.41652
3083000000,-9.9812679,213.60117
3084000000,-9.9228411,213.29494
3085000000,-9.8680487,213.37686
3086000000,-9.9329824,213.52342
3087000000,-9.8892488,213.20268
3088000000,-9.8784714,213.2084
3089000000,-9.8663883,213.28239
3090000000,-9.8622637,212.85887
3091000000,-9.8013411,213.08995
3092000000,-9.8225174,213.08031
3093000000,-9.8344679,213.19579
3094000000,-9.8204937,212.97745
3095000000,-9.7942915,212.94994
3096000000,-9.7457418,212.87042
3097000000,-9.7590876,212.61385
3098000000,-9.714304,212.6644
3099000000,-9.7439823,212.52896
3100000000,-9.7463999,212.63492
3101000000,-9.6842909,212.44585
3102000000,-9.6962481,212.40953
3103000000,-9.6981649,212.50748
3104000000,-9.6747484,212.01358
3105000000,-9.6468687,212.34842
3106000000,-9.6621914,212.30304
3107000000,-9.6074209,212.29088
3108000000,-9.6404724,212.04053
3109000000,-9.630724,211.98436
3110000000,-9.5586805,211.9406
3111000000,-9.568326,211.74393
3112000000,-9.5138063,211.5742
3113000000,-9.5567646,211.937
3114000000,-9.5551825,211.60719
3115000000,-9.5510559,211.68599
3116000000,-9.4979048,211.81055
3117000000,-9.4741793,211.62305
3118000000,-9.495698,211.54965
3119000000,-9.4853706,211.23482
3120000000,-9.4769087,211.19461
3121000000,-9.4484396,211.10262
3122000000,-9.3952265,210.98381
3123000000,-9.4198732,211.12096
3124000000,-9.3867426,211.30371
3125000000,-9.402565,210.98061
3126000000,-9.4213963,210.58917
3127000000,-9.3832045,210.90062
3128000000,-9.3364296,210.88974
3129000000,-9.3515968,210.92644
3130000000,-9.3238564,210.58932
3131000000,-9.2930117,210.70123
3132000000,-9.2721434,210.57263
3133000000,-9.2849512,210.08755
3134000000,-9.2855463,210.62
3135000000,-9.2427101,210.47551
3136000000,-9.2394514,210.18993
3137000000,-9.2563553,210.004
3138000000,-9.2042179,210.12566
3139000000,-9.2266188,210.09804
3140000000,-9.1979675,210.02769
3141000000,-9.1783609,209.93103
3142000000,-9.1557922,210.15358
3143000000,-9.1594477,209.79425
3144000000,-9.1215277,209.83281
3145000000,-9.1478701,209.74071
3146000000,-9.1011343,209.67793
3147000000,-9.0819616,209.51549
3148000000,-9.0867395,209.6787
3149000000,-9.1032143,209.61467
3150000000,-9.0669851,209.53473
3151000000,-9.1169214,209.38565
3152000000,-9.0366964,209.42288
3153000000,-9.0298939,209.32654
3154000000,-9.0304203,209.36768
3155000000,-9.0375223,209.33946
3156000000,-8.9970427,208.84872
3157000000,-8.9787273,209.02835
3158000000,-8.9728174,208.94902
3159000000,-8.9468527,208.86659
3160000000,-8.9256821,208.69443
3161000000,-8.9506073,208.56262
3162000000,-8.9058275,208.97092
3163000000,-8.9224358,208.59973
3164000000,-8.9038858,208.53125
3165000000,-8.8869886,208.5013
3166000000,-8.8905544,208.54633
3167000000,-8.8703718,208.59308
3168000000,-8.857564,208.32457
3169000000,-8.8503971,208.41319
3170000000,-8.8554468,208.34004
3171000000,-8.7931881,208.16484
3172000000,-8.8307657,208.22357
3173000000,-8.8021927,208.06699
3174000000,-8.7872896,208.0784
3175000000,-8.7945251,208.00206
3176000000,-8.7826157,208.09094
3177000000,-8.7771206,208.01775
3178000000,-8.6981611,207.95003
3179000000,-8.7174683,207.8858
3180000000,-8.6949396,207.80151
3181000000,-8.7050934,207.60715
3182000000,-8.6863575,207.55942
3183000000,-8.6757164,207.72787
3184000000,-8.6470394,207.51476
3185000000,-8.6268549,207.47952
3186000000,-8.6485081,207.22972
3187000000,-8.6102972,207.77126
3188000000,-8.6159639,207.51598
3189000000,-8.56709,207.41528
3190000000,-8.5979319,207.42513
3191000000,-8.5908499,207.04929
3192000000,-8.5934114,207.21294
3193000000,-8.6178493,207.11087
3194000000,-8.5702372,206.98244
3195000000,-8.5979042,207.05139
3196000000,-8.5525064,206.86099
3197000000,-8.5284777,206.73421
3198000000,-8.5001879,206.81485
3199000000,-8.5149136,206.73239
3200000000,-8.4462471,206.62578
3201000000,-8.4722013,206.59068
3202000000,-8.4598827,206.36244
3203000000,-8.4633894,206.6339
3204000000,-8.4168701,206.58995
3205000000,-8.3796768,206.60509
3206000000,-8.4489536,206.10764
3207000000,-8.4316273,206.23721
3208000000,-8.4175272,206.27379
3209000000,-8.4107485,206.09395
3210000000,-8.4060078,206.17697
3211000000,-8.3812227,206.01483
3212000000,-8.3695364,205.94305
3213000000,-8.3416843,206.00775
3214000000,-8.3619976,205.89467
3215000000,-8.3309631,205.71939
3216000000,-8.3304558,205.75748
3217000000,-8.3462391,205.62024
3218000000,-8.3124056,205.60329
3219000000,-8.31738,205.6693
3220000000,-8.2639017,205.32765
3221000000,-8.2592316,205.49796
3222000000,-8.2606382,205.54962
3223000000,-8.2770004,205.45212
3224000000,-8.2373323,205.19931
3225000000,-8.2614365,205.2572
3226000000,-8.2425251,205.34192
3227000000,-8.2633543,205.02225
3228000000,-8.1938133,204.97818
3229000000,-8.1974144,204.95995
3230000000,-8.2244196,205.08342
3231000000,-8.2115479,204.91232
3232000000,-8.1764832,205.18442
3233000000,-8.1913481,204.69882
3234000000,-8.1521864,204.4984
3235000000,-8.1524153,204.70871
3236000000,-8.1436863,204.6123
3237000000,-8.144619,204.50842
3238000000,-8.1633825,204.52821
3239000000,-8.1237335,204.56694
3240000000,-8.078681,204.26947
3241000000,-8.0269594,204.21889
3242000000,-8.058814,204.21812
3243000000,-8.0841284,204.0925
3244000000,-8.0216074,204.32414
3245000000,-8.022069,204.17186
3246000000,-8.0611191,204.20534
3247000000,-7.9990134,203.96371
3248000000,-8.0095425,204.06657
3249000000,-8.0038385,203.96527
3250000000,-8.0052547,203.74944
3251000000,-8.0194349,203.66328
3252000000,-7.9916129,203.48198
3253000000,-7.9799109,203.61748
3254000000,-7.9979925,203.54196
3255000000,-7.9366565,203.15671
3256000000,-7.9596786,203.44424
3257000000,-7.9523501,203.32686
3258000000,-7.8942628,203.34897
3259000000,-7.9266391,203.38684
3260000000,-7.9451952,203.02892
3261000000,-7.869164,203.10091
3262000000,-7.8743086,203.03905
3263000000,-7.9076133,202.88747
3264000000,-7.863349,203.10034
3265000000,-7.8938479,203.01534
3266000000,-7.8733597,203.00035
3267000000,-7.8581061,203.01561
3268000000,-7.8308988,202.93375
3269000000,-7.8474059,202.81149
3270000000,-7.8175416,202.64371
3271000000,-7.8222685,202.69716
3272000000,-7.8015232,202.69019
3273000000,-7.7960773,202.43845
3274000000,-7.7863088,202.48587
3275000000,-7.7376423,202.44621
3276000000,-7.786869,202.31792
3277000000,-7.7268391,202.11743
3278000000,-7.7664695,202.09935
3279000000,-7.7168908,202.0361
3280000000,-7.7024283,202.0838
3281000000,-7.7210436,201.83792
3282000000,-7.7265663,201.66354
3283000000,-7.7285976,201.83351
3284000000,-7.6820364,201.99725
3285000000,-7.6603479,201.8206
3286000000,-7.7187262,202.00444
3287000000,-7.6792355,201.62926
3288000000,-7.6375051,201.61871
3289000000,-7.6503725,201.38019
3290000000,-7.6774735,201.39632
3291000000,-7.6692247,201.35747
3292000000,-7.6275926,201.60303
3293000000,-7.6607895,201.3259
3294000000,-7.6242456,201.52049
3295000000,-7.595108,201.19247
3296000000,-7.6072407,200.99699
3297000000,-7.5764847,201.13495
3298000000,-7.5948462,201.08125
3299000000,-7.593533,200.93367
3300000000,-7.5599341,200.85513
3301000000,-7.5615201,200.68146
3302000000,-7.5542755,200.88281
3303000000,-7.5405169,200.57332
3304000000,-7.5335131,200.60258
3305000000,-7.5380659,200.78076
3306000000,-7.5273943,200.4446
3307000000,-7.5353723,200.55562
3308000000,-7.5014319,200.52264
3309000000,-7.4959116,200.57426
3310000000,-7.489831,200.4702
3311000000,-7.4877434,200.49298
3312000000,-7.4537082,200.38753
3313000000,-7.5037489,200.14845
3314000000,-7.4273558,200.25641
3315000000,-7.4476137,200.11797
3316000000,-7.4127011,199.9808
3317000000,-7.4103193,200.03741
3318000000,-7.400197,199.85582
3319000000,-7.4137092,199.82721
3320000000,-7.3746204,199.74364
3321000000,-7.3946877,199.65932
3322000000,-7.3737946,199.73024
3323000000,-7.3729038,199.7384
3324000000,-7.3514991,199.5972
3325000000,-7.3440614,199.61227
3326000000,-7.3221765,199.6899
3327000000,-7.3451428,199.21085
3328000000,-7.3456774,199.23817
3329000000,-7.3420043,199.22688
3330000000,-7.3368545,199.11777
3331000000,-7.2735906,199.11572
3332000000,-7.318531,199.33333
3333000000,-7.3133092,199.10645
3334000000,-7.3086057,198.97932
3335000000,-7.3011699,198.88145
3336000000,-7.2961564,198.82162
3337000000,-7.2058954,198.55693
3338000000,-7.2224178,198.73376
3339000000,-7.2372241,198.56943
3340000000,-7.2617755,198.78407
3341000000,-7.2411852,198.66092
3342000000,-7.2373347,198.60765
3343000000,-7.2115021,198.50002
3344000000,-7.2411914,198.26709
3345000000,-7.2183847,198.16898
3346000000,-7.185389,198.31885
3347000000,-7.1804156,198.27245
3348000000,-7.2047944,198.32304
3349000000,-7.184351,198.17186
3350000000,-7.1761913,198.30353
3351000000,-7.1743612,197.8934
3352000000,-7.1722331,197.8737
3353000000,-7.1612377,197.8676
3354000000,-7.1521907,198.04532
3355000000,-7.1389866,197.90768
3356000000,-7.1082554,197.87794
3357000000,-7.1071129,197.96904
3358000000,-7.0901017,197.59892
3359000000,-7.0720687,198.04115
3360000000,-7.1374602,197.65787
3361000000,-7.0803499,197.64795
3362000000,-7.0672464,197.54353
3363000000,-7.1177197,197.39142
3364000000,-7.0233026,197.42865
3365000000,-7.0733247,197.4446
3366000000,-7.0495219,197.42938
3367000000,-7.0285897,197.19289
3368000000,-7.0482397,197.32915
3369000000,-7.0109291,197.13727
3370000000,-7.0558095,197.2858
3371000000,-7.01581,197.12062
3372000000,-7.0147228,196.85445
3373000000,-6.9960289,196.96233
3374000000,-6.9913235,196.72168
3375000000,-6.9882522,196.63531
3376000000,-6.9581943,196.80981
3377000000,-6.9700561,196.69157
3378000000,-6.9202738,196.68379
3379000000,-6.9400272,196.64008
3380000000,-6.9649615,196.33691
3381000000,-6.9617758,196.63264
3382000000,-6.9412975,196.60095
3383000000,-6.9290423,196.08521
3384000000,-6.9146948,196.38623
3385000000,-6.9307156,196.15489
3386000000,-6.8773661,196.10704
3387000000,-6.8912387,196.18732
3388000000,-6.8846526,196.20126
3389000000,-6.9066801,196.01054
3390000000,-6.8979406,195.88362
3391000000,-6.8959293,195.91139
3392000000,-6.8367977,196.01517
3393000000,-6.8658762,196.00876
3394000000,-6.8648162,195.50171
3395000000,-6.8599019,195.66493
3396000000,-6.8243995,195.54469
3397000000,-6.7799587,195.60741
3398000000,-6.82934,195.52016
3399000000,-6.7946172,195.31389
3400000000,-6.7973948,195.44734
3401000000,-6.761704,195.37068
3402000000,-6.8020058,195.27213
3403000000,-6.8056087,195.10237
3404000000,-6.7943072,194.98915
3405000000,-6.7735724,195.05278
3406000000,-6.8008356,194.88853
3407000000,-6.7723536,195.06766
3408000000,-6.7386422,194.94881
3409000000,-6.7706633,194.93347
3410000000,-6.769855,194.9332
3411000000,-6.7154059,195.05569
3412000000,-6.7406359,194.64194
3413000000,-6.7565451,194.64981
3414000000,-6.7014375,194.72946
3415000000,-6.7238297,194.5255
3416000000,-6.7069397,194.37775
3417000000,-6.7066932,194.40782
3418000000,-6.697341,194.42804
3419000000,-6.6818562,194.38757
3420000000,-6.6893544,194.26494
3421000000,-6.6686463,194.1098
3422000000,-6.675159,194.09892
3423000000,-6.6665273,194.16644
3424000000,-6.6352983,194.06866
3425000000,-6.6096888,194.22096
3426000000,-6.6326451,193.85847
3427000000,-6.6436863,193.86235
3428000000,-6.6397362,193.90128
3429000000,-6.6005788,193.87929
3430000000,-6.6076269,193.90302
3431000000,-6.6193857,194.00774
3432000000,-6.5899768,193.65276
3433000000,-6.5895429,193.64539
3434000000,-6.5788527,193.65453
3435000000,-6.5636139,193.67632
3436000000,-6.5738511,193.56151
3437000000,-6.5568719,193.54065
3438000000,-6.561934,193.61806
3439000000,-6.5492067,193.26729
3440000000,-6.5350604,193.29202
3441000000,-6.5443602,193.2438
3442000000,-6.5325341,193.24019
3443000000,-6.5406413,193.2795
3444000000,-6.5212684,193.21841
3445000000,-6.5276861,192.97665
3446000000,-6.5566468,192.92397
3447000000,-6.5079818,192.86324
3448000000,-6.5138006,192.8963
3449000000,-6.4953117,192.8708
3450000000,-6.4419889,192.90742
3451000000,-6.4899707,192.71265
3452000000,-6.4513249,192.66396
3453000000,-6.4785724,192.80716
3454000000,-6.422091,192.68686
3455000000,-6.4672246,192.45218
3456000000,-6.4627762,192.49065
3457000000,-6.4830804,192.56659
3458000000,-6.4308143,192.2695
3459000000,-6.4359531,192.36002
3460000000,-6.4516315,192.3804
3461000000,-6.3854709,192.08917
3462000000,-6.458951,192.29218
3463000000,-6.4430866,192.11655
3464000000,-6.4115739,192.00801
3465000000,-6.4022441,192.00327
3466000000,-6.3902035,191.97794
3467000000,-6.3985233,191.96454
3468000000,-6.3663001,191.88745
3469000000,-6.3997598,191.90108
3470000000,-6.3678007,191.79178
3471000000,-6.3587503,191.70168
3472000000,-6.3565497,191.82253
3473000000,-6.33178,191.653
3474000000,-6.3160768,191.5139
3475000000,-6.3549504,191.6209
3476000000,-6.3550396,191.29765
3477000000,-6.3344092,191.29172
3478000000,-6.3426118,191.38757
3479000000,-6.3263011,191.3676
3480000000,-6.3321981,191.07097
3481000000,-6.330266,191.05489
3482000000,-6.3200212,191.29848
3483000000,-6.2969165,191.07549
3484000000,-6.3017788,190.97906
3485000000,-6.2723584,190.89624
3486000000,-6.2860055,190.80893
3487000000,-6.2755599,190.85181
3488000000,-6.2899952,190.97346
3489000000,-6.2495036,190.72061
3490000000,-6.2765493,190.64569
3491000000,-6.244494,190.54323
3492000000,-6.2569933,190.47757
3493000000,-6.2221246,190.75529
3494000000,-6.2489452,190.48756
3495000000,-6.2409644,190.43658
3496000000,-6.2607584,190.17081
3497000000,-6.2299089,190.3996
3498000000,-6.1751089,190.24084
3499000000,-6.2116828,190.5443
3500000000,-6.1914377,190.43228
3501000000,-6.1913362,189.97459
3502000000,-6.206614,190.13161
3503000000,-6.1790433,189.94104
3504000000,-6.1881113,189.89784
3505000000,-6.12784,190.06058
3506000000,-6.1757636,189.88643
3507000000,-6.1994638,189.82706
3508000000,-6.1853256,189.75575
3509000000,-6.1654978,189.8385
3510000000,-6.1469016,189.63188
3511000000,-6.1284032,189.57428
3512000000,-6.16781,189.76625
3513000000,-6.1433101,189.58817
3514000000,-6.134016,189.24461
3515000000,-6.1389046,189.30484
3516000000,-6.1051965,189.47784
3517000000,-6.10116,189.35405
3518000000,-6.0923138,189.33675
3519000000,-6.119041,189.13248
3520000000,-6.1014109,189.14757
3521000000,-6.0862384,188.97809
3522000000,-6.0976968,188.96954
3523000000,-6.1080246,189.10745
3524000000,-6.0966034,188.81287
3525000000,-6.100709,188.90707
3526000000,-6.0892296,189.2278
3527000000,-6.0789161,188.914
3528000000,-6.0502782,188.58498
3529000000,-6.0422802,188.7231
3530000000,-6.0667105,188.64804
3531000000,-6.0509133,188.4821
3532000000,-6.0351381,188.53839
3533000000,-6.0500512,188.39709
3534000000,-6.022038,188.36304
3535000000,-6.0208211,188.24773
3536000000,-6.0337944,188.3537
3537000000,-6.0111198,188.42189
3538000000,-6.0152302,188.38225
3539000000,-6.0301132,188.1678
3540000000,-6.0367131,188.0085
3541000000,-5.9994874,188.03026
3542000000,-5.9862766,188.02846
3543000000,-5.9827542,188.05612
3544000000,-5.9853663,187.79596
3545000000,-5.9742756,187.90353
3546000000,-5.9678345,187.73315
3547000000,-5.9832478,187.85118
3548000000,-5.9600091,187.58867
3549000000,-5.9353881,187.6575
3550000000,-5.9323025,187.77214
3551000000,-5.9502354,187.60924
3552000000,-5.9280338,187.58078
3553000000,-5.9215932,187.40981
3554000000,-5.9364204,187.5383
3555000000,-5.9418669,187.31898
3556000000,-5.9288998,187.29942
3557000000,-5.9286814,187.32527
3558000000,-5.9478092,187.31505
3559000000,-5.9067736,187.10579
3560000000,-5.9242239,187.05675
3561000000,-5.9230518,186.91765
3562000000,-5.920927,186.85527
3563000000,-5.9072032,186.87634
3564000000,-5.8817062,186.95001
3565000000,-5.8549318,186.91443
3566000000,-5.8915415,186.91223
3567000000,-5.8685827,186.61433
3568000000,-5.8852754,186.76071
3569000000,-5.8596492,186.54236
3570000000,-5.896565,186.46423
3571000000,-5.9116626,186.42557
3572000000,-5.8596015,186.67233
3573000000,-5.8930216,186.27032
3574000000,-5.8225546,186.32361
3575000000,-5.8525329,186.27452
3576000000,-5.827795,186.25832
3577000000,-5.848886,186.28369
3578000000,-5.8505597,185.88754
3579000000,-5.8528962,186.09944
3580000000,-5.8222809,186.04668
3581000000,-5.8143582,185.91519
3582000000,-5.823607,185.94971
3583000000,-5.8145161,185.9382
3584000000,-5.8252859,185.72
3585000000,-5.78193,185.62343
3586000000,-5.7940526,185.71712
3587000000,-5.8145542,185.81726
3588000000,-5.7765827,185.78058
3589000000,-5.7722545,185.59529
3590000000,-5.7755194,185.61639
3591000000,-5.7629037,185.42244
3592000000,-5.7707767,185.51587
3593000000,-5.7863879,185.55591
3594000000,-5.7691135,185.54128
3595000000,-5.7649684,185.14084
3596000000,-5.752398,185.25215
3597000000,-5.7458138,185.14473
3598000000,-5.7557874,185.27034
3599000000,-5.7334046,185.22368
3600000000,-5.7577333,185.16997
3601000000,-5.7386026,185.01956
3602000000,-5.7324524,185.00604
3603000000,-5.7350121,184.82359
3604000000,-5.7193379,184.98946
3605000000,-5.7250843,184.8324
3606000000,-5.6821895,184.8165
3607000000,-5.7124143,184.68628
3608000000,-5.6764894,184.53149
3609000000,-5.7192802,184.83997
3610000000,-5.7170734,184.60291
3611000000,-5.6988058,184.50876
3612000000,-5.6936636,184.66313
3613000000,-5.7165165,184.44728
3614000000,-5.687849,184.51938
3615000000,-5.6639323,184.47775
3616000000,-5.6911273,184.50606
3617000000,-5.6658859,184.22926
3618000000,-5.6570983,184.27083
3619000000,-5.6414094,184.33076
3620000000,-5.6548572,184.16394
3621000000,-5.6372547,184.28392
3622000000,-5.6317902,184.05746
3623000000,-5.6484747,183.84961
3624000000,-5.6104231,184.05566
3625000000,-5.6544623,183.93498
3626000000,-5.6299548,184.00842
3627000000,-5.6249509,183.85222
3628000000,-5.6449423,183.99211
3629000000,-5.625267,183.69707
3630000000,-5.5984464,183.81421
3631000000,-5.6439028,183.73985
3632000000,-5.6064463,183.99913
3633000000,-5.6202011,183.49994
3634000000,-5.6325011,183.45934
3635000000,-5.5807095,183.73265
3636000000,-5.5887775,183.43625
3637000000,-5.6031303,183.35495
3638000000,-5.5906477,183.38428
3639000000,-5.6014471,183.32576
3640000000,-5.5817347,183.28966
3641000000,-5.5592399,183.09512
3642000000,-5.6141911,183.34091
3643000000,-5.5932374,183.12056
3644000000,-5.5785599,183.00101
3645000000,-5.583602,183.00482
3646000000,-5.5784211,182.9772
3647000000,-5.5766525,182.95316
3648000000,-5.5641456,182.75352
3649000000,-5.5556059,182.80051
3650000000,-5.5889721,182.78839
3651000000,-5.5510373,182.70378
3652000000,-5.5322704,182.79449
3653000000,-5.5528274,182.48778
3654000000,-5.5590053,182.57355
3655000000,-5.5548234,182.40154
3656000000,-5.5489407,182.69548
3657000000,-5.5514998,182.5596
3658000000,-5.5620947,182.36969
3659000000,-5.5226636,182.44125
3660000000,-5.5602522,182.46362
3661000000,-5.5468311,182.41006
3662000000,-5.5421152,182.29462
3663000000,-5.5167603,182.11153
3664000000,-5.5344391,182.08847
3665000000,-5.5020623,181.91348
3666000000,-5.5313745,182.28404
3667000000,-5.5377383,181.93942
3668000000,-5.5048418,181.89175
3669000000,-5.5237045,181.7466
3670000000,-5.4892707,181.80847
3671000000,-5.4824481,181.65329
3672000000,-5.506649,181.75876
3673000000,-5.4980631,181.59235
3674000000,-5.4832888,181.73109
3675000000,-5.4537597,181.47833
3676000000,-5.471437,181.55092
3677000000,-5.4802852,181.52962
3678000000,-5.4977446,181.43068
3679000000,-5.4786325,181.45551
3680000000,-5.4920173,181.49666
3681000000,-5.4990988,181.47467
3682000000,-5.4566479,181.24107
3683000000,-5.4673643,181.24533
3684000000,-5.4658966,181.116
3685000000,-5.457067,180.84076
3686000000,-5.4634528,181.00009
3687000000,-5.419745,180.93857
3688000000,-5.4742279,181.10321
3689000000,-5.4556727,180.83595
3690000000,-5.4647398,180.76314
3691000000,-5.4565291,180.85426
3692000000,-5.4364643,180.76955
3693000000,-5.4414396,180.82678
3694000000,-5.4250507,180.89853
3695000000,-5.4706478,180.48755
3696000000,-5.4123502,180.46204
3697000000,-5.4386115,180.25998
3698000000,-5.4227915,180.8127
3699000000,-5.4201593,180.63002
3700000000,-5.4536557,180.29288
3701000000,-5.4394345,180.17661
3702000000,-5.4058971,180.22639
3703000000,-5.3939157,180.3947
3704000000,-5.4152179,180.22237
3705000000,-5.3974853,180.07895
3706000000,-5.3748875,180.33173
3707000000,-5.3993196,180.03032
3708000000,-5.3734431,180.05467
3709000000,-5.3851104,180.21362
3710000000,-5.4071636,179.97952
3711000000,-5.3888535,179.87274
3712000000,-5.3663783,179.72675
3713000000,-5.3751502,179.68925
3714000000,-5.4007959,179.57765
3715000000,-5.3701859,179.71878
3716000000,-5.3696961,179.65927
3717000000,-5.3572054,179.67894
3718000000,-5.3636198,179.63264
3719000000,-5.3800817,179.5943
3720000000,-5.3800793,179.48123
3721000000,-5.3391109,179.59309
3722000000,-5.3470316,179.41994
3723000000,-5.3641791,179.367
3724000000,-5.3562632,179.35532
3725000000,-5.3370609,179.18967
3726000000,-5.3666863,179.22369
3727000000,-5.3716464,179.03174
3728000000,-5.3277798,179.19888
3729000000,-5.3403587,179.21007
3730000000,-5.3458643,178.96545
3731000000,-5.3160443,178.90906
3732000000,-5.3509226,178.91829
3733000000,-5.3130498,178.87859
3734000000,-5.3182898,178.56122
3735000000,-5.3462925,178.78036
3736000000,-5.3309517,178.84882
3737000000,-5.3292193,178.68272
3738000000,-5.3183675,178.70967
3739000000,-5.2980862,178.49986
3740000000,-5.3251939,178.5152
3741000000,-5.3343606,178.70145
3742000000,-5.2922244,178.53227
3743000000,-5.3033042,178.56595
3744000000,-5.2740841,178.49113
3745000000,-5.3289495,178.41344
3746000000,-5.2802343,178.02907
3747000000,-5.2987218,178.24635
3748000000,-5.3102679,178.11711
3749000000,-5.2669535,178.13304
3750000000,-5.2808404,178.26599
3751000000,-5.2671943,177.86148
3752000000,-5.2748847,178.06203
3753000000,-5.2761521,178.02513
3754000000,-5.2862606,178.07393
3755000000,-5.2640147,177.90533
3756000000,-5.2646751,177.89719
3757000000,-5.2516513,177.90273
3758000000,-5.2453117,177.78926
3759000000,-5.2540946,177.66971
3760000000,-5.2699594,177.73956
3761000000,-5.2338276,177.733
3762000000,-5.2398195,177.65926
3763000000,-5.2345991,177.48616
3764000000,-5.2644401,177.53366
3765000000,-5.2212014,177.4561
3766000000,-5.2211003,177.30148
3767000000,-5.2254696,177.38147
3768000000,-5.2269268,177.31166
3769000000,-5.245708,177.34853
3770000000,-5.195786,177.07921
3771000000,-5.2107859,177.26459
3772000000,-5.196012,177.16327
3773000000,-5.2201867,177.1678
3774000000,-5.2279611,177.11546
3775000000,-5.1972523,177.07101
3776000000,-5.2116642,177.1514
3777000000,-5.1962714,176.89806
3778000000,-5.1923761,176.77248
3779000000,-5.1824193,176.97789
3780000000,-5.2015567,176.72739
3781000000,-5.212368,176.73151
3782000000,-5.2294965,176.50746
3783000000,-5.186697,176.76689
3784000000,-5.2212915,176.87019
3785000000,-5.1590796,176.63974
3786000000,-5.2186809,176.63997
3787000000,-5.1856613,176.46214
3788000000,-5.1679153,176.49937
3789000000,-5.1359453,176.43909
3790000000,-5.1704302,176.40804
3791000000,-5.1660752,176.36752
3792000000,-5.1552892,176.26173
3793000000,-5.1529317,176.43922
3794000000,-5.1355243,176.29718
3795000000,-5.1529999,176.19542
3796000000,-5.1400557,176.20535
3797000000,-5.1748691,176.29941
3798000000,-5.1358204,176.19641
3799000000,-5.1361127,176.29208
3800000000,-5.1285286,176.05177
3801000000,-5.1461287,175.99304
3802000000,-5.1471577,175.90228
3803000000,-5.1340981,175.93539
3804000000,-5.1000714,175.82663
3805000000,-5.0941539,175.89626
3806000000,-5.1269884,175.75505
3807000000,-5.12288,175.64722
3808000000,-5.1011686,175.63092
3809000000,-5.1007066,175.70071
3810000000,-5.1087809,175.52605
3811000000,-5.0835686,175.69319
3812000000,-5.1232657,175.50845
3813000000,-5.1227031,175.45093
3814000000,-5.12713,175.39117
3815000000,-5.0882201,175.15431
3816000000,-5.1138654,175.30029
3817000000,-5.0747685,175.41016
3818000000,-5.1034894,175.2449
3819000000,-5.0948,175.25322
3820000000,-5.1182671,175.1376
3821000000,-5.1202378,175.32341
3822000000,-5.1025538,175.37149
3823000000,-5.0916562,175.14275
3824000000,-5.0949183,174.91878
3825000000,-5.0932813,174.92722
3826000000,-5.0832653,175.09665
3827000000,-5.085691,174.91492
3828000000,-5.0659032,175.00139
3829000000,-5.1059461,174.82317
3830000000,-5.08815,174.83528
3831000000,-5.0814114,174.76451
3832000000,-5.0887222,174.7887
3833000000,-5.0669942,174.73598
3834000000,-5.106154,174.80772
3835000000,-5.0536237,174.68991
3836000000,-5.0605764,174.55513
3837000000,-5.0688953,174.4893
3838000000,-5.0537753,174.2473
3839000000,-5.0421944,174.40112
3840000000,-5.058351,174.51399
3841000000,-5.0280557,174.1479
3842000000,-5.0370378,174.22887
3843000000,-5.0673523,174.10864
3844000000,-5.0345244,174.00111
3845000000,-5.0462313,174.06429
3846000000,-5.0335259,173.88228
3847000000,-5.0437341,174.11162
3848000000,-4.9769216,174.08685
3849000000,-5.0204253,173.86304
3850000000,-5.0431547,173.82533
3851000000,-5.0352755,173.96515
3852000000,-5.0270519,174.10713
3853000000,-4.9945521,173.57726
3854000000,-5.0535078,173.6682
3855000000,-5.0145135,173.58104
3856000000,-5.0158749,173.75993
3857000000,-5.0273218,173.75439
3858000000,-5.0025449,173.57677
3859000000,-5.0366001,173.66544
3860000000,-5.0071816,173.41624
3861000000,-5.0095286,173.65811
3862000000,-5.0171041,173.4599
3863000000,-4.9546738,173.33939
3864000000,-4.9903202,173.20267
3865000000,-5.008637,173.35942
3866000000,-4.9658365,173.46713
3867000000,-5.0254021,173.24249
3868000000,-4.9791889,173.06099
3869000000,-4.9762573,173.10963
3870000000,-4.9801655,173.18311
3871000000,-4.9683185,172.97371
3872000000,-4.9886231,173.0807
3873000000,-4.953218,173.03395
3874000000,-4.989727,172.97501
3875000000,-4.9854608,172.88243
3876000000,-4.9694338,172.80435
3877000000,-4.9649153,172.7805
3878000000,-4.9781775,173.09918
3879000000,-4.9537868,172.9034
3880000000,-4.9370003,172.69173
3881000000,-4.9504738,172.6179
3882000000,-4.9437184,172.6319
3883000000,-4.9550796,172.46103
3884000000,-4.9306817,172.66093
3885000000,-4.9380364,172.43033
3886000000,-4.9658098,172.50742
3887000000,-4.973774,172.45792
3888000000,-4.9548883,172.4404
3889000000,-4.9511261,172.40004
3890000000,-4.9684062,172.50433
3891000000,-4.9547272,172.11165
3892000000,-4.9417367,172.26318
3893000000,-4.9398379,172.18111
3894000000,-4.9086766,171.96368
3895000000,-4.9433441,172.40533
3896000000,-4.9540963,172.10185
3897000000,-4.925787,172.02112
3898000000,-4.9704027,172.10817
3899000000,-4.9302053,171.90227
3900000000,-4.9305387,171.84122
3901000000,-4.9494729,171.95238
3902000000,-4.904799,171.79688
3903000000,-4.9113832,171.94569
3904000000,-4.9396458,171.83742
3905000000,-4.9412498,171.73964
3906000000,-4.9038,171.86661
3907000000,-4.9087062,171.73958
3908000000,-4.9278283,171.62909
3909000000,-4.9251833,171.49321
3910000000,-4.9007144,171.29552
3911000000,-4.9124246,171.59172
3912000000,-4.8691082,171.70033
3913000000,-4.8911014,171.39812
3914000000,-4.9145055,171.38988
3915000000,-4.8888779,171.3484
3916000000,-4.8792949,171.28107
3917000000,-4.8659444,171.4156
3918000000,-4.9016967,171.41786
3919000000,-4.9056025,171.14879
3920000000,-4.921783,170.7412
3921000000,-4.8841615,171.07208
3922000000,-4.8911071,171.05951
3923000000,-4.9042883,171.1369
3924000000,-4.880188,171.05869
3925000000,-4.9037886,170.95607
3926000000,-4.8826509,170.81897
3927000000,-4.8750916,170.97737
3928000000,-4.8811297,170.81224
3929000000,-4.8927283,170.76755
3930000000,-4.8686724,170.89392
3931000000,-4.9030299,170.7486
3932000000,-4.8766308,170.72437
3933000000,-4.8944554,170.67383
3934000000,-4.8729267,170.42148
3935000000,-4.893158,170.57739
3936000000,-4.8664918,170.49452
3937000000,-4.8871346,170.53177
3938000000,-4.8870182,170.32137
3939000000,-4.8920898,170.41693
3940000000,-4.893609,170.3446
3941000000,-4.8460588,170.46002
3942000000,-4.8907475,170.25572
3943000000,-4.8819461,170.09975
3944000000,-4.8799214,170.01999
3945000000,-4.8831868,170.08347
3946000000,-4.8553658,170.02269
3947000000,-4.8550644,170.07063
3948000000,-4.8428631,170.03439
3949000000,-4.8356814,169.99118
3950000000,-4.8394575,169.94882
3951000000,-4.8458004,169.72415
3952000000,-4.8520265,169.73634
3953000000,-4.8634009,169.77621
3954000000,-4.8320608,169.76321
3955000000,-4.8368039,169.70456
3956000000,-4.8223362,169.7099
3957000000,-4.8377342,169.51801
3958000000,-4.8130288,169.46117
3959000000,-4.827105,169.41344
3960000000,-4.8219218,169.4754
3961000000,-4.8371282,169.49113
3962000000,-4.8412542,169.42334
3963000000,-4.8523951,169.38834
3964000000,-4.8053808,169.32465
3965000000,-4.7885027,169.36299
3966000000,-4.8110933,169.34225
3967000000,-4.8179407,169.28429
3968000000,-4.7985616,169.11353
3969000000,-4.8216047,169.11945
3970000000,-4.8732781,169.0955
3971000000,-4.8128657,169.08873
3972000000,-4.8117232,169.06996
3973000000,-4.816154,169.13113
3974000000,-4.7737837,169.05116
3975000000,-4.811305,168.9398
3976000000,-4.7819996,168.664
3977000000,-4.8009982,168.84003
3978000000,-4.7713046,168.88118
3979000000,-4.8200946,168.73697
3980000000,-4.7902017,168.69661
3981000000,-4.7727337,168.61005
3982000000,-4.807425,168.569
3983000000,-4.8015032,168.63727
3984000000,-4.7722669,168.69688
3985000000,-4.8087358,168.42221
3986000000,-4.8068194,168.62529
3987000000,-4.7848287,168.70581
3988000000,-4.7846136,168.26015
3989000000,-4.7736092,168.47455
3990000000,-4.8003187,168.32172
3991000000,-4.7884922,168.33693
3992000000,-4.7971425,168.26244
3993000000,-4.7638378,168.21097
3994000000,-4.7890835,168.24341
3995000000,-4.8102736,168.20219
3996000000,-4.7658563,168.25337
3997000000,-4.7823725,167.9865
3998000000,-4.776176,167.98851
3999000000,-4.769248,167.93951
4000000000,-4.7724195,167.77272
4001000000,-4.7499361,167.90657
4002000000,-4.7538691,167.88942
4003000000,-4.772943,167.92044
4004000000,-4.7837687,167.85095
4005000000,-4.7719569,167.72675
4006000000,-4.7450871,167.67412
4007000000,-4.753037,167.70482
4008000000,-4.7409406,167.52985
4009000000,-4.7592502,167.63829
4010000000,-4.7545972,167.43294
4011000000,-4.7279139,167.64635
4012000000,-4.7580829,167.84157
4013000000,-4.7350478,167.3989
4014000000,-4.7340689,167.52646
4015000000,-4.7400489,167.25536
4016000000,-4.7509623,167.27704
4017000000,-4.7138,167.21559
4018000000,-4.7443123,167.26491
4019000000,-4.7286162,167.0903
4020000000,-4.7141151,167.17061
4021000000,-4.7342906,167.1841
4022000000,-4.7372756,167.17836
4023000000,-4.7252183,167.0851
4024000000,-4.7313228,167.23015
4025000000,-4.7501802,166.92039
4026000000,-4.7526588,166.83275
4027000000,-4.7373266,167.04961
4028000000,-4.7420001,167.06133
4029000000,-4.7183995,166.7968
4030000000,-4.7108016,166.68654
4031000000,-4.7084217,166.95503
4032000000,-4.6877999,166.72983
4033000000,-4.7045884,166.7191
4034000000,-4.6782804,166.55516
4035000000,-4.691103,166.62981
4036000000,-4.6817141,166.63005
4037000000,-4.6811414,166.71773
4038000000,-4.6812592,166.51375
4039000000,-4.7059665,166.49806
4040000000,-4.6716614,166.4865
4041000000,-4.7000322,166.44643
4042000000,-4.6757445,166.36041
4043000000,-4.6722016,166.40762
4044000000,-4.6799502,166.46848
4045000000,-4.6692815,166.25127
4046000000,-4.6849227,166.20503
4047000000,-4.6514573,166.28842
4048000000,-4.6632237,166.21356
4049000000,-4.6791534,166.30382
4050000000,-4.6586871,166.15952
4051000000,-4.6393113,166.08655
4052000000,-4.6308494,165.96722
4053000000,-4.6542006,165.90062
4054000000,-4.6967735,165.98108
4055000000,-4.6680799,165.92285
4056000000,-4.6586828,165.83725
4057000000,-4.650269,165.87427
4058000000,-4.6336136,165.77901
4059000000,-4.6447644,165.6805
4060000000,-4.6475472,165.63138
4061000000,-4.637486,165.8107
4062000000,-4.6428061,165.72874
4063000000,-4.6478367,165.69887
4064000000,-4.6499934,165.5466
4065000000,-4.620471,165.6981
4066000000,-4.6648116,165.47821
4067000000,-4.6324029,165.47099
4068000000,-4.6362152,165.4894
4069000000,-4.6314516,165.40324
4070000000,-4.6325483,165.4379
4071000000,-4.6331916,165.23683
4072000000,-4.6133208,165.4245
4073000000,-4.6475539,165.31329
4074000000,-4.6227908,165.17558
4075000000,-4.6161137,165.35526
4076000000,-4.6110673,165.3862
4077000000,-4.6285152,165.29834
4078000000,-4.6166039,164.99982
4079000000,-4.6215286,164.95799
4080000000,-4.6113071,165.05637
4081000000,-4.6214476,165.08505
4082000000,-4.6267805,164.76454
4083000000,-4.5777106,164.59224
4084000000,-4.5826592,164.97104
4085000000,-4.5859709,164.84935
4086000000,-4.6006007,164.82115
4087000000,-4.6195679,164.71562
4088000000,-4.6068377,164.98422
4089000000,-4.6012115,164.62564
4090000000,-4.5965981,164.7886
4091000000,-4.5932183,164.65088
4092000000,-4.5981164,164.59752
4093000000,-4.5815349,164.36565
4094000000,-4.5899644,164.44368
4095000000,-4.5807505,164.21022
4096000000,-4.5812454,164.42653
4097000000,-4.5704031,164.59068
4098000000,-4.5783801,164.25923
4099000000,-4.595499,164.30225
4100000000,-4.6001425,164.30714
4101000000,-4.5708914,164.40601
4102000000,-4.5614076,164.11218
4103000000,-4.5866923,164.22397
4104000000,-4.5653424,163.92273
4105000000,-4.5516329,163.92471
4106000000,-4.581727,164.02603
4107000000,-4.5704956,163.79358
4108000000,-4.615602,163.83315
4109000000,-4.5523629,163.94926
4110000000,-4.5534739,163.67502
4111000000,-4.5684915,163.85463
4112000000,-4.557158,163.64052
4113000000,-4.5574341,163.73523
4114000000,-4.5733085,163.66145
4115000000,-4.5595155,163.65846
4116000000,-4.571198,163.45793
4117000000,-4.5555444,163.62645
4118000000,-4.5901661,163.34985
4119000000,-4.547585,163.30585
4120000000,-4.5489564,163.49834
4121000000,-4.5646954,163.44852
4122000000,-4.534965,163.394
4123000000,-4.5359564,163.37593
4124000000,-4.5391269,163.22023
4125000000,-4.5575051,163.01619
4126000000,-4.5474372,163.14185
4127000000,-4.5308566,163.06654
4128000000,-4.5181465,163.10794
4129000000,-4.5283771,162.89568
4130000000,-4.5457649,163.04704
4131000000,-4.5382981,162.84402
4132000000,-4.5416155,162.93065
4133000000,-4.5340133,162.86836
4134000000,-4.5293078,162.80609
4135000000,-4.5288439,162.7704
4136000000,-4.5163856,162.73201
4137000000,-4.516314,162.69861
4138000000,-4.5312595,162.59792
4139000000,-4.5117936,162.59979
4140000000,-4.5371041,162.56006
4141000000,-4.5255818,162.59599
4142000000,-4.5141072,162.56616
4143000000,-4.528326,162.55716
4144000000,-4.5127311,162.34251
4145000000,-4.5036941,162.39891
4146000000,-4.523839,162.20059
4147000000,-4.5054507,162.24837
4148000000,-4.5207052,162.36009
4149000000,-4.5225229,162.30644
4150000000,-4.4989958,162.30493
4151000000,-4.4907084,162.09485
4152000000,-4.5398536,162.25841
4153000000,-4.5100489,162.07033
4154000000,-4.5086832,162.00468
4155000000,-4.5061188,162.06743
4156000000,-4.5179505,162.15633
4157000000,-4.5176091,162.07072
4158000000,-4.4672117,161.83928
4159000000,-4.4847136,161.67616
4160000000,-4.5039129,161.60115
4161000000,-4.5102005,161.53452
4162000000,-4.4977384,161.82213
4163000000,-4.4874487,161.70676
4164000000,-4.4943714,161.63152
4165000000,-4.5097966,161.57063
4166000000,-4.4878688,161.70532
4167000000,-4.4768033,161.61586
4168000000,-4.5104151,161.35185
4169000000,-4.4916759,161.43156
4170000000,-4.4881277,161.22815
4171000000,-4.4816141,161.23668
4172000000,-4.460381,161.27228
4173000000,-4.4675074,161.2253
4174000000,-4.4725409,161.20459
4175000000,-4.4805908,161.13437
4176000000,-4.4477639,161.14696
4177000000,-4.4817476,161.04558
4178000000,-4.4673843,161.10342
4179000000,-4.4666605,161.09169
4180000000,-4.4895358,161.01341
4181000000,-4.4884858,160.79155
4182000000,-4.4802036,160.96663
4183000000,-4.4793239,160.97809
4184000000,-4.501245,160.67331
4185000000,-4.4606481,160.81863
4186000000,-4.4585199,160.62611
4187000000,-4.4514523,160.54683
4188000000,-4.4719825,160.64125
4189000000,-4.4873056,160.43318
4190000000,-4.4435039,160.68843
4191000000,-4.4685669,160.49315
4192000000,-4.4833875,160.31982
4193000000,-4.4498348,160.49675
4194000000,-4.4676852,160.39177
4195000000,-4.4689946,160.32501
4196000000,-4.4540396,160.32123
4197000000,-4.471169,160.25873
4198000000,-4.4645,160.21642
4199000000,-4.4836941,160.27328
4200000000,-4.4631023,159.91614
4201000000,-4.4738851,160.14546
4202000000,-4.4707484,160.3009
4203000000,-4.455471,159.94212
4204000000,-4.4333596,159.8138
4205000000,-4.4441895,159.89301
4206000000,-4.4569001,159.9278
4207000000,-4.4381499,159.71474
4208000000,-4.4266467,159.70537
4209000000,-4.444243,159.86922
4210000000,-4.4362397,159.67398
4211000000,-4.4262958,159.72195
4212000000,-4.454813,159.72679
4213000000,-4.4578161,159.61998
4214000000,-4.4094567,159.52438
4215000000,-4.4251084,159.49715
4216000000,-4.4514894,159.40694
4217000000,-4.4110203,159.44267
4218000000,-4.4162321,159.3345
4219000000,-4.415163,159.30093
4220000000,-4.4448237,159.27171
4221000000,-4.4224062,159.32248
4222000000,-4.4248953,159.24982
4223000000,-4.4242091,159.15205
4224000000,-4.4288616,158.97995
4225000000,-4.4267063,158.99155
4226000000,-4.4261355,159.01118
4227000000,-4.4169445,158.96973
4228000000,-4.4378204,158.87764
4229000000,-4.4289021,158.79784
4230000000,-4.4107661,158.93712
4231000000,-4.4321871,158.71875
4232000000,-4.4018559,158.85959
4233000000,-4.4547143,158.61934
4234000000,-4.4158912,158.71397
4235000000,-4.425714,158.76537
4236000000,-4.4304314,158.52318
4237000000,-4.4596868,158.69545
4238000000,-4.4505897,158.67526
4239000000,-4.4322119,158.43549
4240000000,-4.4173803,158.5451
4241000000,-4.4409533,158.3717
4242000000,-4.427238,158.6189
4243000000,-4.4289818,158.30197
4244000000,-4.4439983,158.25061
4245000000,-4.4315739,158.20178
4246000000,-4.4228888,158.22574
4247000000,-4.4127655,158.4173
4248000000,-4.4326544,158.13884
4249000000,-4.4446549,158.09866
4250000000,-4.4244685,158.20978
4251000000,-4.4129639,158.04517
4252000000,-4.4374013,157.89803
4253000000,-4.4260149,157.88702
4254000000,-4.4164901,157.90002
4255000000,-4.4272699,158.1084
4256000000,-4.4123268,157.77554
4257000000,-4.3926578,157.79257
4258000000,-4.4189649,157.77661
4259000000,-4.4064493,157.78857
4260000000,-4.4158883,157.7482
4261000000,-4.4081259,157.64479
4262000000,-4.4086256,157.60046
4263000000,-4.4105501,157.73196
4264000000,-4.4173746,157.57481
4265000000,-4.4260483,157.78387
4266000000,-4.4208555,157.49088
4267000000,-4.4345727,157.53058
4268000000,-4.4278588,157.49602
4269000000,-4.385745,157.35431
4270000000,-4.3902512,157.32866
4271000000,-4.4085569,157.34666
4272000000,-4.4004846,157.27379
4273000000,-4.4066749,157.173
4274000000,-4.421236,157.20393
4275000000,-4.3862939,157.15378
4276000000,-4.3589115,157.27104
4277000000,-4.4018984,157.1355
4278000000,-4.4180388,156.96509
4279000000,-4.4046698,156.89882
4280000000,-4.4211693,156.94917
4281000000,-4.4051085,156.90074
4282000000,-4.4333749,156.7823
4283000000,-4.4012246,156.96552
4284000000,-4.4005408,156.76646
4285000000,-4.3924117,156.92812
4286000000,-4.4206047,156.75603
4287000000,-4.396368,156.7047
4288000000,-4.4069452,156.62463
4289000000,-4.4022789,156.72832
4290000000,-4.3797841,156.62836
4291000000,-4.4029827,156.51047
4292000000,-4.3897996,156.42244
4293000000,-4.3855319,156.49913
4294000000,-4.3788085,156.392
4295000000,-4.4160028,156.42203
4296000000,-4.3962407,156.45667
4297000000,-4.3835077,156.28429
4298000000,-4.4105721,156.35895
4299000000,-4.4027386,156.24657
4300000000,-4.3823776,156.29716
4301000000,-4.3973284,156.21581
4302000000,-4.3759685,156.19455
4303000000,-4.3662357,156.10878
4304000000,-4.3980079,156.12263
4305000000,-4.3833742,156.01634
4306000000,-4.3915753,155.9921
4307000000,-4.3857121,156.07455
4308000000,-4.3723435,155.97476
4309000000,-4.3539696,156.02776
4310000000,-4.3711386,155.86607
4311000000,-4.3740172,155.87215
4312000000,-4.3657827,155.81262
4313000000,-4.3588581,155.82002
4314000000,-4.3520293,155.67186
4315000000,-4.3594422,155.49651
4316000000,-4.357636,155.54706
4317000000,-4.3652639,155.39165
4318000000,-4.3588505,155.69778
4319000000,-4.3583312,155.32027
4320000000,-4.3567834,155.56544
4321000000,-4.3416681,155.31158
4322000000,-4.3869863,155.24586
4323000000,-4.3959141,155.47345
4324000000,-4.3498545,155.26881
4325000000,-4.3489299,155.22475
4326000000,-4.3618774,155.25684
4327000000,-4.3373694,155.12305
4328000000,-4.352458,155.24539
4329000000,-4.3459949,155.01682
4330000000,-4.3620777,155.08575
4331000000,-4.3497477,154.96109
4332000000,-4.3473754,154.88155
4333000000,-4.3338389,154.93781
4334000000,-4.3497763,154.76474
4335000000,-4.3396311,154.75679
4336000000,-4.3563175,154.77914
4337000000,-4.340178,154.83734
4338000000,-4.3494391,154.78262
4339000000,-4.341917,154.7043
4340000000,-4.3637438,154.6974
4341000000,-4.3762469,154.66486
4342000000,-4.3552589,154.53058
4343000000,-4.3512411,154.67891
4344000000,-4.3542929,154.38298
4345000000,-4.3742142,154.3869
4346000000,-4.3523817,154.46356
4347000000,-4.3221879,154.61884
4348000000,-4.3433933,154.32977
4349000000,-4.3217912,154.34804
4350000000,-4.3355618,154.31882
4351000000,-4.341485,154.18285
4352000000,-4.352355,154.26141
4353000000,-4.3263927,154.1377
4354000000,-4.3582897,153.97604
4355000000,-4.365015,154.04012
4356000000,-4.3671827,154.03889
4357000000,-4.3471813,153.96529
4358000000,-4.3431249,153.9175
4359000000,-4.3452477,153.84691
4360000000,-4.3580475,153.87843
4361000000,-4.3467932,153.93463
4362000000,-4.3533835,153.58606
4363000000,-4.32971,153.84311
4364000000,-4.3396506,153.59389
4365000000,-4.3478966,153.58861
4366000000,-4.3629122,153.55139
4367000000,-4.3487968,153.53996
4368000000,-4.3370085,153.35463
4369000000,-4.3587227,153.40334
4370000000,-4.3145318,153.38802
4371000000,-4.3386798,153.31848
4372000000,-4.3387294,153.4171
4373000000,-4.3386021,153.42809
4374000000,-4.3337755,153.27072
4375000000,-4.3380928,153.11053
4376000000,-4.3231478,153.13622
4377000000,-4.3246055,153.03732
4378000000,-4.3376503,152.98759
4379000000,-4.3421478,152.89566
4380000000,-4.3285398,153.03964
4381000000,-4.3371329,152.85101
4382000000,-4.3385997,152.77376
4383000000,-4.3292298,152.845
4384000000,-4.3197737,152.77834
4385000000,-4.3382406,152.6825
4386000000,-4.3459907,152.62912
4387000000,-4.331039,152.58586
4388000000,-4.3427863,152.6579
4389000000,-4.3516927,152.5554
4390000000,-4.3232708,152.32504
4391000000,-4.3358026,152.53618
4392000000,-4.3129959,152.29468
4393000000,-4.31321,152.26367
4394000000,-4.327147,152.40201
4395000000,-4.3408756,152.35103
4396000000,-4.3335657,152.16057
4397000000,-4.3496428,152.25841
4398000000,-4.328979,152.17613
4399000000,-4.3494034,152.26859
4400000000,-4.3488669,151.94856
4401000000,-4.3426795,151.94377
4402000000,-4.3410478,151.93167
4403000000,-4.3326201,151.71925
4404000000,-4.3600349,151.66127
4405000000,-4.3585153,151.88443
4406000000,-4.3515787,151.75069
4407000000,-4.3317494,151.70831
4408000000,-4.2896824,151.52455
4409000000,-4.2999997,151.55345
4410000000,-4.3415818,151.65056
4411000000,-4.3421001,151.38788
4412000000,-4.3209529,151.41194
4413000000,-4.3198729,151.41676
4414000000,-4.3320732,151.36566
4415000000,-4.3465505,151.40878
4416000000,-4.311656,151.32574
4417000000,-4.3617997,151.38791
4418000000,-4.3688159,151.15909
4419000000,-4.3353062,151.16818
4420000000,-4.3171782,151.08308
4421000000,-4.3420153,151.1669
4422000000,-4.309629,151.1265
4423000000,-4.3251343,151.02548
4424000000,-4.3379464,151.06351
4425000000,-4.3297586,150.91832
4426000000,-4.3084693,150.89389
4427000000,-4.3474321,150.84454
4428000000,-4.3590708,150.68958
4429000000,-4.3121572,150.74821
4430000000,-4.3323965,150.59433
4431000000,-4.3363786,150.64552
4432000000,-4.3370175,150.66074
4433000000,-4.2995834,150.62308
4434000000,-4.343163,150.61169
4435000000,-4.3165946,150.23431
4436000000,-4.3251085,150.35632
4437000000,-4.3300996,150.28693
4438000000,-4.3218265,150.28708
4439000000,-4.3281593,150.35515
4440000000,-4.3458915,150.17152
4441000000,-4.3201799,150.14558
4442000000,-4.3222833,150.09831
4443000000,-4.3461957,150.01779
4444000000,-4.3510427,150.00603
4445000000,-4.3366127,149.93193
4446000000,-4.3276834,149.91843
4447000000,-4.3417826,149.92349
4448000000,-4.349721,149.79485
4449000000,-4.3740897,149.71384
4450000000,-4.345211,149.88409
4451000000,-4.3525605,149.70174
4452000000,-4.3268824,149.57936
4453000000,-4.3320537,149.50906
4454000000,-4.3489404,149.43896
4455000000,-4.3398013,149.57094
4456000000,-4.3482685,149.38844
4457000000,-4.3485131,149.4232
4458000000,-4.3467083,149.27415
4459000000,-4.3572564,149.16667
4460000000,-4.3543572,149.28577
4461000000,-4.3632526,149.32849
4462000000,-4.3706694,149.33896
4463000000,-4.3548117,149.17464
4464000000,-4.3713427,149.10649
4465000000,-4.3439837,149.17316
4466000000,-4.3442559,149.05249
4467000000,-4.3509712,148.88676
4468000000,-4.3767934,148.78409
4469000000,-4.3336349,148.85835
4470000000,-4.3618217,148.90231
4471000000,-4.3647838,148.79512
4472000000,-4.3580194,148.74393
4473000000,-4.3443995,148.63635
4474000000,-4.3637061,148.78052
4475000000,-4.3411756,148.5614
4476000000,-4.3451419,148.4883
4477000000,-4.3547068,148.51746
4478000000,-4.3463182,148.36148
4479000000,-4.3474226,148.55457
4480000000,-4.3387642,148.29424
4481000000,-4.3576427,148.41342
4482000000,-4.3632817,148.32838
4483000000,-4.3625698,148.19894
4484000000,-4.3589096,148.2144
4485000000,-4.3700609,148.10898
4486000000,-4.3524818,147.90532
4487000000,-4.3403745,148.10513
4488000000,-4.356739,147.85725
4489000000,-4.3657126,147.95958
4490000000,-4.3716373,147.76781
4491000000,-4.3841782,147.81407
4492000000,-4.380403,147.7536
4493000000,-4.3455501,147.74724
4494000000,-4.362124,147.69904
4495000000,-4.3641944,147.80923
4496000000,-4.3470273,147.69048
4497000000,-4.3599715,147.58064
4498000000,-4.3467474,147.67159
4499000000,-4.3722415,147.39719
4500000000,-4.3745251,147.51509
4501000000,-4.3790979,147.25278
4502000000,-4.3458614,147.18277
4503000000,-4.3585644,147.35709
4504000000,-4.378839,147.36467
4505000000,-4.3872051,147.31918
4506000000,-4.3757577,147.08134
4507000000,-4.3848219,147.08783
4508000000,-4.4148693,147.04938
4509000000,-4.3839803,147.00764
4510000000,-4.386889,147.1077
4511000000,-4.3909092,146.98332
4512000000,-4.4039059,146.97087
4513000000,-4.3922429,146.96451
4514000000,-4.3696542,146.66608
4515000000,-4.4096589,146.75742
4516000000,-4.420166,146.6107
4517000000,-4.3978291,146.70793
4518000000,-4.4083624,146.6301
4519000000,-4.4141564,146.59406
4520000000,-4.371573,146.50914
4521000000,-4.420475,146.562
4522000000,-4.3963504,146.42276
4523000000,-4.4105592,146.46713
4524000000,-4.4268007,146.47325
4525000000,-4.4055481,146.26331
4526000000,-4.4383483,146.16463
4527000000,-4.4259992,146.1118
4528000000,-4.4420867,146.17638
4529000000,-4.420476,146.03593
4530000000,-4.4298077,146.01144
4531000000,-4.4365163,145.93018
4532000000,-4.4183517,146.04831
4533000000,-4.4134283,145.95039
4534000000,-4.4196281,145.84554
4535000000,-4.4254084,145.88263
4536000000,-4.4331026,145.81508
4537000000,-4.4392271,145.67856
4538000000,-4.4479818,145.5882
4539000000,-4.4291987,145.76297
4540000000,-4.4075279,145.62665
4541000000,-4.4442492,145.68999
4542000000,-4.4572778,145.66142
4543000000,-4.4107475,145.42975
4544000000,-4.422276,145.40582
4545000000,-4.4585013,145.3867
4546000000,-4.4662943,145.27858
4547000000,-4.4245763,145.24864
4548000000,-4.404295,145.20271
4549000000,-4.4417109,145.19499
4550000000,-4.4598937,145.26187
4551000000,-4.4607892,145.06868
4552000000,-4.4603839,145.10497
4553000000,-4.4383984,145.04863
4554000000,-4.4687839,145.06293
4555000000,-4.4879284,144.99046
4556000000,-4.4437332,145.06993
4557000000,-4.4677706,144.94949
4558000000,-4.4340911,144.88086
4559000000,-4.4743271,144.66907
4560000000,-4.471292,144.72147
4561000000,-4.4719572,144.62779
4562000000,-4.4452295,144.70122
4563000000,-4.4847555,144.60068
4564000000,-4.5104256,144.66415
4565000000,-4.4683542,144.75534
4566000000,-4.4900384,144.60059
4567000000,-4.4515228,144.38785
4568000000,-4.4811926,144.47736
4569000000,-4.4686031,144.40503
4570000000,-4.4742608,144.36655
4571000000,-4.4746585,144.48943
4572000000,-4.4827766,144.46713
4573000000,-4.4672537,144.22913
4574000000,-4.4924011,144.19249
4575000000,-4.4878263,144.1438
4576000000,-4.469378,144.11919
4577000000,-4.4799337,144.16605
4578000000,-4.4709558,144.1609
4579000000,-4.4566383,143.97778
4580000000,-4.4569263,143.9202
4581000000,-4.5014129,143.82664
4582000000,-4.4650335,143.70763
4583000000,-4.5073442,143.80798
4584000000,-4.4799671,143.83116
4585000000,-4.4828534,143.91367
4586000000,-4.478632,143.57092
4587000000,-4.4848833,143.74672
4588000000,-4.5087223,143.64896
4589000000,-4.5003242,143.58842
4590000000,-4.4877524,143.6987
4591000000,-4.5022502,143.43353
4592000000,-4.5118332,143.40147
4593000000,-4.4972153,143.32074
4594000000,-4.5187254,143.33733
4595000000,-4.4911714,143.56514
4596000000,-4.5067596,143.40521
4597000000,-4.5142741,143.25418
4598000000,-4.4930215,143.37418
4599000000,-4.5027943,143.1689
4600000000,-4.5143175,143.00381
4601000000,-4.5239601,143.20926
4602000000,-4.5402451,142.94296
4603000000,-4.5187745,142.9176
4604000000,-4.5203705,142.90974
4605000000,-4.4953704,142.98198
4606000000,-4.5399747,142.90225
4607000000,-4.5305943,142.74445
4608000000,-4.5292358,142.64011
4609000000,-4.5437164,142.67232
4610000000,-4.5433116,142.7261
4611000000,-4.5200992,142.66267
4612000000,-4.5892015,142.40416
4613000000,-4.5529904,142.61952
4614000000,-4.5447159,142.44901
4615000000,-4.550385,142.20477
4616000000,-4.541204,142.60074
4617000000,-4.5592847,142.39432
4618000000,-4.5471897,142.58406
4619000000,-4.574574,142.38258
4620000000,-4.5629892,142.27223
4621000000,-4.5531526,142.23151
4622000000,-4.5860333,142.13365
4623000000,-4.5511727,142.17139
4624000000,-4.5553637,142.1451
4625000000,-4.5929313,142.02591
4626000000,-4.5986366,141.82489
4627000000,-4.5855041,142.05437
4628000000,-4.5541019,141.96071
4629000000,-4.5748272,141.65228
4630000000,-4.5907187,141.88374
4631000000,-4.6062188,141.86079
4632000000,-4.6006889,141.78014
4633000000,-4.5893011,141.7345
4634000000,-4.6003509,141.68698
4635000000,-4.6006188,141.64021
4636000000,-4.5954757,141.61821
4637000000,-4.5966015,141.58249
4638000000,-4.6306095,141.47897
4639000000,-4.6087885,141.42726
4640000000,-4.5984159,141.39713
4641000000,-4.6219521,141.57487
4642000000,-4.6094084,141.34947
4643000000,-4.6190152,141.26668
4644000000,-4.6022439,141.11607
4645000000,-4.601995,141.32703
4646000000,-4.6444731,141.1769
4647000000,-4.6405535,141.28914
4648000000,-4.6226668,140.82156
4649000000,-4.6327281,140.95309
4650000000,-4.6468687,140.95485
4651000000,-4.6048293,140.99954
4652000000,-4.6254196,140.66197
4653000000,-4.6476812,140.97768
4654000000,-4.6520095,140.91046
4655000000,-4.6521225,140.90779
4656000000,-4.6295609,140.67148
4657000000,-4.6577311,140.73828
4658000000,-4.6372848,140.82684
4659000000,-4.6306782,140.48303
4660000000,-4.6568866,140.82707
4661000000,-4.6482549,140.55786
4662000000,-4.6470122,140.49042
4663000000,-4.6921072,140.30945
4664000000,-4.6587214,140.429
4665000000,-4.6816092,140.46223
4666000000,-4.6681132,140.45399
4667000000,-4.6452699,140.3744
4668000000,-4.6629429,140.22362
4669000000,-4.6912599,140.54092
4670000000,-4.7031803,140.32439
4671000000,-4.6552529,140.02495
4672000000,-4.6937919,140.07964
4673000000,-4.6525097,140.23943
4674000000,-4.684804,140.0049
4675000000,-4.6906648,139.94815
4676000000,-4.6890163,139.80638
4677000000,-4.7139411,139.90608
4678000000,-4.6924992,139.97311
4679000000,-4.6901107,140.13301
4680000000,-4.6886244,139.87019
4681000000,-4.7054572,139.8622
4682000000,-4.7013955,139.62827
4683000000,-4.6793046,139.7291
4684000000,-4.6878252,139.74422
4685000000,-4.692708,139.71513
4686000000,-4.6990042,139.69682
4687000000,-4.7064548,139.6749
4688000000,-4.6989427,139.60481
4689000000,-4.7474828,139.51326
4690000000,-4.7228894,139.49696
4691000000,-4.6946359,139.43268
4692000000,-4.7122431,139.60947
4693000000,-4.725081,139.36636
4694000000,-4.7423744,139.37022
4695000000,-4.7369142,139.36658
4696000000,-4.7281313,139.0862
4697000000,-4.7403884,139.12926
4698000000,-4.7027755,139.26924
4699000000,-4.752996,139.1911
4700000000,-4.7459664,138.85532
4701000000,-4.7334075,138.89789
4702000000,-4.7348552,139.07544
4703000000,-4.7299604,139.16608
4704000000,-4.7581663,138.73241
4705000000,-4.7273641,138.85643
4706000000,-4.7638783,138.89256
4707000000,-4.7594786,138.86633
4708000000,-4.7650757,138.94432
4709000000,-4.7534332,138.61172
4710000000,-4.7642403,138.69356
4711000000,-4.7868252,138.90294
4712000000,-4.778389,138.65755
4713000000,-4.8283577,138.73029
4714000000,-4.7982597,138.7455
4715000000,-4.8035626,138.54298
4716000000,-4.7772422,138.65468
4717000000,-4.8164291,138.4783
4718000000,-4.805469,138.37543
4719000000,-4.7949624,138.4382
4720000000,-4.8369303,138.41463
4721000000,-4.8159385,138.43706
4722000000,-4.8001008,138.24127
4723000000,-4.807898,138.12605
4724000000,-4.8046412,138.28889
4725000000,-4.8311043,138.14267
4726000000,-4.8022084,138.11371
4727000000,-4.8562665,137.95615
4728000000,-4.7967658,137.96674
4729000000,-4.8433013,137.84412
4730000000,-4.8159518,137.93307
4731000000,-4.8331108,137.9106
4732000000,-4.8269067,137.89975
4733000000,-4.8508968,137.92542
4734000000,-4.8633633,137.59671
4735000000,-4.8161931,137.88048
4736000000,-4.8530517,137.87668
4737000000,-4.87185,137.68127
4738000000,-4.8295388,137.71217
4739000000,-4.8530345,137.60796
4740000000,-4.8618464,137.5396
4741000000,-4.8775558,137.49622
4742000000,-4.8421779,137.66093
4743000000,-4.8953719,137.39145
4744000000,-4.8464689,137.31778
4745000000,-4.8691206,137.36081
4746000000,-4.856638,137.07727
4747000000,-4.8670969,137.1424
4748000000,-4.8453984,137.19672
4749000000,-4.850769,137.19278
4750000000,-4.8877792,137.21828
4751000000,-4.9200602,137.21672
4752000000,-4.886662,136.79146
4753000000,-4.8597341,137.04578
4754000000,-4.9038067,136.84398
4755000000,-4.9042006,137.0713
4756000000,-4.8995891,136.81233
4757000000,-4.8828573,136.82387
4758000000,-4.8960953,136.83554
4759000000,-4.9152074,137.01175
4760000000,-4.8917346,136.93375
4761000000,-4.9351296,136.63811
4762000000,-4.9132466,136.68102
4763000000,-4.9371638,136.67682
4764000000,-4.9314408,136.67017
4765000000,-4.9307818,136.55086
4766000000,-4.932467,136.34363
4767000000,-4.9294386,136.62527
4768000000,-4.9675727,136.34665
4769000000,-4.9502373,136.16255
4770000000,-4.938663,136.44656
4771000000,-4.9446702,136.28394
4772000000,-4.9166727,136.15309
4773000000,-4.9591622,136.20383
4774000000,-4.9590502,136.06165
4775000000,-4.9457941,136.20117
4776000000,-4.9647007,136.1541
4777000000,-4.9627147,136.18065
4778000000,-4.9655123,136.02069
4779000000,-4.9778633,136.05768
4780000000,-4.9683757,135.65967
4781000000,-4.9412961,135.81934
4782000000,-4.9643188,135.84399
4783000000,-4.9503803,135.74962
4784000000,-4.9786677,135.85945
4785000000,-4.9635825,135.71875
4786000000,-4.9756131,135.6068
4787000000,-4.9578085,135.67703
4788000000,-4.9876318,135.37166
4789000000,-5.0099173,135.66245
4790000000,-5.0024118,135.63556
4791000000,-5.0278726,135.64099
4792000000,-5.0103273,135.62387
4793000000,-5.0110664,135.52257
4794000000,-5.0293813,135.34183
4795000000,-5.0188832,135.5015
4796000000,-5.0303411,135.32175
4797000000,-5.0337424,135.24155
4798000000,-4.9937124,135.4072
4799000000,-5.041573,135.03549
4800000000,-5.0237889,135.27231
4801000000,-5.0633912,135.02309
4802000000,-5.0612302,135.06058
4803000000,-5.0727649,134.95636
4804000000,-5.0875301,134.71381
4805000000,-5.0609307,135.11902
4806000000,-5.031498,135.01851
4807000000,-5.0310736,135.00856
4808000000,-5.0542526,134.58694
4809000000,-5.0622368,134.78825
4810000000,-5.1013017,135.00723
4811000000,-5.0621891,134.65131
4812000000,-5.0590229,134.65065
4813000000,-5.0777278,134.73196
4814000000,-5.0773587,134.63341
4815000000,-5.0673404,134.66541
4816000000,-5.1007466,134.50778
4817000000,-5.0647688,134.55234
4818000000,-5.1105638,134.32802
4819000000,-5.1059499,134.23085
4820000000,-5.1084156,134.40614
4821000000,-5.0705142,134.06602
4822000000,-5.1053429,134.07028
4823000000,-5.0942574,134.13246
4824000000,-5.0878792,134.01593
4825000000,-5.1346893,134.32982
4826000000,-5.0893364,134.02052
4827000000,-5.1493783,133.97044
4828000000,-5.1089711,133.8839
4829000000,-5.1269617,133.80013
4830000000,-5.1204944,134.08278
4831000000,-5.1158333,133.89537
4832000000,-5.0885181,133.92345
4833000000,-5.1324162,133.77646
4834000000,-5.1102295,133.55949
4835000000,-5.1189494,133.86693
4836000000,-5.1506729,133.62762
4837000000,-5.1659384,133.7361
4838000000,-5.1244426,133.66187
4839000000,-5.1794305,133.53186
4840000000,-5.1310711,133.60857
4841000000,-5.1475916,133.36586
4842000000,-5.1655712,133.70734
4843000000,-5.175015,133.35963
4844000000,-5.1434474,133.44586
4845000000,-5.1659966,133.16568
4846000000,-5.1644688,133.18413
4847000000,-5.2033501,133.1748
4848000000,-5.1940165,133.17725
4849000000,-5.1862731,133.41411
4850000000,-5.1746025,132.95859
4851000000,-5.1936107,132.96017
4852000000,-5.1823878,133.15826
4853000000,-5.169167,132.97427
4854000000,-5.1798925,132.98715
4855000000,-5.1615472,133.10725
4856000000,-5.1929121,132.65967
4857000000,-5.2044663,132.87996
4858000000,-5.2241282,132.85983
4859000000,-5.2146721,132.82265
4860000000,-5.2557983,132.76297
4861000000,-5.225369,132.5619
4862000000,-5.2206283,132.39642
4863000000,-5.2326179,132.58243
4864000000,-5.1904159,132.95988
4865000000,-5.2583618,132.54993
4866000000,-5.2550411,132.55478
4867000000,-5.2541413,132.47574
4868000000,-5.2458563,132.61569
4869000000,-5.2415385,132.55989
4870000000,-5.2615032,132.3331
4871000000,-5.2561579,132.43987
4872000000,-5.2715025,132.33447
4873000000,-5.2694798,132.20676
4874000000,-5.265296,132.13832
4875000000,-5.2781672,132.25261
4876000000,-5.2525582,132.36792
4877000000,-5.2786593,132.03748
4878000000,-5.2712722,132.05583
4879000000,-5.2635899,132.10793
4880000000,-5.2910829,132.12959
4881000000,-5.3138237,132.05414
4882000000,-5.3142548,132.04602
4883000000,-5.3229246,131.97806
4884000000,-5.3067169,131.95438
4885000000,-5.3267589,132.07199
4886000000,-5.3533344,131.60146
4887000000,-5.3318467,131.56183
4888000000,-5.3256793,131.57718
4889000000,-5.3534198,131.54207
4890000000,-5.3286629,131.66068
4891000000,-5.3380604,131.63593
4892000000,-5.3393865,131.52763
4893000000,-5.3637791,131.35925
4894000000,-5.3461409,131.28104
4895000000,-5.3366585,131.08481
4896000000,-5.3739748,131.41216
4897000000,-5.344985,131.40326
4898000000,-5.3634481,131.27635
4899000000,-5.375093,131.25642
4900000000,-5.4027519,131.33749
4901000000,-5.4284143,131.02884
4902000000,-5.3849072,131.11172
4903000000,-5.3519092,131.08226
4904000000,-5.3899488,131.20294
4905000000,-5.4166269,131.12282
4906000000,-5.4305749,131.07796
4907000000,-5.3964744,131.1176
4908000000,-5.4033813,130.97943
4909000000,-5.4214134,131.01259
4910000000,-5.4280095,130.75069
4911000000,-5.4214005,130.95564
4912000000,-5.462399,130.7178
4913000000,-5.4794483,130.82013
4914000000,-5.4523993,130.69267
4915000000,-5.4850736,130.75482
4916000000,-5.5124025,130.74953
4917000000,-5.4991598,130.85863
4918000000,-5.4665298,130.832
4919000000,-5.4670272,130.54556
4920000000,-5.451623,130.70567
4921000000,-5.5130105,130.67439
4922000000,-5.4754539,130.57185
4923000000,-5.4945769,130.54727
4924000000,-5.5124168,130.29898
4925000000,-5.4717875,130.52098
4926000000,-5.5013275,130.5464
4927000000,-5.5095778,130.33734
4928000000,-5.5400534,130.52745
4929000000,-5.5548573,130.17593
4930000000,-5.5464101,130.60297
4931000000,-5.4976306,130.21703
4932000000,-5.5276475,130.33641
4933000000,-5.5260115,130.13986
4934000000,-5.5332236,130.39638
4935000000,-5.5676055,130.28317
4936000000,-5.5653572,130.14291
4937000000,-5.561492,130.21686
4938000000,-5.6014838,130.20897
4939000000,-5.5887003,130.1364
4940000000,-5.6319885,130.03165
4941000000,-5.5692186,130.05899
4942000000,-5.614614,130.20512
4943000000,-5.5928545,130.1209
4944000000,-5.5894208,130.25908
4945000000,-5.5984368,130.07413
4946000000,-5.5919814,130.0956
4947000000,-5.6172233,129.87653
4948000000,-5.6195464,130.06381
4949000000,-5.6325259,129.95818
4950000000,-5.6555057,129.94049
4951000000,-5.6338444,129.84695
4952000000,-5.6344876,130.07515
4953000000,-5.6092334,129.80789
4954000000,-5.6206603,130.07622
4955000000,-5.6433806,129.8403
4956000000,-5.6323442,129.77408
4957000000,-5.6159396,129.55663
4958000000,-5.6283484,129.7345
4959000000,-5.6708074,129.69843
4960000000,-5.6686063,129.54811
4961000000,-5.6488738,129.67844
4962000000,-5.6537561,129.66354
4963000000,-5.7071481,129.79224
4964000000,-5.6506667,129.56017
4965000000,-5.6767302,129.45934
4966000000,-5.6812725,129.5352
4967000000,-5.6518621,129.40732
4968000000,-5.7080531,129.61688
4969000000,-5.6792002,129.70943
4970000000,-5.6927261,129.27452
4971000000,-5.7330565,129.55499
4972000000,-5.675787,129.30156
4973000000,-5.7227025,129.36957
4974000000,-5.7219234,129.52032
4975000000,-5.7210398,129.26727
4976000000,-5.7118106,129.45122
4977000000,-5.7150145,128.98799
4978000000,-5.6582928,129.06068
4979000000,-5.7405477,129.32741
4980000000,-5.7057996,129.13377
4981000000,-5.7154355,128.91156
4982000000,-5.7449379,129.28355
4983000000,-5.7419558,129.18225
4984000000,-5.7285924,129.25209
4985000000,-5.7526183,129.03247
4986000000,-5.7108302,129.0298
4987000000,-5.7838993,128.75372
4988000000,-5.7909856,128.95268
4989000000,-5.7353468,128.74614
4990000000,-5.7797008,128.6924
4991000000,-5.8147197,128.69267
4992000000,-5.7714229,128.76497
4993000000,-5.7689304,128.76369
4994000000,-5.7836204,128.44048
4995000000,-5.7965894,128.79941
4996000000,-5.7881212,128.67857
4997000000,-5.8168988,128.69334
4998000000,-5.7742925,128.8206
4999000000,-5.7991762,128.5742
5000000000,-5.7682071,128.50897
END

