!CSV A.01.01
!Agilent Technologies,E8362C,MY49020225,A.09.42.22
!Agilent E8362C: A.09.42.22
!Date: Tuesday, March 08, 2016 15:07:48
!Source: Standard

BEGIN CH1_DATA
Freq(Hz),S11 Log Mag(dB),S11 Phase(°)
1000000000,-4.8781047,161.44044
1001000000,-4.8325815,161.59769
1002000000,-4.8558068,161.62259
1003000000,-4.8456163,161.57411
1004000000,-4.8209629,161.29994
1005000000,-4.8827019,161.45612
1006000000,-4.8561206,161.3782
1007000000,-4.8425922,161.33331
1008000000,-4.8248258,161.49199
1009000000,-4.8220863,161.42784
1010000000,-4.7874641,161.20442
1011000000,-4.8353033,161.20451
1012000000,-4.8373075,161.18959
1013000000,-4.8171687,160.97
1014000000,-4.8070173,161.14876
1015000000,-4.8255029,161.26422
1016000000,-4.8152614,161.12894
1017000000,-4.7946181,161.05901
1018000000,-4.8377423,161.03813
1019000000,-4.8119755,160.89081
1020000000,-4.8282862,161.07552
1021000000,-4.8128939,160.96393
1022000000,-4.8001804,160.71362
1023000000,-4.8059669,160.78827
1024000000,-4.8323565,160.90193
1025000000,-4.8276644,160.76672
1026000000,-4.8263888,160.6375
1027000000,-4.7973814,160.707
1028000000,-4.8550901,160.66391
1029000000,-4.8223143,160.60158
1030000000,-4.8279524,160.41953
1031000000,-4.7739701,160.47627
1032000000,-4.8340802,160.38657
1033000000,-4.817883,160.34874
1034000000,-4.8163333,160.45821
1035000000,-4.7865543,160.29951
1036000000,-4.7894063,160.48694
1037000000,-4.7696123,159.99628
1038000000,-4.8062353,160.20844
1039000000,-4.8120713,160.15143
1040000000,-4.8004551,160.25075
1041000000,-4.8371072,160.28052
1042000000,-4.8003235,159.99773
1043000000,-4.8011675,160.23351
1044000000,-4.806499,159.94228
1045000000,-4.8201032,159.93361
1046000000,-4.7660899,159.82993
1047000000,-4.7905455,160.18016
1048000000,-4.8079648,159.90825
1049000000,-4.7718844,159.83759
1050000000,-4.781383,159.96477
1051000000,-4.7787232,159.71594
1052000000,-4.7697101,159.53592
1053000000,-4.787147,159.58434
1054000000,-4.784801,159.59387
1055000000,-4.796804,159.56331
1056000000,-4.7825356,159.54977
1057000000,-4.7486339,159.37497
1058000000,-4.8104472,159.20532
1059000000,-4.7729092,159.25775
1060000000,-4.7674627,159.49031
1061000000,-4.7751598,159.39241
1062000000,-4.7563314,159.44458
1063000000,-4.763176,159.33649
1064000000,-4.7695265,159.41806
1065000000,-4.7689157,159.18774
1066000000,-4.767931,159.10124
1067000000,-4.7737641,158.90826
1068000000,-4.7402205,159.0692
1069000000,-4.7630434,159.00282
1070000000,-4.7497125,158.86974
1071000000,-4.7828145,159.15697
1072000000,-4.764123,158.8233
1073000000,-4.8007784,159.13986
1074000000,-4.7422171,159.01582
1075000000,-4.7716641,158.7261
1076000000,-4.7528753,159.00072
1077000000,-4.7286048,158.87794
1078000000,-4.7810512,158.74883
1079000000,-4.7540283,158.58705
1080000000,-4.7429643,158.79276
1081000000,-4.711246,158.71745
1082000000,-4.7488217,158.33185
1083000000,-4.7766795,158.47531
1084000000,-4.722827,158.53969
1085000000,-4.7455549,158.38498
1086000000,-4.7555165,158.20851
1087000000,-4.7454877,158.50034
1088000000,-4.7407336,158.50818
1089000000,-4.7466898,158.32843
1090000000,-4.7583604,158.28645
1091000000,-4.7496333,158.00795
1092000000,-4.7519784,158.19537
1093000000,-4.7137976,158.08429
1094000000,-4.7184153,158.09927
1095000000,-4.7380743,158.04053
1096000000,-4.7452869,157.99994
1097000000,-4.7003675,157.86638
1098000000,-4.7109714,157.86852
1099000000,-4.7417574,157.98749
1100000000,-4.756,157.78697
1101000000,-4.7224069,157.64508
1102000000,-4.7154303,157.67029
1103000000,-4.758924,157.43575
1104000000,-4.7415452,157.6709
1105000000,-4.721067,157.56317
1106000000,-4.7281575,157.63033
1107000000,-4.7636051,157.42703
1108000000,-4.7131305,157.46227
1109000000,-4.6922388,157.4642
1110000000,-4.698689,157.53479
1111000000,-4.6883712,157.39844
1112000000,-4.7188835,157.12469
1113000000,-4.7299328,157.38127
1114000000,-4.7490807,157.11699
1115000000,-4.722403,157.14151
1116000000,-4.735599,157.07227
1117000000,-4.6625686,157.17821
1118000000,-4.7381296,157.21652
1119000000,-4.7198982,156.60994
1120000000,-4.702641,157.04848
1121000000,-4.7023044,156.91032
1122000000,-4.7191596,156.98827
1123000000,-4.7240553,156.73796
1124000000,-4.6819925,156.74207
1125000000,-4.7287388,156.70605
1126000000,-4.692255,156.67027
1127000000,-4.7210522,156.59747
1128000000,-4.7175894,156.51442
1129000000,-4.7182183,156.41188
1130000000,-4.6972632,156.27074
1131000000,-4.6958208,156.41325
1132000000,-4.6893978,156.53363
1133000000,-4.7177558,156.21272
1134000000,-4.7164183,156.70827
1135000000,-4.7331681,156.489
1136000000,-4.7141371,156.16333
1137000000,-4.7183332,156.34787
1138000000,-4.6994066,156.13016
1139000000,-4.7525144,156.04997
1140000000,-4.7072196,156.05733
1141000000,-4.6979365,156.12953
1142000000,-4.709578,155.94147
1143000000,-4.6850152,155.97374
1144000000,-4.7293348,155.89815
1145000000,-4.6937861,155.9214
1146000000,-4.6678448,155.98055
1147000000,-4.6347179,155.8576
1148000000,-4.7096009,155.65594
1149000000,-4.6981173,156.05821
1150000000,-4.7018552,155.48572
1151000000,-4.6971064,155.7294
1152000000,-4.7046065,155.46576
1153000000,-4.6761374,155.52519
1154000000,-4.6982751,155.45399
1155000000,-4.6737442,155.29314
1156000000,-4.6762633,155.43315
1157000000,-4.6990309,155.41925
1158000000,-4.6797667,155.31488
1159000000,-4.7103133,155.27815
1160000000,-4.6721821,155.12799
1161000000,-4.6852679,155.36424
1162000000,-4.684761,155.25787
1163000000,-4.7037249,155.24524
1164000000,-4.6874604,155.30347
1165000000,-4.6801267,155.11682
1166000000,-4.6709042,155.11794
1167000000,-4.6841645,155.26523
1168000000,-4.6831098,155.13853
1169000000,-4.6912761,154.72633
1170000000,-4.6511636,155.04047
1171000000,-4.7017217,154.91602
1172000000,-4.692234,154.79388
1173000000,-4.6936789,154.67062
1174000000,-4.691287,154.73276
1175000000,-4.6610856,154.52621
1176000000,-4.6843557,154.63231
1177000000,-4.7275214,154.46819
1178000000,-4.6567535,154.6678
1179000000,-4.7063179,154.58939
1180000000,-4.6476111,154.2719
1181000000,-4.7080722,154.30637
1182000000,-4.6665411,154.22211
1183000000,-4.6350121,154.45485
1184000000,-4.6757593,154.29865
1185000000,-4.7050357,154.25331
1186000000,-4.6721525,154.24637
1187000000,-4.6923623,154.07574
1188000000,-4.6391191,153.92621
1189000000,-4.6629057,153.92104
1190000000,-4.6756768,154.04379
1191000000,-4.6357312,153.93271
1192000000,-4.6518064,153.80899
1193000000,-4.7017031,153.98753
1194000000,-4.6679111,153.93483
1195000000,-4.6666994,153.67648
1196000000,-4.6264033,153.84686
1197000000,-4.6814494,153.49631
1198000000,-4.6525898,153.76892
1199000000,-4.6824961,153.45975
1200000000,-4.6603599,153.54689
1201000000,-4.6611295,153.56387
1202000000,-4.6620798,153.49789
1203000000,-4.6627393,153.36009
1204000000,-4.6643472,153.54102
1205000000,-4.6553097,153.3499
1206000000,-4.6820884,153.59898
1207000000,-4.6680126,153.53201
1208000000,-4.6444445,153.13194
1209000000,-4.6496491,153.21634
1210000000,-4.668931,153.11963
1211000000,-4.6446624,153.22205
1212000000,-4.687336,152.8815
1213000000,-4.6667418,153.03331
1214000000,-4.6633639,152.70892
1215000000,-4.6340175,153.07135
1216000000,-4.6670489,153.07329
1217000000,-4.6335187,152.87915
1218000000,-4.6209598,152.84425
1219000000,-4.6493959,152.78883
1220000000,-4.6554804,152.7572
1221000000,-4.6397619,152.7518
1222000000,-4.6551924,152.60855
1223000000,-4.6553946,152.52646
1224000000,-4.6626196,152.48532
1225000000,-4.6426086,152.45403
1226000000,-4.6691165,152.41301
1227000000,-4.6924677,152.25615
1228000000,-4.6465106,152.1082
1229000000,-4.6406817,152.42598
1230000000,-4.6304512,152.13284
1231000000,-4.6514964,151.82246
1232000000,-4.7039304,152.32515
1233000000,-4.6336832,152.0732
1234000000,-4.6734891,152.16809
1235000000,-4.6398807,151.91487
1236000000,-4.6269774,151.88089
1237000000,-4.634223,151.81485
1238000000,-4.6415691,151.90137
1239000000,-4.6563215,151.80215
1240000000,-4.6433511,151.72504
1241000000,-4.6570983,151.69888
1242000000,-4.6199355,151.6176
1243000000,-4.6231661,151.82368
1244000000,-4.627892,151.55618
1245000000,-4.6367159,151.54657
1246000000,-4.6584325,151.18425
1247000000,-4.6369624,151.33267
1248000000,-4.6546259,151.26651
1249000000,-4.6512933,151.52008
1250000000,-4.6470585,151.35106
1251000000,-4.6548266,151.12415
1252000000,-4.6144099,150.92703
1253000000,-4.6835852,151.06596
1254000000,-4.6668887,151.12363
1255000000,-4.6455388,151.17145
1256000000,-4.6471548,151.11108
1257000000,-4.6439691,151.01035
1258000000,-4.6422486,150.91867
1259000000,-4.6741085,151.00798
1260000000,-4.6417618,150.75011
1261000000,-4.642571,150.87454
1262000000,-4.6650696,150.53546
1263000000,-4.6442533,150.62506
1264000000,-4.6672802,150.81467
1265000000,-4.6423745,150.8156
1266000000,-4.6682506,150.73889
1267000000,-4.6337152,150.51315
1268000000,-4.6559758,150.51889
1269000000,-4.6392951,150.31944
1270000000,-4.6606503,150.46179
1271000000,-4.6591268,150.28026
1272000000,-4.6692915,150.26158
1273000000,-4.6425757,150.23509
1274000000,-4.6545601,150.24492
1275000000,-4.6479111,149.90602
1276000000,-4.6392741,150.31747
1277000000,-4.6192722,149.98441
1278000000,-4.6479597,149.84343
1279000000,-4.6817379,149.96884
1280000000,-4.6923966,149.74179
1281000000,-4.6702166,149.80432
1282000000,-4.6661606,149.85936
1283000000,-4.6573653,149.44922
1284000000,-4.6416793,149.74622
1285000000,-4.6427331,149.45552
1286000000,-4.6455765,149.63664
1287000000,-4.6556973,149.65639
1288000000,-4.6378717,149.49062
1289000000,-4.6849413,149.33029
1290000000,-4.6508737,149.39049
1291000000,-4.6903291,149.44936
1292000000,-4.6568489,149.11443
1293000000,-4.6447029,149.00076
1294000000,-4.6466298,149.31543
1295000000,-4.6491818,149.10387
1296000000,-4.6646247,149.27368
1297000000,-4.6762147,149.03806
1298000000,-4.6578531,148.86644
1299000000,-4.660224,149.08736
1300000000,-4.6521077,148.96783
1301000000,-4.6841717,148.65245
1302000000,-4.6552424,148.90321
1303000000,-4.6469054,148.83797
1304000000,-4.667717,148.77322
1305000000,-4.679656,148.69751
1306000000,-4.6729388,148.55882
1307000000,-4.663455,148.47133
1308000000,-4.679482,148.57292
1309000000,-4.6788073,148.62827
1310000000,-4.6579103,148.26898
1311000000,-4.6470909,148.31314
1312000000,-4.6660471,148.30705
1313000000,-4.6756582,148.22015
1314000000,-4.6975584,148.12926
1315000000,-4.6611109,148.07658
1316000000,-4.6842718,148.16002
1317000000,-4.6407695,148.09657
1318000000,-4.6730437,147.86963
1319000000,-4.6841664,147.96664
1320000000,-4.647491,148.08652
1321000000,-4.6785569,147.85564
1322000000,-4.6759858,147.75984
1323000000,-4.7039661,147.6284
1324000000,-4.6809459,147.78751
1325000000,-4.6793499,147.7859
1326000000,-4.6459384,147.80972
1327000000,-4.6819711,147.49864
1328000000,-4.6841841,147.52684
1329000000,-4.700799,147.48737
1330000000,-4.6584964,147.36365
1331000000,-4.6934595,147.45219
1332000000,-4.6532927,147.42917
1333000000,-4.6723156,147.2849
1334000000,-4.6712408,147.05582
1335000000,-4.6637926,147.11211
1336000000,-4.6466475,147.13719
1337000000,-4.6739492,147.03114
1338000000,-4.670907,147.10326
1339000000,-4.6839252,146.94975
1340000000,-4.6633587,146.84547
1341000000,-4.684875,146.91437
1342000000,-4.6861429,146.8093
1343000000,-4.7074776,146.67513
1344000000,-4.6554651,146.76059
1345000000,-4.6658254,146.58113
1346000000,-4.6795225,146.56572
1347000000,-4.7218232,146.43762
1348000000,-4.6867867,146.50621
1349000000,-4.7154603,146.34618
1350000000,-4.6788096,146.22998
1351000000,-4.698472,146.31282
1352000000,-4.6941738,146.19748
1353000000,-4.6969666,146.13261
1354000000,-4.6916704,146.06429
1355000000,-4.7099361,146.13721
1356000000,-4.7080283,146.0968
1357000000,-4.7212462,146.01639
1358000000,-4.6913629,146.00655
1359000000,-4.7036495,145.94095
1360000000,-4.6797748,145.84691
1361000000,-4.6934838,145.76137
1362000000,-4.6910305,145.73247
1363000000,-4.7026424,145.71877
1364000000,-4.7158957,145.43797
1365000000,-4.7209172,145.51472
1366000000,-4.6941242,145.65247
1367000000,-4.7037206,145.67116
1368000000,-4.705791,145.46196
1369000000,-4.7076497,145.48286
1370000000,-4.7329011,145.36763
1371000000,-4.7121363,145.30804
1372000000,-4.7183886,145.14937
1373000000,-4.7056551,145.14023
1374000000,-4.7304592,145.20682
1375000000,-4.7093496,145.1373
1376000000,-4.718698,145.24986
1377000000,-4.7147374,144.65057
1378000000,-4.7044907,145.06966
1379000000,-4.7230506,144.79254
1380000000,-4.7220736,144.90346
1381000000,-4.7291245,144.8495
1382000000,-4.689539,144.62447
1383000000,-4.684731,144.53928
1384000000,-4.7133698,144.53667
1385000000,-4.7374263,144.64735
1386000000,-4.7297363,144.43181
1387000000,-4.7530646,144.61612
1388000000,-4.7257695,144.25482
1389000000,-4.7345414,144.36079
1390000000,-4.7354131,144.23866
1391000000,-4.7297759,144.20715
1392000000,-4.7328944,144.24214
1393000000,-4.7251191,144.31096
1394000000,-4.7389326,143.94046
1395000000,-4.7173777,143.97794
1396000000,-4.7460785,143.98824
1397000000,-4.7240572,143.94684
1398000000,-4.7207103,143.80162
1399000000,-4.7242608,143.8685
1400000000,-4.7425838,143.79306
1401000000,-4.7149549,143.61823
1402000000,-4.7257209,143.63559
1403000000,-4.7334352,143.52362
1404000000,-4.7697539,143.56313
1405000000,-4.7376719,143.26968
1406000000,-4.7527871,143.36127
1407000000,-4.7601094,143.32588
1408000000,-4.7367969,143.30496
1409000000,-4.7316389,143.38046
1410000000,-4.7361612,143.23705
1411000000,-4.7549381,143.16081
1412000000,-4.7418003,143.02234
1413000000,-4.7423096,143.06723
1414000000,-4.7568927,143.11154
1415000000,-4.7744355,143.10704
1416000000,-4.7622895,142.66554
1417000000,-4.7700953,142.92996
1418000000,-4.7707434,142.87076
1419000000,-4.7458048,142.86768
1420000000,-4.7690735,142.54523
1421000000,-4.7544971,142.46239
1422000000,-4.7650013,142.68817
1423000000,-4.7906566,142.51921
1424000000,-4.7704883,142.31313
1425000000,-4.7423353,142.29829
1426000000,-4.7628942,142.3821
1427000000,-4.7927241,142.31801
1428000000,-4.7864466,142.1683
1429000000,-4.7629261,142.32343
1430000000,-4.8030591,142.21306
1431000000,-4.7545171,141.97165
1432000000,-4.7857423,141.82257
1433000000,-4.7778378,142.02299
1434000000,-4.7960892,141.58574
1435000000,-4.7778697,141.81056
1436000000,-4.7802906,141.76657
1437000000,-4.8034143,141.80252
1438000000,-4.780375,141.71532
1439000000,-4.7918563,141.31598
1440000000,-4.8012543,141.61151
1441000000,-4.7943783,141.58525
1442000000,-4.7948241,141.3651
1443000000,-4.7783737,141.3022
1444000000,-4.8138952,141.45552
1445000000,-4.787384,141.26662
1446000000,-4.7848816,141.23981
1447000000,-4.8224196,141.10878
1448000000,-4.7988605,141.058
1449000000,-4.8376303,141.06424
1450000000,-4.8162861,141.17773
1451000000,-4.8302922,140.78175
1452000000,-4.8133297,141.02335
1453000000,-4.8289275,140.80022
1454000000,-4.8198524,140.90063
1455000000,-4.7922225,140.65758
1456000000,-4.8214512,140.6752
1457000000,-4.8213277,140.6817
1458000000,-4.8399186,140.44095
1459000000,-4.831378,140.42314
1460000000,-4.8434987,140.53004
1461000000,-4.8193212,140.35483
1462000000,-4.8193898,140.43663
1463000000,-4.8093181,140.26955
1464000000,-4.836998,140.15236
1465000000,-4.8435631,140.09201
1466000000,-4.8202906,139.91907
1467000000,-4.8338404,140.15923
1468000000,-4.8422804,139.94313
1469000000,-4.8473525,140.06712
1470000000,-4.8137922,139.92511
1471000000,-4.832303,139.74135
1472000000,-4.8373713,139.85738
1473000000,-4.8572378,139.79884
1474000000,-4.8514719,139.53831
1475000000,-4.8718562,139.36197
1476000000,-4.8570924,139.69278
1477000000,-4.8423176,139.58144
1478000000,-4.870019,139.52644
1479000000,-4.8863931,139.44646
1480000000,-4.8451052,139.3622
1481000000,-4.8494725,139.20822
1482000000,-4.8593001,139.12996
1483000000,-4.8786521,139.2959
1484000000,-4.8740549,139.04272
1485000000,-4.8650084,139.06265
1486000000,-4.8696675,139.04382
1487000000,-4.8936615,138.92256
1488000000,-4.9029393,139.02426
1489000000,-4.8778944,138.8717
1490000000,-4.8514628,138.8653
1491000000,-4.8608384,138.62088
1492000000,-4.8899693,138.62056
1493000000,-4.8603244,138.68964
1494000000,-4.8944807,138.51846
1495000000,-4.9040256,138.60936
1496000000,-4.9087958,138.39584
1497000000,-4.9085088,138.45251
1498000000,-4.8980784,138.30865
1499000000,-4.8991466,138.34833
1500000000,-4.9142203,138.03259
1501000000,-4.9045639,138.06482
1502000000,-4.9267397,138.12329
1503000000,-4.8889918,137.96353
1504000000,-4.8687291,137.87357
1505000000,-4.9005299,137.87813
1506000000,-4.9652328,137.85493
1507000000,-4.9088244,137.97643
1508000000,-4.8780575,137.84402
1509000000,-4.9146509,137.78116
1510000000,-4.929872,137.62653
1511000000,-4.9136515,137.71547
1512000000,-4.9303918,137.43431
1513000000,-4.9044938,137.5988
1514000000,-4.9139009,137.5166
1515000000,-4.9305673,137.15358
1516000000,-4.9393344,137.29047
1517000000,-4.9520979,137.22247
1518000000,-4.9188471,137.14641
1519000000,-4.9516687,137.22433
1520000000,-4.9537592,137.02754
1521000000,-4.9598598,136.92111
1522000000,-4.9389071,136.95514
1523000000,-4.9439836,136.98718
1524000000,-4.956521,136.71123
1525000000,-4.9676013,136.70314
1526000000,-4.9733992,136.67339
1527000000,-4.9668889,136.55379
1528000000,-4.9517727,136.66426
1529000000,-4.9928842,136.59451
1530000000,-5.0023127,136.57912
1531000000,-4.9570336,136.38763
1532000000,-4.9759979,136.44583
1533000000,-4.9988832,136.39389
1534000000,-4.9775176,136.36986
1535000000,-4.969027,136.13396
1536000000,-4.9573274,136.11594
1537000000,-5.009038,136.10596
1538000000,-4.993969,136.11066
1539000000,-5.0073552,135.97591
1540000000,-4.9875917,135.84236
1541000000,-4.9970961,135.63043
1542000000,-5.0097704,135.63503
1543000000,-5.0144806,135.65553
1544000000,-5.016511,135.90985
1545000000,-5.0102768,135.50177
1546000000,-4.9918275,135.45456
1547000000,-5.0615358,135.32675
1548000000,-5.0047035,135.57648
1549000000,-5.0173998,135.38333
1550000000,-5.0417061,135.35707
1551000000,-5.0190639,135.25018
1552000000,-5.0280094,135.21716
1553000000,-5.0290208,135.04207
1554000000,-5.018652,135.03053
1555000000,-5.0268421,135.01642
1556000000,-5.0067239,135.11707
1557000000,-5.0283141,134.89957
1558000000,-5.0418348,134.69522
1559000000,-5.0331702,134.60948
1560000000,-5.0656605,134.7236
1561000000,-5.0303054,134.65115
1562000000,-5.0376425,134.43759
1563000000,-5.1026387,134.5475
1564000000,-5.0609441,134.43735
1565000000,-5.0626159,134.49281
1566000000,-5.0536518,134.32239
1567000000,-5.0734386,134.29869
1568000000,-5.063076,134.20723
1569000000,-5.0683632,134.09572
1570000000,-5.0738902,134.07072
1571000000,-5.0663381,134.13004
1572000000,-5.0534792,134.01428
1573000000,-5.0609775,133.78645
1574000000,-5.095088,133.85339
1575000000,-5.0598235,133.78656
1576000000,-5.058567,133.56522
1577000000,-5.0705223,133.46077
1578000000,-5.1055574,133.80226
1579000000,-5.1119204,133.47661
1580000000,-5.124094,133.50278
1581000000,-5.103797,133.49706
1582000000,-5.1154866,133.47493
1583000000,-5.1076384,133.40985
1584000000,-5.1140676,132.84572
1585000000,-5.1187992,133.19597
1586000000,-5.1000257,132.85597
1587000000,-5.1190314,132.90443
1588000000,-5.1462946,132.75368
1589000000,-5.1071472,132.77786
1590000000,-5.1313272,132.90387
1591000000,-5.1343312,132.68784
1592000000,-5.1560564,132.76756
1593000000,-5.1053596,132.72656
1594000000,-5.1525407,132.41005
1595000000,-5.129066,132.48886
1596000000,-5.1614709,132.5061
1597000000,-5.1357903,132.33586
1598000000,-5.1352549,132.37874
1599000000,-5.1495843,132.26863
1600000000,-5.1460867,132.17242
1601000000,-5.1539702,131.98677
1602000000,-5.1645474,131.90656
1603000000,-5.1840653,131.94527
1604000000,-5.150209,131.81371
1605000000,-5.1721125,132.127
1606000000,-5.2094312,131.74948
1607000000,-5.1956234,131.84724
1608000000,-5.2062893,131.60649
1609000000,-5.1669679,131.48125
1610000000,-5.1805615,131.7571
1611000000,-5.2248187,131.3555
1612000000,-5.197288,131.51671
1613000000,-5.18506,131.65727
1614000000,-5.2158785,131.52222
1615000000,-5.1879449,131.379
1616000000,-5.22368,131.2515
1617000000,-5.2213435,131.39626
1618000000,-5.2122116,131.06453
1619000000,-5.2416649,130.91788
1620000000,-5.2214446,130.84079
1621000000,-5.2370548,130.97237
1622000000,-5.2142105,130.81401
1623000000,-5.2117839,130.53941
1624000000,-5.2141399,130.57935
1625000000,-5.2546406,130.56856
1626000000,-5.2496185,130.49532
1627000000,-5.2658911,130.5808
1628000000,-5.2416816,130.43188
1629000000,-5.30825,130.40146
1630000000,-5.2389927,130.29529
1631000000,-5.2223167,130.21698
1632000000,-5.2492208,130.22256
1633000000,-5.2562852,130.26598
1634000000,-5.2690082,129.89772
1635000000,-5.2630229,130.06702
1636000000,-5.2782192,129.91147
1637000000,-5.2284536,130.13031
1638000000,-5.2679639,129.77214
1639000000,-5.2910504,129.53125
1640000000,-5.307312,129.70313
1641000000,-5.3067122,129.63574
1642000000,-5.3027835,129.47079
1643000000,-5.2798715,129.31924
1644000000,-5.3038816,129.34586
1645000000,-5.3267875,129.2532
1646000000,-5.3263326,129.0609
1647000000,-5.3200092,129.10851
1648000000,-5.3240981,129.11375
1649000000,-5.3222046,129.08582
1650000000,-5.3377442,128.82487
1651000000,-5.3137865,128.97232
1652000000,-5.336339,128.83098
1653000000,-5.3697171,128.70595
1654000000,-5.3411875,128.55922
1655000000,-5.3503151,128.64088
1656000000,-5.3387256,128.58516
1657000000,-5.3578382,128.41479
1658000000,-5.3845453,128.4584
1659000000,-5.3643966,128.34941
1660000000,-5.3506899,127.97475
1661000000,-5.4015708,128.17482
1662000000,-5.3841858,128.11452
1663000000,-5.3910379,128.16615
1664000000,-5.3671179,127.9456
1665000000,-5.3868179,127.91293
1666000000,-5.391211,127.87656
1667000000,-5.405035,127.88458
1668000000,-5.4396329,127.69219
1669000000,-5.4271092,127.5684
1670000000,-5.3915682,127.64284
1671000000,-5.4388599,127.49898
1672000000,-5.4052067,127.36079
1673000000,-5.4595304,127.41556
1674000000,-5.4396768,127.3874
1675000000,-5.4412394,127.18617
1676000000,-5.4645619,127.17126
1677000000,-5.4748535,127.08023
1678000000,-5.4528985,127.11755
1679000000,-5.4866428,126.94428
1680000000,-5.4813571,126.84066
1681000000,-5.4649663,126.88305
1682000000,-5.4694638,126.67497
1683000000,-5.4793401,126.80608
1684000000,-5.4921074,126.68802
1685000000,-5.4885406,126.81065
1686000000,-5.5047503,126.48032
1687000000,-5.5217619,126.22729
1688000000,-5.528307,126.48929
1689000000,-5.5200357,126.37353
1690000000,-5.53474,126.33157
1691000000,-5.5063167,126.02708
1692000000,-5.5257416,126.08233
1693000000,-5.5347428,125.94429
1694000000,-5.5526605,125.8612
1695000000,-5.5573859,125.87263
1696000000,-5.5231853,125.72163
1697000000,-5.5680108,125.68568
1698000000,-5.5563393,125.63285
1699000000,-5.5390806,125.37791
1700000000,-5.5735898,125.67275
1701000000,-5.5964327,125.50011
1702000000,-5.6030807,125.08897
1703000000,-5.5967994,125.25252
1704000000,-5.5869694,125.23754
1705000000,-5.6028781,125.1657
1706000000,-5.5953894,125.06879
1707000000,-5.6551695,124.71098
1708000000,-5.5947304,124.81613
1709000000,-5.5990496,124.93665
1710000000,-5.6312633,124.77597
1711000000,-5.6468153,124.51073
1712000000,-5.643353,124.70647
1713000000,-5.6413445,124.47773
1714000000,-5.645926,124.31144
1715000000,-5.6716204,124.40123
1716000000,-5.7027116,124.34595
1717000000,-5.6446381,124.43262
1718000000,-5.6908898,124.22448
1719000000,-5.6455393,124.12116
1720000000,-5.7251143,123.90021
1721000000,-5.6712179,124.10357
1722000000,-5.7104421,123.9185
1723000000,-5.7002015,123.99042
1724000000,-5.6915221,123.68978
1725000000,-5.7122378,123.75617
1726000000,-5.7213244,123.63697
1727000000,-5.71662,123.5368
1728000000,-5.7437196,123.76796
1729000000,-5.7292008,123.41629
1730000000,-5.7307096,123.24952
1731000000,-5.7169561,123.45415
1732000000,-5.7657008,123.20409
1733000000,-5.7651391,122.96027
1734000000,-5.7884388,123.1361
1735000000,-5.765264,123.11877
1736000000,-5.7644958,122.89577
1737000000,-5.7762852,122.81428
1738000000,-5.7847843,122.80402
1739000000,-5.7819915,122.8298
1740000000,-5.7831602,122.66368
1741000000,-5.8089886,122.61034
1742000000,-5.7920384,122.66499
1743000000,-5.817709,122.35126
1744000000,-5.8153582,122.37146
1745000000,-5.8267331,122.40049
1746000000,-5.8167663,122.22594
1747000000,-5.8257623,122.02401
1748000000,-5.8589945,122.15829
1749000000,-5.8507977,122.05598
1750000000,-5.8319335,121.86563
1751000000,-5.8606038,121.92007
1752000000,-5.8789248,121.8029
1753000000,-5.8599629,121.83141
1754000000,-5.8939452,121.75559
1755000000,-5.8838387,121.48837
1756000000,-5.8766828,121.78428
1757000000,-5.8791599,121.3829
1758000000,-5.8798919,121.44968
1759000000,-5.9247947,121.31767
1760000000,-5.9217925,121.20407
1761000000,-5.9007025,121.20324
1762000000,-5.9358797,121.14321
1763000000,-5.9556231,121.02698
1764000000,-5.9638643,120.7308
1765000000,-5.950006,120.81758
1766000000,-5.9661455,120.84655
1767000000,-5.947454,120.95943
1768000000,-5.9563065,120.65543
1769000000,-6.0000405,120.59826
1770000000,-5.9881539,120.49582
1771000000,-6.0177641,120.33298
1772000000,-5.9986281,120.42483
1773000000,-5.987092,120.21712
1774000000,-6.0083647,120.32043
1775000000,-5.9856744,120.27649
1776000000,-6.0239978,120.02659
1777000000,-6.0128655,119.83695
1778000000,-6.0190825,119.68391
1779000000,-6.0604844,119.90082
1780000000,-6.0725756,120.05754
1781000000,-6.0638824,119.78184
1782000000,-6.0699077,119.58031
1783000000,-6.087039,119.64413
1784000000,-6.1037974,119.43453
1785000000,-6.077683,119.51107
1786000000,-6.067687,119.36475
1787000000,-6.0996623,119.36276
1788000000,-6.134325,119.19231
1789000000,-6.1102691,119.21982
1790000000,-6.1024919,119.06185
1791000000,-6.0842977,118.96114
1792000000,-6.1145205,118.81696
1793000000,-6.1306353,118.77615
1794000000,-6.1395888,118.619
1795000000,-6.1462269,118.61203
1796000000,-6.1677332,118.41361
1797000000,-6.1655731,118.55456
1798000000,-6.1930623,118.32849
1799000000,-6.1854143,118.38344
1800000000,-6.1853132,118.2497
1801000000,-6.1849499,118.21687
1802000000,-6.1715469,118.20622
1803000000,-6.2419109,118.03546
1804000000,-6.2024946,117.89332
1805000000,-6.216815,117.93806
1806000000,-6.2390895,117.76852
1807000000,-6.22087,117.63142
1808000000,-6.242507,117.64874
1809000000,-6.2781024,117.41838
1810000000,-6.2872481,117.61887
1811000000,-6.250917,117.2499
1812000000,-6.2560234,117.37612
1813000000,-6.2918978,117.28296
1814000000,-6.2779527,117.20371
1815000000,-6.2636685,117.15919
1816000000,-6.2965641,117.19803
1817000000,-6.3260756,116.95589
1818000000,-6.3216105,116.97617
1819000000,-6.3527241,116.94501
1820000000,-6.3440752,116.79055
1821000000,-6.3680072,116.89634
1822000000,-6.31422,116.61392
1823000000,-6.3588409,116.67855
1824000000,-6.3718834,116.40024
1825000000,-6.3578677,116.28696
1826000000,-6.3967299,116.27008
1827000000,-6.411437,116.3764
1828000000,-6.4283276,116.15965
1829000000,-6.4373479,115.9671
1830000000,-6.4562988,116.03848
1831000000,-6.4214835,115.98878
1832000000,-6.4217472,116.08913
1833000000,-6.4462314,115.78914
1834000000,-6.440021,115.78948
1835000000,-6.4408717,115.60223
1836000000,-6.4484549,115.65816
1837000000,-6.4783807,115.61569
1838000000,-6.462841,115.52215
1839000000,-6.4950633,115.34286
1840000000,-6.5140982,115.32859
1841000000,-6.5424404,115.20599
1842000000,-6.502728,115.07057
1843000000,-6.5152569,115.12299
1844000000,-6.5146184,115.05551
1845000000,-6.540956,114.90398
1846000000,-6.5492644,114.69604
1847000000,-6.5765338,114.65491
1848000000,-6.5736647,114.63817
1849000000,-6.5694456,114.54122
1850000000,-6.57409,114.48596
1851000000,-6.5989799,114.56238
1852000000,-6.627069,114.45657
1853000000,-6.615005,114.40427
1854000000,-6.6567264,114.18086
1855000000,-6.6403451,114.20856
1856000000,-6.6507516,114.03104
1857000000,-6.6587806,113.94997
1858000000,-6.6677289,113.88525
1859000000,-6.7123456,113.84881
1860000000,-6.6562157,113.64628
1861000000,-6.7002101,113.66792
1862000000,-6.6948719,113.58863
1863000000,-6.6839857,113.60632
1864000000,-6.7057667,113.47797
1865000000,-6.7294555,113.35892
1866000000,-6.7180047,113.32177
1867000000,-6.7472725,113.26163
1868000000,-6.7566566,113.11358
1869000000,-6.7515502,113.00094
1870000000,-6.8095899,113.22379
1871000000,-6.7804756,113.1534
1872000000,-6.8176622,112.92563
1873000000,-6.7862473,112.71861
1874000000,-6.8283572,112.77955
1875000000,-6.8059196,112.74989
1876000000,-6.8389316,112.45354
1877000000,-6.8383164,112.53148
1878000000,-6.8695707,112.51695
1879000000,-6.8572984,112.13623
1880000000,-6.8364043,111.97523
1881000000,-6.8784714,112.35437
1882000000,-6.9100246,111.92677
1883000000,-6.886826,111.86063
1884000000,-6.9287581,111.86948
1885000000,-6.9122176,111.8493
1886000000,-6.9036174,111.38043
1887000000,-6.9288669,111.50069
1888000000,-6.9326286,111.79097
1889000000,-6.9631858,111.48337
1890000000,-6.9556332,111.30006
1891000000,-6.9655447,111.50468
1892000000,-7.0064397,111.30209
1893000000,-6.9924593,111.12843
1894000000,-7.0321298,111.14446
1895000000,-7.0245881,110.98235
1896000000,-7.0245109,110.90247
1897000000,-7.0208597,110.98692
1898000000,-7.059514,110.8672
1899000000,-7.0639343,110.60223
1900000000,-7.0944486,110.59923
1901000000,-7.0731869,110.6405
1902000000,-7.0776997,110.67967
1903000000,-7.0608392,110.23374
1904000000,-7.1092463,110.3605
1905000000,-7.1271648,110.269
1906000000,-7.1032724,110.23726
1907000000,-7.1760106,110.28487
1908000000,-7.1623187,109.92197
1909000000,-7.1638842,109.9258
1910000000,-7.1737809,109.79825
1911000000,-7.1818957,109.86839
1912000000,-7.2019839,109.61637
1913000000,-7.199338,109.50703
1914000000,-7.2153139,109.67331
1915000000,-7.2445998,109.55619
1916000000,-7.2903953,109.63319
1917000000,-7.2540703,109.53217
1918000000,-7.2383957,109.27979
1919000000,-7.2728434,109.24521
1920000000,-7.3257356,109.15868
1921000000,-7.3320117,108.99262
1922000000,-7.2989354,108.74554
1923000000,-7.3325977,108.8851
1924000000,-7.3423667,108.97055
1925000000,-7.3531117,108.57592
1926000000,-7.3545766,108.72829
1927000000,-7.372746,108.3178
1928000000,-7.3964605,108.56978
1929000000,-7.3738804,108.47303
1930000000,-7.4281607,108.32007
1931000000,-7.4229374,108.29902
1932000000,-7.4176931,108.37741
1933000000,-7.4361467,108.10735
1934000000,-7.465446,108.26022
1935000000,-7.4910259,108.0378
1936000000,-7.499166,107.74505
1937000000,-7.4887986,107.78208
1938000000,-7.5194998,107.77428
1939000000,-7.5375228,107.62041
1940000000,-7.5665183,107.54152
1941000000,-7.5425329,107.40257
1942000000,-7.5370755,107.33755
1943000000,-7.5582495,107.33273
1944000000,-7.605104,107.02177
1945000000,-7.564436,107.06611
1946000000,-7.5602264,107.22855
1947000000,-7.584908,106.80586
1948000000,-7.6160913,106.87069
1949000000,-7.6633286,106.95153
1950000000,-7.6681294,106.81458
1951000000,-7.6632271,106.51889
1952000000,-7.6897149,106.6837
1953000000,-7.7208786,106.57533
1954000000,-7.7033925,106.57275
1955000000,-7.6713252,106.14112
1956000000,-7.7458186,106.42471
1957000000,-7.7376566,106.11417
1958000000,-7.7528501,105.94538
1959000000,-7.7633977,106.09791
1960000000,-7.7861695,106.07589
1961000000,-7.7961912,105.82745
1962000000,-7.7981343,105.64197
1963000000,-7.8428993,105.69215
1964000000,-7.8193116,105.62517
1965000000,-7.8735676,105.5397
1966000000,-7.8592167,105.44917
1967000000,-7.8368235,105.4845
1968000000,-7.8798223,105.40411
1969000000,-7.872292,105.36368
1970000000,-7.8997836,105.24952
1971000000,-7.929193,105.14432
1972000000,-7.9658828,104.79357
1973000000,-7.9740138,105.13771
1974000000,-7.9630127,104.80332
1975000000,-7.9672365,104.70874
1976000000,-7.9813662,104.6813
1977000000,-8.0049801,104.54623
1978000000,-8.0194206,104.67108
1979000000,-8.0346823,104.60555
1980000000,-8.0494947,104.69467
1981000000,-8.0687675,104.29373
1982000000,-8.1203623,104.19116
1983000000,-8.1095028,104.06356
1984000000,-8.1354618,104.26384
1985000000,-8.1316538,104.20361
1986000000,-8.1503391,104.0204
1987000000,-8.1366272,103.80802
1988000000,-8.1738043,103.98268
1989000000,-8.2164574,103.61021
1990000000,-8.2211895,103.45641
1991000000,-8.2392101,103.88762
1992000000,-8.2521515,103.53664
1993000000,-8.2603817,103.39951
1994000000,-8.2464046,103.57574
1995000000,-8.2710972,103.29949
1996000000,-8.274519,103.24793
1997000000,-8.2773161,103.11185
1998000000,-8.3050613,103.21104
1999000000,-8.3137922,102.82249
2000000000,-8.3628626,102.90818
2001000000,-8.3265438,103.06645
2002000000,-8.3738518,102.93266
2003000000,-8.4096079,102.75333
2004000000,-8.4065046,102.60805
2005000000,-8.4116669,102.39855
2006000000,-8.4405985,102.60236
2007000000,-8.4428339,102.48621
2008000000,-8.4609375,102.38131
2009000000,-8.4722996,102.34904
2010000000,-8.4629526,102.10887
2011000000,-8.5222654,102.22748
2012000000,-8.5353775,102.18837
2013000000,-8.5310526,101.82865
2014000000,-8.5482721,101.94897
2015000000,-8.5957689,101.81699
2016000000,-8.6121578,101.69498
2017000000,-8.5895662,101.61948
2018000000,-8.6073122,101.68202
2019000000,-8.6686916,101.53586
2020000000,-8.6265135,101.39612
2021000000,-8.7050734,101.41499
2022000000,-8.6656904,101.09653
2023000000,-8.702199,101.1275
2024000000,-8.6994877,101.20115
2025000000,-8.7331772,100.9018
2026000000,-8.7609844,101.08561
2027000000,-8.7427711,100.82278
2028000000,-8.7808027,100.80858
2029000000,-8.7558947,100.73151
2030000000,-8.8105068,100.61598
2031000000,-8.8338032,100.67458
2032000000,-8.8438349,100.42281
2033000000,-8.8237762,100.466
2034000000,-8.8536282,100.61777
2035000000,-8.8542528,100.59366
2036000000,-8.9060612,100.12818
2037000000,-8.9368935,99.941925
2038000000,-8.9241533,99.82209
2039000000,-8.954977,100.39406
2040000000,-8.976634,99.863846
2041000000,-8.9868441,100.03649
2042000000,-9.0165968,99.785477
2043000000,-9.0315399,99.553307
2044000000,-9.0275831,99.605446
2045000000,-9.0625658,99.6064
2046000000,-9.0810966,99.457146
2047000000,-9.0976372,99.582298
2048000000,-9.1133318,99.504997
2049000000,-9.0922346,99.124084
2050000000,-9.1485405,98.966141
2051000000,-9.1823406,99.014328
2052000000,-9.1618023,99.006584
2053000000,-9.2127409,99.170265
2054000000,-9.2152491,99.054939
2055000000,-9.2489882,98.722198
2056000000,-9.2544146,98.865868
2057000000,-9.2611685,98.610069
2058000000,-9.2450819,98.523743
2059000000,-9.2731247,98.255905
2060000000,-9.3256207,98.423843
2061000000,-9.3421679,98.540817
2062000000,-9.3452539,98.341492
2063000000,-9.386466,98.436424
2064000000,-9.390523,97.811134
2065000000,-9.4168262,98.054176
2066000000,-9.4186382,97.908592
2067000000,-9.4365673,98.051888
2068000000,-9.441781,97.88131
2069000000,-9.4988956,97.800041
2070000000,-9.4945593,97.929405
2071000000,-9.5227356,97.589241
2072000000,-9.5135603,97.673523
2073000000,-9.57656,97.617393
2074000000,-9.5976734,97.760323
2075000000,-9.6043396,97.360909
2076000000,-9.6093435,97.097923
2077000000,-9.6443577,96.946991
2078000000,-9.6401606,97.168762
2079000000,-9.6791677,97.086258
2080000000,-9.6537876,97.027298
2081000000,-9.6906729,97.133949
2082000000,-9.7027674,96.833984
2083000000,-9.7426071,96.689621
2084000000,-9.7510786,96.538483
2085000000,-9.7825346,96.5588
2086000000,-9.7951326,96.447861
2087000000,-9.8245668,96.23291
2088000000,-9.8254976,96.324158
2089000000,-9.8955641,96.288811
2090000000,-9.855238,96.306107
2091000000,-9.883955,96.118149
2092000000,-9.9276543,96.110168
2093000000,-9.9523849,95.989632
2094000000,-9.973031,96.162888
2095000000,-9.9912453,96.035278
2096000000,-9.9871225,95.93441
2097000000,-10.016864,95.885002
2098000000,-9.9988155,95.773293
2099000000,-10.038932,95.486282
2100000000,-10.108649,95.618584
2101000000,-10.096437,95.488564
2102000000,-10.15255,95.532997
2103000000,-10.139839,95.283829
2104000000,-10.122296,95.170578
2105000000,-10.190076,95.338516
2106000000,-10.215517,95.041382
2107000000,-10.243106,95.088539
2108000000,-10.250978,94.932823
2109000000,-10.270883,94.987213
2110000000,-10.307762,94.771698
2111000000,-10.336524,94.684578
2112000000,-10.334407,94.715752
2113000000,-10.396349,94.61219
2114000000,-10.386795,94.607368
2115000000,-10.383121,94.255989
2116000000,-10.384377,94.638992
2117000000,-10.45587,94.391899
2118000000,-10.431546,93.95948
2119000000,-10.46323,94.070541
2120000000,-10.502534,94.248169
2121000000,-10.51738,94.097496
2122000000,-10.534516,94.202896
2123000000,-10.543429,94.187134
2124000000,-10.616318,94.062347
2125000000,-10.636037,94.014748
2126000000,-10.601667,93.638031
2127000000,-10.667721,93.88604
2128000000,-10.704558,93.609825
2129000000,-10.692784,93.707321
2130000000,-10.728531,93.782639
2131000000,-10.733551,93.458519
2132000000,-10.778541,93.378952
2133000000,-10.777086,93.269142
2134000000,-10.804074,93.339737
2135000000,-10.851847,93.18161
2136000000,-10.810885,93.431602
2137000000,-10.862758,93.094261
2138000000,-10.902206,92.947983
2139000000,-10.923613,92.962784
2140000000,-10.920197,93.089691
2141000000,-10.924758,93.033974
2142000000,-10.999929,92.930878
2143000000,-11.030671,92.662651
2144000000,-11.030665,92.785156
2145000000,-11.085116,92.501495
2146000000,-11.056787,92.58316
2147000000,-11.103172,92.455215
2148000000,-11.107376,92.541832
2149000000,-11.13147,92.113602
2150000000,-11.177502,92.266571
2151000000,-11.157413,92.39032
2152000000,-11.183647,92.339943
2153000000,-11.217013,91.946594
2154000000,-11.229106,92.009727
2155000000,-11.280006,91.659889
2156000000,-11.318957,91.951385
2157000000,-11.355685,91.769699
2158000000,-11.33951,91.769241
2159000000,-11.366242,91.887558
2160000000,-11.363443,91.725906
2161000000,-11.383366,91.537323
2162000000,-11.436714,91.59938
2163000000,-11.501783,91.451859
2164000000,-11.509892,91.379272
2165000000,-11.51003,91.301193
2166000000,-11.549331,91.281631
2167000000,-11.544935,91.359207
2168000000,-11.566158,91.25499
2169000000,-11.620833,91.349304
2170000000,-11.659433,91.364693
2171000000,-11.671453,91.169205
2172000000,-11.676739,90.99662
2173000000,-11.740127,90.954536
2174000000,-11.72878,91.032242
2175000000,-11.776426,90.74321
2176000000,-11.807727,90.671661
2177000000,-11.802676,90.998596
2178000000,-11.833372,90.707375
2179000000,-11.851676,90.653229
2180000000,-11.877188,90.569939
2181000000,-11.890245,90.749329
2182000000,-11.905339,90.616463
2183000000,-11.938675,90.450356
2184000000,-11.985617,90.420166
2185000000,-12.017221,90.338676
2186000000,-12.049008,90.263657
2187000000,-12.057265,89.973999
2188000000,-12.085355,90.210007
2189000000,-12.100172,90.138992
2190000000,-12.136006,90.054924
2191000000,-12.173154,90.080139
2192000000,-12.19129,89.893333
2193000000,-12.197795,89.854912
2194000000,-12.250191,89.888176
2195000000,-12.234129,90.03463
2196000000,-12.275835,89.685692
2197000000,-12.296479,89.523369
2198000000,-12.329051,89.898674
2199000000,-12.34865,89.627144
2200000000,-12.372923,89.722717
2201000000,-12.385004,89.350807
2202000000,-12.448564,89.554512
2203000000,-12.442809,89.353661
2204000000,-12.465638,89.330185
2205000000,-12.486026,89.363518
2206000000,-12.537991,89.534615
2207000000,-12.558545,89.370728
2208000000,-12.571205,89.221176
2209000000,-12.619392,88.973831
2210000000,-12.65005,89.285675
2211000000,-12.661272,89.106903
2212000000,-12.678162,88.826904
2213000000,-12.755913,89.24147
2214000000,-12.769499,88.914688
2215000000,-12.798078,88.730225
2216000000,-12.791623,88.876434
2217000000,-12.817129,88.824158
2218000000,-12.828653,88.960007
2219000000,-12.869831,88.795357
2220000000,-12.926069,88.661934
2221000000,-12.93477,88.485275
2222000000,-12.944582,88.632286
2223000000,-12.987958,88.541107
2224000000,-13.007042,88.544113
2225000000,-13.034105,88.382698
2226000000,-13.108814,88.542038
2227000000,-13.092724,88.493111
2228000000,-13.099381,88.491982
2229000000,-13.146592,88.219742
2230000000,-13.173474,88.070007
2231000000,-13.183723,88.153214
2232000000,-13.253315,87.990128
2233000000,-13.275895,88.116638
2234000000,-13.294455,88.168076
2235000000,-13.299055,87.970848
2236000000,-13.367097,87.78936
2237000000,-13.38054,87.934265
2238000000,-13.393433,87.916832
2239000000,-13.482285,87.783249
2240000000,-13.455225,87.762413
2241000000,-13.502089,87.587456
2242000000,-13.519646,87.83371
2243000000,-13.536844,87.60334
2244000000,-13.581745,87.829239
2245000000,-13.589969,87.543869
2246000000,-13.653523,87.495964
2247000000,-13.644315,87.569603
2248000000,-13.709433,87.399704
2249000000,-13.700116,87.272751
2250000000,-13.769571,87.305344
2251000000,-13.774346,87.509201
2252000000,-13.801698,87.291016
2253000000,-13.839449,87.232246
2254000000,-13.859025,87.314728
2255000000,-13.90919,87.075233
2256000000,-13.938864,87.056725
2257000000,-13.960209,87.086601
2258000000,-14.001168,87.065956
2259000000,-14.035337,87.229301
2260000000,-14.093797,86.978905
2261000000,-14.115273,87.14521
2262000000,-14.147222,86.76635
2263000000,-14.145886,86.920578
2264000000,-14.193583,86.802818
2265000000,-14.208787,87.05558
2266000000,-14.24434,86.872726
2267000000,-14.261444,87.042282
2268000000,-14.335249,86.746727
2269000000,-14.358001,86.955177
2270000000,-14.35328,86.859322
2271000000,-14.406963,86.767288
2272000000,-14.452958,86.676476
2273000000,-14.455786,86.594162
2274000000,-14.475335,86.481964
2275000000,-14.526583,86.817947
2276000000,-14.592978,86.687927
2277000000,-14.565737,86.437798
2278000000,-14.625525,86.50647
2279000000,-14.654862,86.496376
2280000000,-14.71946,86.474983
2281000000,-14.74489,86.363976
2282000000,-14.745943,86.551765
2283000000,-14.789772,86.435974
2284000000,-14.826283,86.136711
2285000000,-14.893617,86.124329
2286000000,-14.890452,85.99115
2287000000,-14.929018,86.325928
2288000000,-14.963503,86.347748
2289000000,-15.000582,85.929115
2290000000,-15.020779,85.995384
2291000000,-15.061893,85.992317
2292000000,-15.096179,86.054802
2293000000,-15.126009,85.824104
2294000000,-15.16306,85.719147
2295000000,-15.211937,85.963081
2296000000,-15.242599,85.817108
2297000000,-15.287326,85.788109
2298000000,-15.329241,85.70134
2299000000,-15.336391,85.649811
2300000000,-15.392387,85.597191
2301000000,-15.424179,85.693596
2302000000,-15.457384,85.736542
2303000000,-15.503075,85.496948
2304000000,-15.553252,85.582794
2305000000,-15.57258,85.595673
2306000000,-15.569135,85.637497
2307000000,-15.667542,85.492149
2308000000,-15.662015,85.450417
2309000000,-15.711099,85.224045
2310000000,-15.750409,85.447731
2311000000,-15.745386,85.332909
2312000000,-15.832395,85.346245
2313000000,-15.891833,85.370216
2314000000,-15.855733,85.274185
2315000000,-15.932446,85.399246
2316000000,-15.956719,85.28891
2317000000,-16.006786,85.369774
2318000000,-16.006079,85.193253
2319000000,-16.05731,85.199516
2320000000,-16.11286,85.180489
2321000000,-16.172888,85.117371
2322000000,-16.172836,85.160477
2323000000,-16.240456,85.056572
2324000000,-16.288486,84.99572
2325000000,-16.315197,85.053833
2326000000,-16.401764,85.125168
2327000000,-16.405813,84.791344
2328000000,-16.4673,85.061058
2329000000,-16.501162,84.945557
2330000000,-16.553785,85.033104
2331000000,-16.552212,84.886856
2332000000,-16.637772,84.976219
2333000000,-16.669529,85.026428
2334000000,-16.69805,84.914833
2335000000,-16.764761,84.8452
2336000000,-16.77845,84.849236
2337000000,-16.83836,85.045601
2338000000,-16.892727,84.939186
2339000000,-16.90645,84.676407
2340000000,-16.913666,84.853973
2341000000,-17.039858,84.980003
2342000000,-17.052622,84.679153
2343000000,-17.094961,84.742111
2344000000,-17.088278,84.771225
2345000000,-17.207006,84.880066
2346000000,-17.217405,84.952934
2347000000,-17.256145,84.98497
2348000000,-17.30743,84.818436
2349000000,-17.300367,84.768044
2350000000,-17.362505,84.626411
2351000000,-17.430695,84.630821
2352000000,-17.44239,84.8965
2353000000,-17.519844,84.792892
2354000000,-17.565912,84.62719
2355000000,-17.597916,84.913261
2356000000,-17.643646,84.584328
2357000000,-17.738379,84.686737
2358000000,-17.717302,84.628975
2359000000,-17.776077,84.859108
2360000000,-17.811028,84.919754
2361000000,-17.825724,84.769775
2362000000,-17.934376,84.687904
2363000000,-17.956867,84.578957
2364000000,-17.992729,84.70314
2365000000,-18.087275,84.512413
2366000000,-18.096161,84.619507
2367000000,-18.145935,84.71405
2368000000,-18.172659,85.091812
2369000000,-18.257374,84.837593
2370000000,-18.280319,85.208237
2371000000,-18.30974,84.826637
2372000000,-18.414528,84.687141
2373000000,-18.432474,84.866936
2374000000,-18.479677,84.914902
2375000000,-18.518764,84.806427
2376000000,-18.58666,84.821274
2377000000,-18.613844,84.893166
2378000000,-18.685953,84.733398
2379000000,-18.694756,84.762352
2380000000,-18.800241,84.748009
2381000000,-18.828823,84.799255
2382000000,-18.84786,84.687416
2383000000,-18.911472,84.911858
2384000000,-18.965744,84.812607
2385000000,-19.017965,84.919212
2386000000,-19.063139,84.958664
2387000000,-19.127863,84.865242
2388000000,-19.201809,84.979149
2389000000,-19.223602,84.803581
2390000000,-19.249592,84.647919
2391000000,-19.362007,84.456627
2392000000,-19.365162,85.204163
2393000000,-19.464277,84.931412
2394000000,-19.483604,84.73111
2395000000,-19.595921,85.086823
2396000000,-19.676107,84.785126
2397000000,-19.629583,84.878296
2398000000,-19.774092,85.400856
2399000000,-19.763039,85.08564
2400000000,-19.837332,85.043762
2401000000,-19.916388,84.955414
2402000000,-19.939577,85.045197
2403000000,-19.979597,84.802795
2404000000,-20.063021,84.94075
2405000000,-20.128912,85.00016
2406000000,-20.240286,85.175407
2407000000,-20.204336,85.108086
2408000000,-20.281858,85.09127
2409000000,-20.390507,85.121559
2410000000,-20.424267,85.140373
2411000000,-20.506203,84.889275
2412000000,-20.506788,85.401138
2413000000,-20.602526,85.399986
2414000000,-20.636623,85.395035
2415000000,-20.692915,85.347046
2416000000,-20.758682,85.3451
2417000000,-20.789265,85.787239
2418000000,-20.92564,85.485069
2419000000,-20.94945,85.875694
2420000000,-21.03297,85.684837
2421000000,-21.053778,85.964424
2422000000,-21.134478,85.731888
2423000000,-21.222244,85.834053
2424000000,-21.290636,86.38485
2425000000,-21.355865,86.032166
2426000000,-21.423882,86.271965
2427000000,-21.446924,85.982841
2428000000,-21.631788,86.459824
2429000000,-21.62196,86.067711
2430000000,-21.686464,86.750671
2431000000,-21.762894,86.650002
2432000000,-21.852171,86.817719
2433000000,-21.920813,86.593361
2434000000,-21.952841,86.746826
2435000000,-21.991293,86.508934
2436000000,-22.104479,86.628899
2437000000,-22.204897,86.979698
2438000000,-22.33894,86.757576
2439000000,-22.324406,87.235626
2440000000,-22.427406,87.2313
2441000000,-22.497633,87.318741
2442000000,-22.502367,87.296974
2443000000,-22.653532,87.297859
2444000000,-22.674515,87.650612
2445000000,-22.712181,87.730873
2446000000,-22.813364,87.630028
2447000000,-22.913992,87.672195
2448000000,-23.048529,87.663605
2449000000,-23.071522,87.807144
2450000000,-23.184299,87.773376
2451000000,-23.269802,88.196884
2452000000,-23.346664,88.389664
2453000000,-23.416054,88.672546
2454000000,-23.483547,88.90519
2455000000,-23.50132,88.845024
2456000000,-23.630081,89.501984
2457000000,-23.737812,89.099815
2458000000,-23.780899,88.892097
2459000000,-23.869169,88.912727
2460000000,-23.989399,89.679344
2461000000,-24.085447,89.201775
2462000000,-24.154966,89.189316
2463000000,-24.290289,89.737251
2464000000,-24.336277,90.27314
2465000000,-24.424742,90.318832
2466000000,-24.489399,89.885818
2467000000,-24.589491,90.366096
2468000000,-24.647823,90.120056
2469000000,-24.851038,90.886528
2470000000,-24.849148,90.718567
2471000000,-24.985273,90.909691
2472000000,-24.984364,91.599739
2473000000,-25.162212,91.067436
2474000000,-25.240463,91.520386
2475000000,-25.296682,92.245392
2476000000,-25.380716,92.469742
2477000000,-25.494282,92.577103
2478000000,-25.627037,92.586586
2479000000,-25.717714,92.697914
2480000000,-25.788717,93.074875
2481000000,-25.879063,93.874878
2482000000,-26.012945,93.986008
2483000000,-26.108835,94.527863
2484000000,-26.119074,94.269447
2485000000,-26.223303,94.706909
2486000000,-26.377457,95.14254
2487000000,-26.537262,95.477379
2488000000,-26.623039,95.363121
2489000000,-26.675959,96.178345
2490000000,-26.812265,96.082336
2491000000,-26.872749,96.663765
2492000000,-27.053431,97.611092
2493000000,-27.269218,97.700005
2494000000,-27.19281,97.79744
2495000000,-27.50548,98.832756
2496000000,-27.490652,99.164497
2497000000,-27.626514,99.195992
2498000000,-27.687712,99.474205
2499000000,-27.878265,99.616051
2500000000,-27.938356,101.322
2501000000,-28.150272,100.84122
2502000000,-28.188677,100.83706
2503000000,-28.196371,101.95808
2504000000,-28.520752,102.64173
2505000000,-28.611607,104.11192
2506000000,-28.803547,103.90536
2507000000,-28.845018,104.76695
2508000000,-28.801884,104.55664
2509000000,-29.123831,105.33182
2510000000,-29.160509,106.32064
2511000000,-29.348372,106.94193
2512000000,-29.617977,107.13321
2513000000,-29.541075,108.49737
2514000000,-29.646774,108.43446
2515000000,-29.730551,109.63477
2516000000,-29.976013,110.12547
2517000000,-30.014229,110.59762
2518000000,-30.315823,111.19778
2519000000,-30.371674,113.18337
2520000000,-30.479929,112.30154
2521000000,-30.699734,114.69512
2522000000,-30.626308,113.89806
2523000000,-30.877674,115.15517
2524000000,-31.05604,115.98087
2525000000,-31.218313,116.07035
2526000000,-31.26342,118.25295
2527000000,-31.418232,119.6066
2528000000,-31.526003,121.26578
2529000000,-31.442282,122.27435
2530000000,-31.744377,122.85909
2531000000,-31.738258,123.79505
2532000000,-31.862001,125.5322
2533000000,-32.112637,125.46004
2534000000,-32.024445,127.98085
2535000000,-32.204124,129.51057
2536000000,-32.31044,130.17538
2537000000,-32.29475,131.46252
2538000000,-32.840416,133.33415
2539000000,-32.73243,132.89899
2540000000,-32.757351,136.27805
2541000000,-32.648365,137.16548
2542000000,-32.88279,139.50172
2543000000,-32.905594,140.20247
2544000000,-32.994457,141.87289
2545000000,-32.815094,143.2222
2546000000,-33.035164,145.80927
2547000000,-33.168972,146.12204
2548000000,-33.192608,149.21074
2549000000,-33.09362,150.44748
2550000000,-33.154163,151.15814
2551000000,-33.186756,152.27682
2552000000,-33.121964,156.1572
2553000000,-33.273666,158.69328
2554000000,-33.021355,158.19499
2555000000,-33.020309,160.98903
2556000000,-32.959782,161.50024
2557000000,-32.888309,162.82874
2558000000,-33.122746,163.68578
2559000000,-33.02459,165.54005
2560000000,-32.860992,167.38347
2561000000,-32.723633,170.24242
2562000000,-32.634827,171.34868
2563000000,-32.354847,171.80977
2564000000,-32.643257,172.19395
2565000000,-32.409294,174.78281
2566000000,-32.329037,176.58522
2567000000,-32.260468,176.98579
2568000000,-32.090816,179.43521
2569000000,-31.861141,182.09036
2570000000,-31.686884,183.27776
2571000000,-31.696671,183.73647
2572000000,-31.657932,183.0078
2573000000,-31.78433,185.32355
2574000000,-31.334389,187.06325
2575000000,-31.37348,189.26164
2576000000,-31.352577,188.54698
2577000000,-31.197506,188.99567
2578000000,-30.907541,190.02162
2579000000,-30.689022,193.32855
2580000000,-30.606857,192.27089
2581000000,-30.642206,193.10045
2582000000,-30.53002,193.95799
2583000000,-30.511023,195.60062
2584000000,-30.126341,195.93657
2585000000,-30.332848,197.46965
2586000000,-30.050055,197.48471
2587000000,-29.851259,198.99672
2588000000,-29.688234,198.54771
2589000000,-29.515841,199.1024
2590000000,-29.57543,201.85803
2591000000,-29.461432,201.55891
2592000000,-29.222013,203.10263
2593000000,-29.115093,202.25055
2594000000,-29.06893,203.37186
2595000000,-28.835411,203.5981
2596000000,-28.701412,204.30905
2597000000,-28.537733,205.3604
2598000000,-28.357111,205.45676
2599000000,-28.357716,205.73579
2600000000,-28.356041,206.24361
2601000000,-28.060402,206.9946
2602000000,-27.862865,207.11475
2603000000,-27.808987,207.91722
2604000000,-27.681587,208.72424
2605000000,-27.620342,208.45445
2606000000,-27.47665,209.70807
2607000000,-27.436522,208.96243
2608000000,-27.261236,209.8425
2609000000,-27.217211,210.20746
2610000000,-26.954115,210.68164
2611000000,-26.908638,210.36674
2612000000,-26.821211,211.3674
2613000000,-26.751972,211.59473
2614000000,-26.534004,212.3376
2615000000,-26.379698,211.93498
2616000000,-26.242628,213.59319
2617000000,-26.398685,213.67981
2618000000,-26.249516,213.01218
2619000000,-26.169657,214.05032
2620000000,-25.904387,213.13548
2621000000,-25.867035,214.28557
2622000000,-25.616159,214.63379
2623000000,-25.700682,214.53075
2624000000,-25.44791,214.59171
2625000000,-25.379383,215.45663
2626000000,-25.387579,214.61929
2627000000,-25.200672,216.26115
2628000000,-25.217562,215.79817
2629000000,-25.075336,215.9903
2630000000,-25.040575,216.17766
2631000000,-24.883066,216.06964
2632000000,-24.84046,217.44795
2633000000,-24.806219,216.94669
2634000000,-24.620029,216.37791
2635000000,-24.565222,217.55458
2636000000,-24.34828,217.77209
2637000000,-24.359341,218.08702
2638000000,-24.244904,217.96773
2639000000,-24.178593,218.27997
2640000000,-24.089149,218.61276
2641000000,-23.89485,218.47762
2642000000,-23.845634,218.98994
2643000000,-23.812204,218.961
2644000000,-23.704971,218.65202
2645000000,-23.618631,219.0578
2646000000,-23.511328,218.42149
2647000000,-23.464621,219.25146
2648000000,-23.382967,219.14529
2649000000,-23.28207,219.06152
2650000000,-23.305363,219.88091
2651000000,-23.235754,219.67093
2652000000,-23.1154,219.5515
2653000000,-23.038961,219.58563
2654000000,-22.946259,219.1994
2655000000,-22.852037,219.7413
2656000000,-22.80658,219.94695
2657000000,-22.708967,220.48293
2658000000,-22.630795,219.85414
2659000000,-22.578497,220.38306
2660000000,-22.56024,220.56955
2661000000,-22.400078,220.58105
2662000000,-22.368996,220.96298
2663000000,-22.240887,220.83266
2664000000,-22.228409,220.35434
2665000000,-22.165998,220.52094
2666000000,-22.133972,220.84669
2667000000,-21.990881,220.54053
2668000000,-21.947084,220.88019
2669000000,-21.856876,221.26242
2670000000,-21.827745,220.93805
2671000000,-21.74152,220.87502
2672000000,-21.669807,221.10213
2673000000,-21.621698,221.44304
2674000000,-21.611063,221.18201
2675000000,-21.479811,221.16621
2676000000,-21.468479,221.34326
2677000000,-21.326769,220.98685
2678000000,-21.250229,221.35132
2679000000,-21.247124,221.7366
2680000000,-21.120113,221.49097
2681000000,-21.109182,221.45551
2682000000,-21.058496,222.29936
2683000000,-21.052269,221.33852
2684000000,-20.939135,221.82872
2685000000,-20.879435,221.73033
2686000000,-20.855896,221.76268
2687000000,-20.765696,221.64825
2688000000,-20.710777,221.93013
2689000000,-20.624437,222.56209
2690000000,-20.595057,221.79486
2691000000,-20.46876,222.19626
2692000000,-20.450216,222.04901
2693000000,-20.400173,221.70361
2694000000,-20.337301,222.17116
2695000000,-20.26022,221.30768
2696000000,-20.269041,221.84587
2697000000,-20.191828,222.10738
2698000000,-20.115082,222.31609
2699000000,-20.120394,221.8665
2700000000,-20.039011,222.1087
2701000000,-19.978563,222.30441
2702000000,-19.862581,222.0948
2703000000,-19.859602,222.16191
2704000000,-19.764372,222.13492
2705000000,-19.781702,222.22923
2706000000,-19.627945,222.42441
2707000000,-19.663631,222.41257
2708000000,-19.567728,222.23264
2709000000,-19.452923,221.938
2710000000,-19.481382,222.12779
2711000000,-19.435738,222.20456
2712000000,-19.353691,222.4451
2713000000,-19.289587,222.33328
2714000000,-19.206589,222.58182
2715000000,-19.24448,222.28439
2716000000,-19.178802,222.23184
2717000000,-19.087286,222.43407
2718000000,-19.026327,222.25854
2719000000,-19.010527,222.36903
2720000000,-18.967443,222.41927
2721000000,-18.958179,222.60074
2722000000,-18.815191,222.37531
2723000000,-18.808197,222.87766
2724000000,-18.740513,222.79453
2725000000,-18.795752,222.92993
2726000000,-18.697468,222.3197
2727000000,-18.618153,222.62971
2728000000,-18.605471,222.6993
2729000000,-18.551769,222.14067
2730000000,-18.505751,222.51062
2731000000,-18.410051,222.53996
2732000000,-18.467432,222.33473
2733000000,-18.374235,222.36661
2734000000,-18.291073,222.07283
2735000000,-18.233828,221.78772
2736000000,-18.229891,222.08386
2737000000,-18.180956,222.00702
2738000000,-18.142879,222.54411
2739000000,-18.05847,221.81789
2740000000,-18.021255,222.16083
2741000000,-17.976429,222.1938
2742000000,-17.937765,222.226
2743000000,-17.820858,221.94597
2744000000,-17.792768,221.80328
2745000000,-17.794619,222.66251
2746000000,-17.773043,221.72849
2747000000,-17.752827,221.93787
2748000000,-17.694757,222.02943
2749000000,-17.664032,222.12944
2750000000,-17.603863,221.9567
2751000000,-17.581743,221.65375
2752000000,-17.514189,221.78055
2753000000,-17.487537,221.99631
2754000000,-17.482563,221.94698
2755000000,-17.405188,221.94234
2756000000,-17.347321,221.88144
2757000000,-17.34173,222.09293
2758000000,-17.286572,221.87396
2759000000,-17.203379,221.95053
2760000000,-17.184029,221.90096
2761000000,-17.148157,221.64551
2762000000,-17.10108,221.73434
2763000000,-17.108318,221.4418
2764000000,-17.000656,221.64441
2765000000,-16.975677,221.6055
2766000000,-16.962711,221.83725
2767000000,-16.897715,221.65533
2768000000,-16.867502,221.82149
2769000000,-16.800865,221.89629
2770000000,-16.806326,221.78477
2771000000,-16.769886,221.56598
2772000000,-16.692753,221.50037
2773000000,-16.666557,222.08981
2774000000,-16.635336,221.40425
2775000000,-16.584732,221.83324
2776000000,-16.561022,221.59514
2777000000,-16.519079,221.61722
2778000000,-16.471691,221.56413
2779000000,-16.485271,221.58493
2780000000,-16.393574,221.09117
2781000000,-16.39427,221.49651
2782000000,-16.253725,221.83766
2783000000,-16.349007,221.00534
2784000000,-16.254122,221.09824
2785000000,-16.235247,221.79375
2786000000,-16.193403,221.15715
2787000000,-16.168026,221.03197
2788000000,-16.216934,221.13736
2789000000,-16.143356,221.46184
2790000000,-16.003839,221.23889
2791000000,-16.002855,221.1059
2792000000,-16.072149,221.23103
2793000000,-15.958762,221.39944
2794000000,-15.901466,220.94879
2795000000,-15.851984,221.4888
2796000000,-15.849349,221.09789
2797000000,-15.772391,221.26398
2798000000,-15.7801,220.98161
2799000000,-15.781536,221.21077
2800000000,-15.727169,221.09389
2801000000,-15.766946,220.91524
2802000000,-15.629023,220.81636
2803000000,-15.633821,220.76501
2804000000,-15.599404,220.63435
2805000000,-15.574524,220.89757
2806000000,-15.498208,220.78377
2807000000,-15.530353,220.69109
2808000000,-15.501811,220.64255
2809000000,-15.449426,220.75859
2810000000,-15.382388,220.53069
2811000000,-15.364568,220.4845
2812000000,-15.381669,220.33742
2813000000,-15.319639,220.1859
2814000000,-15.269875,220.63142
2815000000,-15.238156,220.38956
2816000000,-15.253022,220.13496
2817000000,-15.196131,220.1799
2818000000,-15.237748,220.27672
2819000000,-15.151778,220.36885
2820000000,-15.080061,220.39003
2821000000,-15.035266,219.95468
2822000000,-15.011189,220.28525
2823000000,-15.051448,220.03947
2824000000,-15.03497,220.13629
2825000000,-14.93465,220.0493
2826000000,-14.883615,219.95601
2827000000,-14.85089,219.92311
2828000000,-14.844395,219.67165
2829000000,-14.871812,219.85628
2830000000,-14.800014,219.94092
2831000000,-14.773482,219.66907
2832000000,-14.736815,219.38763
2833000000,-14.675245,219.97435
2834000000,-14.687972,219.54683
2835000000,-14.663074,219.79231
2836000000,-14.620096,219.43361
2837000000,-14.603431,219.74889
2838000000,-14.610759,219.27951
2839000000,-14.536305,219.48784
2840000000,-14.589907,219.52188
2841000000,-14.467529,219.15059
2842000000,-14.469191,219.31367
2843000000,-14.404835,219.09648
2844000000,-14.401604,219.16965
2845000000,-14.350596,219.20824
2846000000,-14.353657,219.5576
2847000000,-14.285664,219.01181
2848000000,-14.268104,218.8999
2849000000,-14.298794,219.09138
2850000000,-14.259567,219.32257
2851000000,-14.226232,219.11771
2852000000,-14.226864,218.56584
2853000000,-14.096347,218.7804
2854000000,-14.101937,218.78313
2855000000,-14.149129,218.94118
2856000000,-14.139692,219.06104
2857000000,-14.064172,218.80869
2858000000,-13.987142,218.34491
2859000000,-14.009432,218.43475
2860000000,-14.009641,218.56235
2861000000,-13.94509,218.58548
2862000000,-13.937327,218.59789
2863000000,-13.862164,218.35089
2864000000,-13.913078,217.98515
2865000000,-13.757207,218.5674
2866000000,-13.827642,218.18729
2867000000,-13.807105,218.36693
2868000000,-13.770516,217.91319
2869000000,-13.720212,218.02386
2870000000,-13.639616,218.24858
2871000000,-13.682545,218.00771
2872000000,-13.644254,218.25708
2873000000,-13.658477,217.80737
2874000000,-13.583813,218.03459
2875000000,-13.645445,217.83685
2876000000,-13.559947,217.8858
2877000000,-13.556531,217.57686
2878000000,-13.472638,217.8044
2879000000,-13.502673,217.27469
2880000000,-13.503477,217.65681
2881000000,-13.406604,217.57706
2882000000,-13.433017,217.69963
2883000000,-13.419527,217.2596
2884000000,-13.388995,217.71846
2885000000,-13.354914,217.38904
2886000000,-13.323182,217.04047
2887000000,-13.266077,217.53546
2888000000,-13.289568,216.99017
2889000000,-13.308749,217.04222
2890000000,-13.266066,216.81175
2891000000,-13.260254,216.90654
2892000000,-13.202462,217.03264
2893000000,-13.166491,216.89624
2894000000,-13.173663,216.72476
2895000000,-13.11545,216.80688
2896000000,-13.152497,216.80522
2897000000,-13.094236,216.76355
2898000000,-13.040497,216.80992
2899000000,-13.068474,216.35091
2900000000,-13.031552,216.46169
2901000000,-12.984833,216.35329
2902000000,-12.953314,216.42578
2903000000,-12.962673,216.17143
2904000000,-12.952341,216.05533
2905000000,-12.927986,216.05896
2906000000,-12.894523,216.40359
2907000000,-12.818447,216.19318
2908000000,-12.811135,216.13351
2909000000,-12.813581,216.14442
2910000000,-12.79076,216.01773
2911000000,-12.758795,215.61696
2912000000,-12.770101,215.39775
2913000000,-12.716508,215.59335
2914000000,-12.67254,215.57077
2915000000,-12.601965,215.75929
2916000000,-12.701277,215.75191
2917000000,-12.59788,215.84901
2918000000,-12.697554,215.4063
2919000000,-12.596072,215.51961
2920000000,-12.534417,215.34869
2921000000,-12.516179,215.22324
2922000000,-12.55611,215.31261
2923000000,-12.494617,215.80559
2924000000,-12.532195,215.1143
2925000000,-12.490496,215.29982
2926000000,-12.455464,214.99907
2927000000,-12.403805,214.91962
2928000000,-12.388756,215.17068
2929000000,-12.390061,214.8075
2930000000,-12.380395,215.02863
2931000000,-12.323602,214.76906
2932000000,-12.357345,214.81941
2933000000,-12.323429,214.90936
2934000000,-12.239475,214.75526
2935000000,-12.31205,214.38795
2936000000,-12.213885,214.73491
2937000000,-12.208138,214.47289
2938000000,-12.187634,214.62372
2939000000,-12.150912,214.54129
2940000000,-12.148738,214.13312
2941000000,-12.118863,214.21608
2942000000,-12.133368,214.20595
2943000000,-12.105605,214.147
2944000000,-12.061074,214.22554
2945000000,-12.087022,214.23444
2946000000,-12.025467,213.78633
2947000000,-12.004785,213.81848
2948000000,-11.993003,213.96915
2949000000,-12.00879,213.92728
2950000000,-11.860645,213.7757
2951000000,-11.932039,213.99696
2952000000,-11.910522,213.74948
2953000000,-11.898875,214.12494
2954000000,-11.878218,213.39629
2955000000,-11.91026,213.50595
2956000000,-11.834664,213.41965
2957000000,-11.850586,212.95274
2958000000,-11.790164,213.78644
2959000000,-11.81256,213.17358
2960000000,-11.755199,212.99783
2961000000,-11.758621,213.06345
2962000000,-11.716738,212.72472
2963000000,-11.750198,213.16505
2964000000,-11.672437,213.42255
2965000000,-11.725199,213.14186
2966000000,-11.6575,212.77304
2967000000,-11.635603,212.8916
2968000000,-11.650358,212.7646
2969000000,-11.601727,212.93771
2970000000,-11.607513,212.71774
2971000000,-11.593564,212.34631
2972000000,-11.540623,212.51213
2973000000,-11.518579,212.82755
2974000000,-11.559652,212.5618
2975000000,-11.530756,212.53618
2976000000,-11.529572,212.44582
2977000000,-11.464996,212.34479
2978000000,-11.451374,212.10316
2979000000,-11.431125,212.28072
2980000000,-11.405425,212.26671
2981000000,-11.38805,212.26068
2982000000,-11.392635,212.14662
2983000000,-11.343884,212.00873
2984000000,-11.305104,212.03253
2985000000,-11.32371,211.85074
2986000000,-11.327767,211.9265
2987000000,-11.308525,211.64871
2988000000,-11.286203,212.12411
2989000000,-11.232855,211.49437
2990000000,-11.19272,211.7794
2991000000,-11.225451,211.60789
2992000000,-11.180639,211.28984
2993000000,-11.169991,211.49225
2994000000,-11.158413,211.12158
2995000000,-11.1731,211.23666
2996000000,-11.113934,211.30611
2997000000,-11.096514,211.13364
2998000000,-11.147259,211.20282
2999000000,-11.092617,211.30312
3000000000,-11.088946,211.10493
3001000000,-11.045259,210.89119
3002000000,-11.064273,210.95187
3003000000,-11.013297,210.98514
3004000000,-10.997001,210.79144
3005000000,-11.003481,210.78299
3006000000,-10.996779,210.51031
3007000000,-10.945027,210.52715
3008000000,-10.935308,210.25682
3009000000,-10.915942,210.58325
3010000000,-10.918015,210.2205
3011000000,-10.942165,210.43536
3012000000,-10.856045,210.46829
3013000000,-10.839228,210.3577
3014000000,-10.850724,210.2511
3015000000,-10.855262,210.19145
3016000000,-10.791607,210.30002
3017000000,-10.829187,210.3257
3018000000,-10.828653,209.9072
3019000000,-10.781016,209.95222
3020000000,-10.740688,210.0193
3021000000,-10.716603,209.71506
3022000000,-10.707542,209.82286
3023000000,-10.706329,209.75099
3024000000,-10.688777,209.53128
3025000000,-10.63461,209.74028
3026000000,-10.654593,209.38745
3027000000,-10.660049,209.73109
3028000000,-10.623335,209.29768
3029000000,-10.611829,209.35066
3030000000,-10.620347,209.34094
3031000000,-10.558447,209.22296
3032000000,-10.553854,209.10214
3033000000,-10.549505,209.29665
3034000000,-10.559361,209.14919
3035000000,-10.499095,209.10826
3036000000,-10.530844,209.13112
3037000000,-10.481283,208.78659
3038000000,-10.47798,208.96387
3039000000,-10.473303,208.99988
3040000000,-10.453683,208.76717
3041000000,-10.450504,208.84454
3042000000,-10.433734,208.7066
3043000000,-10.436684,208.54947
3044000000,-10.410671,208.55219
3045000000,-10.348285,208.32686
3046000000,-10.352944,208.23257
3047000000,-10.385808,208.16122
3048000000,-10.338831,208.11563
3049000000,-10.375318,208.4976
3050000000,-10.319715,208.28412
3051000000,-10.28035,208.21773
3052000000,-10.291056,208.03619
3053000000,-10.28035,208.14116
3054000000,-10.266865,207.91685
3055000000,-10.266416,208.0118
3056000000,-10.268952,207.827
3057000000,-10.208333,207.80862
3058000000,-10.223799,207.6519
3059000000,-10.200169,207.52612
3060000000,-10.166879,207.21657
3061000000,-10.177027,207.46638
3062000000,-10.176414,207.3985
3063000000,-10.18112,207.5399
3064000000,-10.125583,207.61624
3065000000,-10.108576,206.97166
3066000000,-10.089953,207.26033
3067000000,-10.092022,207.19911
3068000000,-10.022086,207.00194
3069000000,-10.06989,207.13905
3070000000,-10.06223,207.12675
3071000000,-10.036872,206.87639
3072000000,-9.9960899,206.95056
3073000000,-9.9730663,206.87573
3074000000,-10.000696,206.89468
3075000000,-9.9947844,206.54886
3076000000,-9.9631643,206.99022
3077000000,-9.9546728,206.59088
3078000000,-9.9652376,206.52498
3079000000,-9.9403849,206.54276
3080000000,-9.905324,206.57738
3081000000,-9.9070911,206.33459
3082000000,-9.8604946,206.51579
3083000000,-9.8736973,206.19826
3084000000,-9.889142,206.61099
3085000000,-9.8792543,206.27197
3086000000,-9.8249283,206.22772
3087000000,-9.8857574,206.16389
3088000000,-9.8277063,205.89894
3089000000,-9.7967443,205.98413
3090000000,-9.7869244,205.89241
3091000000,-9.7977142,205.9371
3092000000,-9.8110533,205.82294
3093000000,-9.7504539,205.84671
3094000000,-9.7203379,205.89676
3095000000,-9.7566423,205.41176
3096000000,-9.7098608,205.6752
3097000000,-9.7101946,205.59792
3098000000,-9.6999378,205.55174
3099000000,-9.6787376,205.49612
3100000000,-9.6615896,205.31111
3101000000,-9.7097912,205.36348
3102000000,-9.6525488,205.30052
3103000000,-9.6414919,205.24878
3104000000,-9.6601772,205.22122
3105000000,-9.6308479,205.16061
3106000000,-9.5964708,205.05617
3107000000,-9.6248798,204.96275
3108000000,-9.5791063,205.12051
3109000000,-9.5699558,204.88748
3110000000,-9.6012869,204.92766
3111000000,-9.5676003,204.88655
3112000000,-9.5190334,204.94101
3113000000,-9.5262413,204.86945
3114000000,-9.4810925,204.95592
3115000000,-9.5125704,204.74283
3116000000,-9.491704,204.70401
3117000000,-9.4597158,204.60382
3118000000,-9.488533,204.46011
3119000000,-9.4397192,204.53967
3120000000,-9.4562893,204.27737
3121000000,-9.3860245,204.63751
3122000000,-9.4568682,204.38742
3123000000,-9.4172688,203.98175
3124000000,-9.4409428,204.37399
3125000000,-9.3627205,204.16757
3126000000,-9.3876066,204.01514
3127000000,-9.3473644,204.00731
3128000000,-9.3669033,203.82935
3129000000,-9.3532248,203.68202
3130000000,-9.336813,203.43341
3131000000,-9.30439,203.52652
3132000000,-9.26964,203.75006
3133000000,-9.3067322,203.82375
3134000000,-9.2575045,203.50819
3135000000,-9.253705,203.72307
3136000000,-9.2811518,203.37047
3137000000,-9.2616644,203.29857
3138000000,-9.2332058,203.60254
3139000000,-9.2521391,203.25198
3140000000,-9.2309618,203.52687
3141000000,-9.2215519,203.5643
3142000000,-9.1767559,203.26306
3143000000,-9.205184,203.16582
3144000000,-9.2037563,203.03607
3145000000,-9.1959009,202.72205
3146000000,-9.1150904,202.90121
3147000000,-9.1421146,202.98721
3148000000,-9.1449318,203.09305
3149000000,-9.1093349,203.05382
3150000000,-9.132556,202.97972
3151000000,-9.0878811,202.71956
3152000000,-9.1057577,202.74905
3153000000,-9.1139507,202.76669
3154000000,-9.0505209,202.57617
3155000000,-9.0519094,202.53157
3156000000,-9.0646849,202.5583
3157000000,-9.0264883,202.54675
3158000000,-9.070878,202.34512
3159000000,-9.0262728,202.69743
3160000000,-9.00212,202.28584
3161000000,-9.0353136,202.65974
3162000000,-9.0190897,202.47017
3163000000,-8.9464531,202.19174
3164000000,-8.9319773,201.99258
3165000000,-8.9864292,202.054
3166000000,-8.9844465,202.12099
3167000000,-8.9720964,201.96173
3168000000,-8.9428492,201.99934
3169000000,-8.9018049,201.80501
3170000000,-8.9188681,201.82549
3171000000,-8.9186831,201.86058
3172000000,-8.8992109,201.74307
3173000000,-8.8821135,201.81656
3174000000,-8.8828936,201.53537
3175000000,-8.8344936,201.64153
3176000000,-8.8928308,201.54356
3177000000,-8.8515005,201.47322
3178000000,-8.8409214,201.68454
3179000000,-8.8319597,201.46649
3180000000,-8.8243628,201.18611
3181000000,-8.8118992,201.54703
3182000000,-8.7919941,201.03513
3183000000,-8.7823124,201.22595
3184000000,-8.8055925,200.99719
3185000000,-8.7733717,200.99297
3186000000,-8.758625,201.03149
3187000000,-8.7388544,200.65512
3188000000,-8.7090836,201.09296
3189000000,-8.7466908,201.01016
3190000000,-8.7222013,200.79446
3191000000,-8.7056694,200.78644
3192000000,-8.7124014,200.73996
3193000000,-8.6707554,200.83839
3194000000,-8.6581888,200.56509
3195000000,-8.691906,200.46909
3196000000,-8.6475058,200.30061
3197000000,-8.6493616,200.65988
3198000000,-8.6145086,200.59357
3199000000,-8.6504269,200.39366
3200000000,-8.6372366,200.55052
3201000000,-8.6144285,200.289
3202000000,-8.572751,200.1879
3203000000,-8.6155834,200.03625
3204000000,-8.6021767,200.13319
3205000000,-8.641921,200.13921
3206000000,-8.5691662,200.0368
3207000000,-8.5732775,200.20122
3208000000,-8.5356665,199.74019
3209000000,-8.5337782,199.88962
3210000000,-8.5282526,199.82289
3211000000,-8.5432482,199.62843
3212000000,-8.4945755,199.76639
3213000000,-8.5587988,199.41731
3214000000,-8.4676065,199.58417
3215000000,-8.5038271,199.69327
3216000000,-8.4248457,199.50256
3217000000,-8.4674358,199.49687
3218000000,-8.405632,199.54167
3219000000,-8.4260168,199.50638
3220000000,-8.4497089,199.41663
3221000000,-8.4412012,199.25575
3222000000,-8.4052429,199.2803
3223000000,-8.4002142,199.12358
3224000000,-8.4077654,199.1891
3225000000,-8.3725653,199.19693
3226000000,-8.3589764,198.89581
3227000000,-8.3508396,198.91791
3228000000,-8.3924551,198.94319
3229000000,-8.3288965,198.85649
3230000000,-8.3492346,198.88753
3231000000,-8.2971172,199.02077
3232000000,-8.3225718,198.6272
3233000000,-8.3353148,198.98045
3234000000,-8.2573423,198.51231
3235000000,-8.2969904,198.74696
3236000000,-8.3092222,198.43295
3237000000,-8.2820978,198.7502
3238000000,-8.2328129,198.42102
3239000000,-8.295063,198.4511
3240000000,-8.2846174,198.24417
3241000000,-8.2581034,198.38501
3242000000,-8.2571564,198.40559
3243000000,-8.20646,198.09976
3244000000,-8.2654753,198.28423
3245000000,-8.2217779,197.91348
3246000000,-8.2340193,198.07826
3247000000,-8.1967163,198.11263
3248000000,-8.2073774,197.86371
3249000000,-8.1774111,197.90776
3250000000,-8.189332,197.56165
3251000000,-8.1528873,197.67383
3252000000,-8.150588,197.83702
3253000000,-8.1559544,197.67831
3254000000,-8.1726751,197.67712
3255000000,-8.1714439,197.77818
3256000000,-8.1429844,197.85585
3257000000,-8.1274462,197.35655
3258000000,-8.1090794,197.65047
3259000000,-8.1353607,197.29443
3260000000,-8.066678,197.53
3261000000,-8.0942335,197.24048
3262000000,-8.0549593,197.31129
3263000000,-8.0933924,197.26149
3264000000,-8.0820675,197.17818
3265000000,-8.0024509,197.02386
3266000000,-8.0660334,196.93558
3267000000,-8.0342684,196.80287
3268000000,-8.0596228,196.9097
3269000000,-8.0482092,196.90967
3270000000,-8.014431,196.94992
3271000000,-8.0320816,196.78746
3272000000,-8.0057449,196.79845
3273000000,-7.9719028,197.00949
3274000000,-8.0053082,196.80052
3275000000,-7.9877768,196.55226
3276000000,-7.96135,196.71878
3277000000,-7.9676948,196.68877
3278000000,-7.9800682,196.31149
3279000000,-7.9747467,196.34561
3280000000,-7.9804778,195.994
3281000000,-7.9294267,196.44789
3282000000,-7.9321642,196.23421
3283000000,-7.9241142,196.26128
3284000000,-7.9110241,196.03831
3285000000,-7.9183912,196.23747
3286000000,-7.9035835,196.03441
3287000000,-7.9376483,195.72313
3288000000,-7.868484,196.00034
3289000000,-7.900497,196.03186
3290000000,-7.9123445,195.97845
3291000000,-7.829762,195.82596
3292000000,-7.8859205,195.66328
3293000000,-7.8660197,195.57507
3294000000,-7.8012967,195.62909
3295000000,-7.8278461,195.86374
3296000000,-7.8238373,195.52679
3297000000,-7.8289857,195.58388
3298000000,-7.8057518,195.39993
3299000000,-7.8118129,195.32623
3300000000,-7.7848721,195.2854
3301000000,-7.8128376,195.39116
3302000000,-7.8053288,195.37369
3303000000,-7.7710109,195.40762
3304000000,-7.7594757,195.11264
3305000000,-7.7272558,195.0229
3306000000,-7.7306504,195.28851
3307000000,-7.7480326,195.13388
3308000000,-7.7089505,194.89807
3309000000,-7.7117753,194.85977
3310000000,-7.7180772,194.98837
3311000000,-7.7012582,194.74361
3312000000,-7.7208195,194.95284
3313000000,-7.7084179,194.75684
3314000000,-7.6835546,194.76489
3315000000,-7.6898794,194.84883
3316000000,-7.6643806,194.81143
3317000000,-7.702282,194.60815
3318000000,-7.6837535,194.48343
3319000000,-7.6430764,194.45731
3320000000,-7.6568818,194.84323
3321000000,-7.661284,194.27431
3322000000,-7.6507354,194.29878
3323000000,-7.6541286,194.50681
3324000000,-7.6402068,194.30872
3325000000,-7.6379838,194.33778
3326000000,-7.6109571,194.05115
3327000000,-7.6043425,194.19354
3328000000,-7.6234555,194.25165
3329000000,-7.5391183,194.18076
3330000000,-7.5664887,194.21138
3331000000,-7.5612826,193.75482
3332000000,-7.5921311,193.74939
3333000000,-7.5722904,193.89769
3334000000,-7.5624061,194.06953
3335000000,-7.5574398,193.74796
3336000000,-7.5504913,193.78056
3337000000,-7.5713677,193.70642
3338000000,-7.5528169,193.74159
3339000000,-7.569006,193.6749
3340000000,-7.5480781,193.74065
3341000000,-7.5091863,193.71078
3342000000,-7.4816241,193.42554
3343000000,-7.4760413,193.54457
3344000000,-7.5079103,193.42195
3345000000,-7.44172,193.30469
3346000000,-7.458209,193.36317
3347000000,-7.4932728,193.17137
3348000000,-7.4853759,193.29359
3349000000,-7.447794,193.16718
3350000000,-7.4395399,192.99147
3351000000,-7.4541187,193.17453
3352000000,-7.4281502,193.10779
3353000000,-7.4382448,192.98918
3354000000,-7.4703879,193.17416
3355000000,-7.4405551,192.89305
3356000000,-7.4503217,192.93222
3357000000,-7.3936396,192.79379
3358000000,-7.4153919,192.99677
3359000000,-7.3964124,192.56773
3360000000,-7.378654,192.70692
3361000000,-7.3736677,192.69125
3362000000,-7.3806977,192.63722
3363000000,-7.3386431,192.38698
3364000000,-7.3578691,192.62834
3365000000,-7.3366494,192.27345
3366000000,-7.3532948,192.44363
3367000000,-7.356523,192.41583
3368000000,-7.2986131,192.34029
3369000000,-7.3442707,192.2946
3370000000,-7.3199134,191.94513
3371000000,-7.3107376,192.34096
3372000000,-7.2967482,192.18013
3373000000,-7.3167653,192.17255
3374000000,-7.3299851,192.11427
3375000000,-7.2946925,192.30623
3376000000,-7.3051891,191.87756
3377000000,-7.3107085,192.15866
3378000000,-7.2996721,191.8766
3379000000,-7.2749133,191.77101
3380000000,-7.258904,191.96049
3381000000,-7.24401,191.7437
3382000000,-7.2793307,191.83067
3383000000,-7.2508063,191.77963
3384000000,-7.2183471,191.64334
3385000000,-7.2070632,191.45087
3386000000,-7.2710094,191.64284
3387000000,-7.226634,191.47194
3388000000,-7.2251587,191.48683
3389000000,-7.1935654,191.3602
3390000000,-7.1890755,191.49313
3391000000,-7.1816397,191.40764
3392000000,-7.2033315,191.44429
3393000000,-7.167634,191.32367
3394000000,-7.2019963,191.29579
3395000000,-7.1758389,191.38132
3396000000,-7.1807027,191.26883
3397000000,-7.1800303,191.22568
3398000000,-7.1894236,191.0273
3399000000,-7.1320605,190.92998
3400000000,-7.1616273,191.05386
3401000000,-7.1612396,190.84155
3402000000,-7.1392679,190.72034
3403000000,-7.1035657,190.87323
3404000000,-7.1340947,190.78458
3405000000,-7.1312881,190.65355
3406000000,-7.1094036,190.91844
3407000000,-7.1185808,191.03233
3408000000,-7.0873742,190.80746
3409000000,-7.0989628,190.6411
3410000000,-7.0804348,190.72311
3411000000,-7.0919585,190.50504
3412000000,-7.0692854,190.64847
3413000000,-7.048605,190.34471
3414000000,-7.1062694,190.42143
3415000000,-7.0798683,190.44589
3416000000,-7.0545359,190.38083
3417000000,-7.0641942,190.2981
3418000000,-7.0542679,190.3197
3419000000,-7.0480299,190.11334
3420000000,-7.0145593,190.24722
3421000000,-7.038497,190.15886
3422000000,-7.0504193,190.11263
3423000000,-7.0163646,189.98154
3424000000,-7.024776,190.16594
3425000000,-7.0319028,190.01201
3426000000,-7.0081902,190.04362
3427000000,-7.0017667,189.84718
3428000000,-6.993125,189.87889
3429000000,-6.9827142,189.8096
3430000000,-6.9849367,189.65872
3431000000,-6.9600382,189.45103
3432000000,-7.0039029,189.71399
3433000000,-6.9586754,189.70581
3434000000,-6.9631109,189.6653
3435000000,-6.9522476,189.5486
3436000000,-6.9455051,189.4212
3437000000,-6.9393473,189.34285
3438000000,-6.9271297,189.23293
3439000000,-6.911243,189.18549
3440000000,-6.9287319,189.12939
3441000000,-6.9132266,189.35666
3442000000,-6.9070334,189.17744
3443000000,-6.9019022,189.26773
3444000000,-6.901278,188.92522
3445000000,-6.8907456,189.1151
3446000000,-6.8787494,189.02223
3447000000,-6.879108,189.17111
3448000000,-6.8970103,189.2601
3449000000,-6.8790765,189.20876
3450000000,-6.8673086,188.71881
3451000000,-6.9012313,188.88052
3452000000,-6.8621035,189.03625
3453000000,-6.8642416,188.95413
3454000000,-6.880363,188.81409
3455000000,-6.869391,188.86789
3456000000,-6.8717651,188.73257
3457000000,-6.8280249,188.65997
3458000000,-6.8432937,188.47699
3459000000,-6.8174229,188.549
3460000000,-6.8134017,188.49811
3461000000,-6.844779,188.46436
3462000000,-6.8268981,188.31512
3463000000,-6.7970872,188.34987
3464000000,-6.81073,188.24199
3465000000,-6.8224344,188.58371
3466000000,-6.7951689,188.20076
3467000000,-6.7742224,188.51932
3468000000,-6.8292727,187.97316
3469000000,-6.7672338,188.05673
3470000000,-6.7968745,188.16106
3471000000,-6.7997165,188.13321
3472000000,-6.7376513,187.95831
3473000000,-6.7811465,187.85851
3474000000,-6.7923517,188.15628
3475000000,-6.7367249,187.83617
3476000000,-6.7233224,187.9785
3477000000,-6.7354102,187.84692
3478000000,-6.7125611,187.77998
3479000000,-6.7212043,187.8316
3480000000,-6.7279339,187.80019
3481000000,-6.7230177,187.57666
3482000000,-6.6781049,187.61375
3483000000,-6.7199922,187.66235
3484000000,-6.7044973,187.62074
3485000000,-6.6914725,187.61308
3486000000,-6.6653624,187.30431
3487000000,-6.7054811,187.47014
3488000000,-6.6706471,187.47079
3489000000,-6.6845593,187.51108
3490000000,-6.6515708,187.41122
3491000000,-6.6471868,187.34583
3492000000,-6.6391187,187.25209
3493000000,-6.6873255,187.26756
3494000000,-6.6206641,187.42139
3495000000,-6.6385856,187.28938
3496000000,-6.622355,187.26062
3497000000,-6.6392617,186.86568
3498000000,-6.6268964,187.1259
3499000000,-6.6239386,186.94804
3500000000,-6.6150465,187.01617
3501000000,-6.6063604,186.9462
3502000000,-6.6322203,186.77876
3503000000,-6.606266,186.74252
3504000000,-6.591145,186.76933
3505000000,-6.6297474,186.68217
3506000000,-6.5680203,186.8078
3507000000,-6.5605202,186.6366
3508000000,-6.5618482,186.84819
3509000000,-6.5821376,186.66508
3510000000,-6.5659137,186.57918
3511000000,-6.5895905,186.67146
3512000000,-6.5567412,186.66675
3513000000,-6.5608263,186.37888
3514000000,-6.5689969,186.41551
3515000000,-6.5680118,186.54985
3516000000,-6.550169,186.1859
3517000000,-6.5524664,186.48616
3518000000,-6.531827,186.31136
3519000000,-6.5229545,186.26678
3520000000,-6.5310864,186.34695
3521000000,-6.487082,186.13129
3522000000,-6.520381,186.0909
3523000000,-6.5269194,186.12144
3524000000,-6.5385761,186.36345
3525000000,-6.4859018,185.99934
3526000000,-6.4777117,186.01015
3527000000,-6.4861093,185.85707
3528000000,-6.5028586,186.15813
3529000000,-6.5027251,185.8649
3530000000,-6.490541,185.85461
3531000000,-6.4949245,185.89194
3532000000,-6.4570866,185.78529
3533000000,-6.4498849,185.89709
3534000000,-6.4780526,185.86903
3535000000,-6.4643264,185.80516
3536000000,-6.4587979,185.71286
3537000000,-6.4453568,185.72826
3538000000,-6.4299932,185.24275
3539000000,-6.4436584,185.49329
3540000000,-6.4371891,185.53294
3541000000,-6.4107566,185.42871
3542000000,-6.419342,185.25624
3543000000,-6.4070597,185.39108
3544000000,-6.4277353,185.48761
3545000000,-6.411623,185.24034
3546000000,-6.4144454,185.51579
3547000000,-6.4077535,185.19803
3548000000,-6.4114203,185.37996
3549000000,-6.4093657,184.97517
3550000000,-6.3942418,185.02039
3551000000,-6.3946857,185.08293
3552000000,-6.3824873,185.08983
3553000000,-6.3983898,185.24959
3554000000,-6.3688092,184.87056
3555000000,-6.3668838,185.00349
3556000000,-6.3818827,184.90268
3557000000,-6.331141,184.71576
3558000000,-6.3633928,184.80505
3559000000,-6.333128,185.02573
3560000000,-6.3659172,184.76955
3561000000,-6.3246398,184.98009
3562000000,-6.3018341,184.59195
3563000000,-6.3384161,184.63838
3564000000,-6.3488822,184.46741
3565000000,-6.3087606,184.42766
3566000000,-6.2928338,184.51044
3567000000,-6.3287058,184.52316
3568000000,-6.3322997,184.43794
3569000000,-6.3059425,184.28241
3570000000,-6.2771664,184.43733
3571000000,-6.2898383,184.39574
3572000000,-6.2610841,184.4192
3573000000,-6.2892404,184.35956
3574000000,-6.282866,184.36113
3575000000,-6.2598581,184.25194
3576000000,-6.2691045,184.33739
3577000000,-6.2607107,184.28955
3578000000,-6.2649693,184.13475
3579000000,-6.2424965,183.92479
3580000000,-6.2581987,184.04881
3581000000,-6.2599592,184.07036
3582000000,-6.2310424,184.00226
3583000000,-6.2414098,183.90407
3584000000,-6.2115674,183.99277
3585000000,-6.2433715,184.08414
3586000000,-6.2385345,183.67012
3587000000,-6.1799865,183.69286
3588000000,-6.2191625,183.68019
3589000000,-6.2054615,183.85162
3590000000,-6.2041278,183.57457
3591000000,-6.1931663,183.6637
3592000000,-6.2233768,183.5708
3593000000,-6.1566877,183.59116
3594000000,-6.1750207,183.3674
3595000000,-6.1704111,183.46442
3596000000,-6.1805935,183.3029
3597000000,-6.1939573,183.31325
3598000000,-6.1731434,183.4202
3599000000,-6.1544085,183.40396
3600000000,-6.1579709,183.31595
3601000000,-6.1492887,183.26326
3602000000,-6.1496496,183.1384
3603000000,-6.1407971,182.94939
3604000000,-6.1368761,182.87987
3605000000,-6.1312571,183.03375
3606000000,-6.113833,183.05092
3607000000,-6.1339684,182.93343
3608000000,-6.1132383,183.1804
3609000000,-6.076941,182.81435
3610000000,-6.0903592,182.90787
3611000000,-6.1073513,182.8315
3612000000,-6.1172857,182.80693
3613000000,-6.0590434,182.73041
3614000000,-6.08634,182.81676
3615000000,-6.1265473,182.50377
3616000000,-6.0509672,182.59377
3617000000,-6.0860476,182.76459
3618000000,-6.0807333,182.42502
3619000000,-6.0906224,182.49594
3620000000,-6.0672622,182.496
3621000000,-6.1119423,182.30125
3622000000,-6.0693898,182.358
3623000000,-6.041965,182.3855
3624000000,-6.1064692,182.41328
3625000000,-6.055851,182.08783
3626000000,-6.0579567,182.24452
3627000000,-6.0336061,182.19917
3628000000,-6.027091,182.17831
3629000000,-6.0271068,182.29485
3630000000,-6.0498548,182.20909
3631000000,-5.9930291,181.94481
3632000000,-6.0216432,181.85643
3633000000,-5.9964976,182.16234
3634000000,-5.9929209,181.99467
3635000000,-5.9957757,181.8288
3636000000,-5.9724507,181.8215
3637000000,-6.0045595,181.81726
3638000000,-5.9765582,181.72693
3639000000,-5.9729643,181.60439
3640000000,-5.9951296,181.65475
3641000000,-5.9620023,181.78812
3642000000,-5.9924278,181.70956
3643000000,-5.960803,181.67836
3644000000,-5.9680562,181.65211
3645000000,-5.9498143,181.53279
3646000000,-5.9288712,181.38554
3647000000,-5.9647851,181.33482
3648000000,-5.9315968,181.59525
3649000000,-5.9707656,181.60428
3650000000,-5.9206657,181.43449
3651000000,-5.9677382,181.0847
3652000000,-5.9377775,181.2036
3653000000,-5.9198484,181.35344
3654000000,-5.8856573,181.14113
3655000000,-5.892827,181.41798
3656000000,-5.9485536,180.97511
3657000000,-5.9090872,181.23199
3658000000,-5.8750291,181.0979
3659000000,-5.9192405,180.9118
3660000000,-5.8544807,180.86722
3661000000,-5.9013352,180.84604
3662000000,-5.8712935,180.86241
3663000000,-5.8792949,180.80556
3664000000,-5.8988323,180.9151
3665000000,-5.8897381,181.03033
3666000000,-5.8750868,180.46637
3667000000,-5.8696022,180.84105
3668000000,-5.8459296,180.76537
3669000000,-5.8547788,180.74358
3670000000,-5.8493147,180.61868
3671000000,-5.8738928,180.67905
3672000000,-5.8489962,180.62149
3673000000,-5.8310494,180.48886
3674000000,-5.8449149,180.43739
3675000000,-5.8464131,180.4221
3676000000,-5.8144608,180.46448
3677000000,-5.8196082,180.25345
3678000000,-5.810081,180.37466
3679000000,-5.8147426,180.13986
3680000000,-5.8029776,180.11494
3681000000,-5.8037167,180.10727
3682000000,-5.7945695,179.98575
3683000000,-5.7819128,179.95697
3684000000,-5.8070998,180.05458
3685000000,-5.8193712,180.07895
3686000000,-5.7552686,179.78287
3687000000,-5.7966075,179.91954
3688000000,-5.7474904,179.81783
3689000000,-5.7584062,179.63799
3690000000,-5.7792821,179.98474
3691000000,-5.7325182,179.86517
3692000000,-5.762341,179.73766
3693000000,-5.764111,179.53136
3694000000,-5.755806,179.45222
3695000000,-5.7231216,179.75392
3696000000,-5.7482657,179.66179
3697000000,-5.739336,179.82491
3698000000,-5.7305446,179.17657
3699000000,-5.7257195,179.42101
3700000000,-5.7001357,179.59605
3701000000,-5.708642,179.58641
3702000000,-5.7449803,179.46837
3703000000,-5.7465219,179.20238
3704000000,-5.7137771,179.21739
3705000000,-5.7301774,179.24733
3706000000,-5.7320204,179.23878
3707000000,-5.7075858,179.09196
3708000000,-5.7128811,179.11916
3709000000,-5.7263823,178.88361
3710000000,-5.6952686,179.10443
3711000000,-5.693368,179.04935
3712000000,-5.7090116,179.05852
3713000000,-5.6874666,179.02115
3714000000,-5.6590137,178.94615
3715000000,-5.6696815,178.90874
3716000000,-5.6778631,178.73116
3717000000,-5.6503553,178.63309
3718000000,-5.6518879,178.67375
3719000000,-5.6301556,178.63803
3720000000,-5.6421204,178.64824
3721000000,-5.6514554,178.68813
3722000000,-5.6429849,178.56117
3723000000,-5.6148443,178.50613
3724000000,-5.662077,178.45508
3725000000,-5.6356192,178.50813
3726000000,-5.600729,178.33615
3727000000,-5.6187658,178.4984
3728000000,-5.6300941,178.24718
3729000000,-5.6026874,178.07593
3730000000,-5.6145535,178.1871
3731000000,-5.6251249,178.19962
3732000000,-5.6133499,178.287
3733000000,-5.6081238,178.13475
3734000000,-5.5936098,178.17079
3735000000,-5.6101041,178.16156
3736000000,-5.6108069,177.94508
3737000000,-5.5854087,178.11557
3738000000,-5.5965414,177.89188
3739000000,-5.6069398,177.98389
3740000000,-5.5555148,177.92552
3741000000,-5.5595264,177.84233
3742000000,-5.5757918,177.90976
3743000000,-5.571166,177.65068
3744000000,-5.5943971,177.57158
3745000000,-5.5347977,177.74992
3746000000,-5.566958,177.84856
3747000000,-5.538188,177.64949
3748000000,-5.5216799,177.63802
3749000000,-5.554615,177.73898
3750000000,-5.5627942,177.43053
3751000000,-5.5499878,177.69243
3752000000,-5.5311608,177.41931
3753000000,-5.530232,177.29019
3754000000,-5.5168824,177.23955
3755000000,-5.535358,177.36336
3756000000,-5.5332108,177.38031
3757000000,-5.5135269,177.19287
3758000000,-5.5205283,177.17331
3759000000,-5.5105414,177.16962
3760000000,-5.5174417,176.95818
3761000000,-5.5193167,177.03021
3762000000,-5.5049467,177.00055
3763000000,-5.5136557,177.02089
3764000000,-5.4939833,176.92648
3765000000,-5.501195,177.08186
3766000000,-5.5055847,176.98595
3767000000,-5.5160794,176.80612
3768000000,-5.4771395,176.77773
3769000000,-5.4611244,176.80107
3770000000,-5.485158,176.85896
3771000000,-5.5115409,176.76302
3772000000,-5.4642615,176.65941
3773000000,-5.4745669,176.36957
3774000000,-5.4387369,176.55798
3775000000,-5.4665289,176.44745
3776000000,-5.4547925,176.28357
3777000000,-5.425365,176.42419
3778000000,-5.4760008,176.45921
3779000000,-5.4556174,176.24213
3780000000,-5.4528017,176.3508
3781000000,-5.4378271,176.24948
3782000000,-5.4306369,176.40454
3783000000,-5.4527712,176.11293
3784000000,-5.4383135,176.20108
3785000000,-5.4533648,176.07712
3786000000,-5.4071708,175.91273
3787000000,-5.4296956,176.11559
3788000000,-5.4013314,175.9277
3789000000,-5.4193835,176.02533
3790000000,-5.4225497,175.9158
3791000000,-5.414083,176.06242
3792000000,-5.4146619,176.01091
3793000000,-5.3971934,175.72464
3794000000,-5.4127493,175.85608
3795000000,-5.3840756,175.74495
3796000000,-5.3903685,175.66298
3797000000,-5.3718061,175.6416
3798000000,-5.3798437,175.65605
3799000000,-5.3961759,175.62395
3800000000,-5.3958797,175.53851
3801000000,-5.3683133,175.57794
3802000000,-5.3750391,175.74019
3803000000,-5.3566031,175.33812
3804000000,-5.3881183,175.43977
3805000000,-5.3750029,175.26906
3806000000,-5.3478823,175.32695
3807000000,-5.3628063,175.31682
3808000000,-5.3516502,175.41211
3809000000,-5.3619885,175.26042
3810000000,-5.3390946,175.18588
3811000000,-5.3438921,175.10854
3812000000,-5.3314505,175.18999
3813000000,-5.3482862,175.21918
3814000000,-5.3112292,175.23602
3815000000,-5.3565025,175.19131
3816000000,-5.3199306,175.06133
3817000000,-5.3597918,174.94081
3818000000,-5.3654103,175.01375
3819000000,-5.3286524,174.85689
3820000000,-5.2950516,174.82626
3821000000,-5.2823758,174.65509
3822000000,-5.2935557,174.57161
3823000000,-5.3482714,174.76178
3824000000,-5.3045554,174.87143
3825000000,-5.281662,174.77461
3826000000,-5.3245988,174.45627
3827000000,-5.2818003,174.61388
3828000000,-5.3122239,174.49321
3829000000,-5.2810359,174.43575
3830000000,-5.2847767,174.42145
3831000000,-5.2864971,174.32899
3832000000,-5.2972593,174.42451
3833000000,-5.264482,174.30205
3834000000,-5.2580147,174.16296
3835000000,-5.2783813,174.25883
3836000000,-5.2668447,174.08829
3837000000,-5.2593107,174.38869
3838000000,-5.2858086,174.24438
3839000000,-5.251224,174.04036
3840000000,-5.2422652,173.97972
3841000000,-5.2778764,174.29124
3842000000,-5.2712879,173.95998
3843000000,-5.2583089,173.93538
3844000000,-5.2561831,174.09172
3845000000,-5.2674465,173.85992
3846000000,-5.2193527,173.85991
3847000000,-5.2171769,173.8242
3848000000,-5.2483525,173.8231
3849000000,-5.2399569,173.8378
3850000000,-5.217536,173.58987
3851000000,-5.2105188,173.65468
3852000000,-5.2194138,173.37987
3853000000,-5.2379627,173.71396
3854000000,-5.1861396,173.69388
3855000000,-5.201098,173.72473
3856000000,-5.2128396,173.43057
3857000000,-5.2043285,173.43742
3858000000,-5.2338362,173.40208
3859000000,-5.1811957,173.23724
3860000000,-5.2032027,173.45442
3861000000,-5.1808681,173.15732
3862000000,-5.2068396,173.02686
3863000000,-5.2240739,173.39363
3864000000,-5.2001214,173.28766
3865000000,-5.175746,173.05815
3866000000,-5.1992722,172.78358
3867000000,-5.1686392,172.93048
3868000000,-5.1785965,173.22462
3869000000,-5.1930723,172.85393
3870000000,-5.1763511,172.88998
3871000000,-5.1749482,172.9312
3872000000,-5.1615005,172.81581
3873000000,-5.1808991,172.73653
3874000000,-5.1718674,172.74268
3875000000,-5.1514354,172.50732
3876000000,-5.164546,172.75977
3877000000,-5.1303563,172.82925
3878000000,-5.1709185,172.32356
3879000000,-5.1347022,172.55255
3880000000,-5.1454563,172.35905
3881000000,-5.1557956,172.50732
3882000000,-5.1294017,172.44429
3883000000,-5.1510096,172.52985
3884000000,-5.1382966,172.31354
3885000000,-5.1279054,172.31522
3886000000,-5.0945458,172.29146
3887000000,-5.1310725,172.30925
3888000000,-5.106411,172.27899
3889000000,-5.1159358,172.08932
3890000000,-5.1021585,172.1185
3891000000,-5.10746,172.13702
3892000000,-5.1225495,172.13074
3893000000,-5.1066618,172.1575
3894000000,-5.1191101,172.19139
3895000000,-5.1160631,171.70319
3896000000,-5.1010704,171.89592
3897000000,-5.0763745,171.87532
3898000000,-5.1009345,171.6992
3899000000,-5.0871916,171.8054
3900000000,-5.0822582,171.9538
3901000000,-5.0790529,171.57483
3902000000,-5.1099229,171.64153
3903000000,-5.0781088,171.44725
3904000000,-5.0727377,171.64723
3905000000,-5.063643,171.6136
3906000000,-5.0937099,171.49223
3907000000,-5.0952439,171.39308
3908000000,-5.0535226,171.50552
3909000000,-5.0500202,171.55321
3910000000,-5.0689778,171.76309
3911000000,-5.0442185,171.23967
3912000000,-5.104135,170.92851
3913000000,-5.0620494,171.3075
3914000000,-5.0485387,171.1339
3915000000,-5.0545835,171.12256
3916000000,-5.0539727,171.16092
3917000000,-5.0424948,171.03418
3918000000,-5.032104,170.85701
3919000000,-5.0348616,170.98415
3920000000,-5.0329232,171.28424
3921000000,-5.0422721,170.92758
3922000000,-5.0396929,171.05989
3923000000,-5.0155649,170.64145
3924000000,-5.0348377,170.78522
3925000000,-4.9985695,170.67482
3926000000,-5.0215859,170.71979
3927000000,-5.0193558,170.63266
3928000000,-5.0181804,170.75809
3929000000,-5.0146532,170.62221
3930000000,-5.0605645,170.4901
3931000000,-4.9978504,170.57919
3932000000,-5.0046515,170.4787
3933000000,-4.9864688,170.41907
3934000000,-5.0199213,170.46701
3935000000,-4.9835143,170.28371
3936000000,-4.9977055,170.457
3937000000,-4.9903936,170.13817
3938000000,-4.9657273,170.30309
3939000000,-5.0001245,170.20956
3940000000,-4.9924316,170.00879
3941000000,-4.9937797,170.20068
3942000000,-4.9774904,170.21468
3943000000,-4.989677,170.19843
3944000000,-4.9706197,170.15012
3945000000,-4.9698195,169.97876
3946000000,-4.9711161,170.03265
3947000000,-4.9696155,169.9848
3948000000,-4.978673,169.75359
3949000000,-4.9757895,169.67641
3950000000,-4.9932065,169.70947
3951000000,-4.9605031,169.69644
3952000000,-4.9558158,169.99907
3953000000,-4.949203,169.61949
3954000000,-4.9682655,169.57614
3955000000,-4.9522114,169.49948
3956000000,-4.9614182,169.78181
3957000000,-4.9548984,169.51321
3958000000,-4.9274569,169.54579
3959000000,-4.9240551,169.44199
3960000000,-4.9642696,169.56042
3961000000,-4.9328589,169.42807
3962000000,-4.920898,169.22653
3963000000,-4.916285,169.24498
3964000000,-4.9486246,169.20872
3965000000,-4.954792,169.13914
3966000000,-4.9241056,169.00322
3967000000,-4.9276667,169.21822
3968000000,-4.925736,169.08746
3969000000,-4.9136581,168.96684
3970000000,-4.906867,169.16971
3971000000,-4.9268374,168.78485
3972000000,-4.9150481,168.84799
3973000000,-4.9251781,168.7623
3974000000,-4.9331946,168.88548
3975000000,-4.9088583,168.76398
3976000000,-4.9239459,168.86485
3977000000,-4.911469,168.62984
3978000000,-4.9361362,168.66467
3979000000,-4.896987,168.6032
3980000000,-4.8953319,168.53542
3981000000,-4.9100614,168.51328
3982000000,-4.8920507,168.57013
3983000000,-4.880146,168.54218
3984000000,-4.9135022,168.37885
3985000000,-4.868227,168.38667
3986000000,-4.865593,168.36682
3987000000,-4.8768396,168.14511
3988000000,-4.8691983,168.29324
3989000000,-4.8748393,168.26495
3990000000,-4.8758917,168.04085
3991000000,-4.8935022,168.1219
3992000000,-4.8708968,167.96693
3993000000,-4.8752384,167.98228
3994000000,-4.8499203,168.006
3995000000,-4.848815,167.99274
3996000000,-4.8529782,167.74059
3997000000,-4.8641405,168.04794
3998000000,-4.8701844,167.86502
3999000000,-4.8494687,167.75391
4000000000,-4.8439698,167.75435
4001000000,-4.8486032,167.78308
4002000000,-4.8543844,167.71072
4003000000,-4.8186674,167.76355
4004000000,-4.8557134,167.64029
4005000000,-4.8396845,167.60188
4006000000,-4.8359151,167.57501
4007000000,-4.8356767,167.37527
4008000000,-4.8159599,167.5863
4009000000,-4.8466539,167.55963
4010000000,-4.8377194,167.33379
4011000000,-4.8419299,167.34225
4012000000,-4.841785,167.0842
4013000000,-4.8548489,167.29158
4014000000,-4.8468833,167.13802
4015000000,-4.8321233,167.27127
4016000000,-4.8057685,167.07426
4017000000,-4.8466682,167.08029
4018000000,-4.8147364,166.97188
4019000000,-4.8031254,167.01506
4020000000,-4.8031974,167.06918
4021000000,-4.8002324,166.78136
4022000000,-4.7927761,166.87808
4023000000,-4.7936735,166.76218
4024000000,-4.8251939,166.77818
4025000000,-4.7755098,166.97795
4026000000,-4.7784491,166.71736
4027000000,-4.7772427,166.56013
4028000000,-4.7907915,166.54448
4029000000,-4.7730184,166.4949
4030000000,-4.8090749,166.55052
4031000000,-4.8096938,166.36079
4032000000,-4.7876425,166.41571
4033000000,-4.7933798,166.3932
4034000000,-4.8013735,166.41113
4035000000,-4.7857962,166.36949
4036000000,-4.7895803,166.25566
4037000000,-4.8130603,166.16875
4038000000,-4.7911711,166.10336
4039000000,-4.7498779,166.02589
4040000000,-4.7815905,165.94119
4041000000,-4.7764239,165.86765
4042000000,-4.7708025,166.00887
4043000000,-4.7949157,165.81544
4044000000,-4.7775331,165.88728
4045000000,-4.7814965,165.91913
4046000000,-4.7724314,165.92427
4047000000,-4.765964,165.87239
4048000000,-4.7821183,165.69917
4049000000,-4.747457,165.67558
4050000000,-4.7486863,165.58006
4051000000,-4.7642474,165.59128
4052000000,-4.7619596,165.48479
4053000000,-4.7469025,165.66548
4054000000,-4.7614012,165.56816
4055000000,-4.7418261,165.43271
4056000000,-4.7358642,165.4162
4057000000,-4.7511621,165.41357
4058000000,-4.7531977,165.27165
4059000000,-4.7331648,165.30406
4060000000,-4.7546291,165.32358
4061000000,-4.7641058,165.02933
4062000000,-4.7493715,165.13968
4063000000,-4.7451553,165.08719
4064000000,-4.7420578,164.95778
4065000000,-4.7730308,165.03416
4066000000,-4.7297268,164.86043
4067000000,-4.7253113,165.01651
4068000000,-4.7350745,164.86336
4069000000,-4.7552066,164.88237
4070000000,-4.7405062,164.87875
4071000000,-4.7277737,164.74564
4072000000,-4.7476273,164.80215
4073000000,-4.7273626,164.72437
4074000000,-4.75843,164.56129
4075000000,-4.722218,164.65033
4076000000,-4.7411609,164.43909
4077000000,-4.7386451,164.49196
4078000000,-4.7347288,164.58087
4079000000,-4.7059259,164.59937
4080000000,-4.7207713,164.46442
4081000000,-4.723783,164.35378
4082000000,-4.7113595,164.24936
4083000000,-4.7340412,164.35974
4084000000,-4.7319207,164.22748
4085000000,-4.7426639,164.24985
4086000000,-4.7484369,164.10945
4087000000,-4.7377706,164.16051
4088000000,-4.7422595,163.8987
4089000000,-4.7418919,164.27383
4090000000,-4.7176547,163.90553
4091000000,-4.7338228,164.10158
4092000000,-4.7204113,163.96227
4093000000,-4.7388883,163.91679
4094000000,-4.7353745,164.03697
4095000000,-4.7248106,163.87057
4096000000,-4.7229805,163.8326
4097000000,-4.7431364,163.65529
4098000000,-4.7349162,163.79366
4099000000,-4.7357326,163.62204
4100000000,-4.6954455,163.55
4101000000,-4.720778,163.55943
4102000000,-4.7141566,163.60362
4103000000,-4.7045879,163.29123
4104000000,-4.7183886,163.66478
4105000000,-4.7316813,163.39244
4106000000,-4.7144995,163.41508
4107000000,-4.7177677,163.43454
4108000000,-4.6817384,163.25749
4109000000,-4.7104168,163.28587
4110000000,-4.7082191,163.39673
4111000000,-4.6800213,163.0723
4112000000,-4.6979032,163.32419
4113000000,-4.7163911,163.10202
4114000000,-4.6955814,163.06184
4115000000,-4.7016063,162.9823
4116000000,-4.6815996,163.01013
4117000000,-4.6991348,162.97784
4118000000,-4.6692924,163.01788
4119000000,-4.6934285,163.00941
4120000000,-4.6855621,162.74039
4121000000,-4.677321,162.67636
4122000000,-4.694685,162.75671
4123000000,-4.6935773,162.556
4124000000,-4.7233377,162.67136
4125000000,-4.6949148,162.59894
4126000000,-4.7048688,162.49945
4127000000,-4.7051368,162.45311
4128000000,-4.6851864,162.30293
4129000000,-4.6955619,162.46933
4130000000,-4.6666183,162.422
4131000000,-4.6821971,162.30711
4132000000,-4.6952534,162.1713
4133000000,-4.696804,162.21849
4134000000,-4.6962876,162.31856
4135000000,-4.6872053,162.1469
4136000000,-4.6704087,162.12212
4137000000,-4.67343,161.94289
4138000000,-4.6809068,162.08992
4139000000,-4.6825624,162.08498
4140000000,-4.701499,161.99747
4141000000,-4.6555552,162.02402
4142000000,-4.6782155,162.00856
4143000000,-4.6781979,161.72569
4144000000,-4.6949396,161.84486
4145000000,-4.6610126,161.88152
4146000000,-4.6734862,161.85844
4147000000,-4.6774621,161.66057
4148000000,-4.6677794,161.57567
4149000000,-4.6613498,161.79274
4150000000,-4.6735287,161.52466
4151000000,-4.6887169,161.5746
4152000000,-4.643189,161.48898
4153000000,-4.6555586,161.56465
4154000000,-4.6649342,161.48227
4155000000,-4.6682377,161.32454
4156000000,-4.643373,161.27536
4157000000,-4.6645808,161.2417
4158000000,-4.677084,161.48692
4159000000,-4.6720667,161.4169
4160000000,-4.6351714,161.24767
4161000000,-4.6793122,161.14806
4162000000,-4.6827111,161.17639
4163000000,-4.6555781,161.1369
4164000000,-4.6580186,161.03487
4165000000,-4.6354904,161.08603
4166000000,-4.6587677,160.86984
4167000000,-4.6611671,160.98744
4168000000,-4.6650372,160.9456
4169000000,-4.6789293,160.79045
4170000000,-4.6628776,160.73735
4171000000,-4.6572328,160.87254
4172000000,-4.656991,160.83302
4173000000,-4.6445599,160.71536
4174000000,-4.6345263,160.77386
4175000000,-4.610827,160.74579
4176000000,-4.6664734,160.55354
4177000000,-4.6690788,160.49791
4178000000,-4.6650343,160.56378
4179000000,-4.6574888,160.47394
4180000000,-4.6589885,160.50275
4181000000,-4.6571069,160.3867
4182000000,-4.6453137,160.36685
4183000000,-4.6509571,160.39056
4184000000,-4.6331673,160.26779
4185000000,-4.6351662,160.16721
4186000000,-4.6456847,160.31013
4187000000,-4.6673656,160.10085
4188000000,-4.6598473,160.19708
4189000000,-4.6342773,159.95122
4190000000,-4.6774597,159.91612
4191000000,-4.6297541,159.96243
4192000000,-4.631247,160.03506
4193000000,-4.6625328,159.88759
4194000000,-4.6564875,159.90947
4195000000,-4.6296744,159.8165
4196000000,-4.62216,159.69708
4197000000,-4.6357331,159.86772
4198000000,-4.6344619,159.84976
4199000000,-4.6054845,159.54979
4200000000,-4.6173081,159.95461
4201000000,-4.6195903,159.68089
4202000000,-4.6405807,159.48363
4203000000,-4.6507096,159.68748
4204000000,-4.6457896,159.4386
4205000000,-4.6297922,159.36375
4206000000,-4.641644,159.30644
4207000000,-4.6352062,159.39835
4208000000,-4.6514425,159.34348
4209000000,-4.6240072,159.29642
4210000000,-4.6303148,159.26505
4211000000,-4.6418691,159.30833
4212000000,-4.6245866,159.13779
4213000000,-4.6064262,159.07463
4214000000,-4.6564288,158.99625
4215000000,-4.6379457,159.02094
4216000000,-4.6300282,159.06415
4217000000,-4.6364255,158.95987
4218000000,-4.6132069,158.92198
4219000000,-4.597424,158.73332
4220000000,-4.6272721,158.89717
4221000000,-4.6231785,158.76941
4222000000,-4.6177588,158.74593
4223000000,-4.6483006,158.64995
4224000000,-4.5958533,158.92786
4225000000,-4.6345892,158.60164
4226000000,-4.6185532,158.57657
4227000000,-4.6392498,158.64471
4228000000,-4.62607,158.62048
4229000000,-4.6186895,158.42807
4230000000,-4.6193357,158.60132
4231000000,-4.5857553,158.51146
4232000000,-4.6397643,158.36708
4233000000,-4.6014462,158.41588
4234000000,-4.6021447,158.34317
4235000000,-4.6254725,158.22206
4236000000,-4.5725231,158.29327
4237000000,-4.5960507,158.05739
4238000000,-4.5868044,158.18985
4239000000,-4.601469,158.16035
4240000000,-4.5910239,157.97145
4241000000,-4.5747666,158.0459
4242000000,-4.6115594,157.85161
4243000000,-4.606523,157.94464
4244000000,-4.5675116,157.9774
4245000000,-4.6382179,157.83675
4246000000,-4.5845075,157.85086
4247000000,-4.6036959,157.73511
4248000000,-4.5953789,157.81166
4249000000,-4.6030307,157.74426
4250000000,-4.6020432,157.54628
4251000000,-4.6116076,157.48624
4252000000,-4.6114936,157.41788
4253000000,-4.6163583,157.4859
4254000000,-4.6059918,157.52304
4255000000,-4.6043243,157.48491
4256000000,-4.5971246,157.53227
4257000000,-4.6141772,157.47885
4258000000,-4.5927114,157.4046
4259000000,-4.6116176,157.09433
4260000000,-4.5961442,157.31566
4261000000,-4.6281862,157.3392
4262000000,-4.6095233,157.23228
4263000000,-4.6134152,157.02475
4264000000,-4.5805087,157.16766
4265000000,-4.5997715,156.96046
4266000000,-4.6015158,157.02632
4267000000,-4.6012416,156.92131
4268000000,-4.5584216,156.89145
4269000000,-4.6016273,156.96455
4270000000,-4.6058416,156.92915
4271000000,-4.5900221,156.80307
4272000000,-4.5868297,156.90474
4273000000,-4.6068387,156.74011
4274000000,-4.6044788,156.85632
4275000000,-4.5873084,156.50995
4276000000,-4.6241174,156.53458
4277000000,-4.6006231,156.46581
4278000000,-4.6052299,156.62003
4279000000,-4.6120119,156.58179
4280000000,-4.6051602,156.2737
4281000000,-4.5729809,156.57562
4282000000,-4.6007528,156.21169
4283000000,-4.599822,156.31691
4284000000,-4.5890861,155.96455
4285000000,-4.5749598,155.99667
4286000000,-4.5770149,156.22615
4287000000,-4.6196246,155.96471
4288000000,-4.5808992,156.12129
4289000000,-4.6132951,156.07954
4290000000,-4.612669,155.9391
4291000000,-4.5989285,156.0674
4292000000,-4.6101832,155.91718
4293000000,-4.6107664,155.83556
4294000000,-4.6066279,155.84146
4295000000,-4.5783234,155.75444
4296000000,-4.5759945,155.57574
4297000000,-4.6102495,155.63486
4298000000,-4.6065307,155.48462
4299000000,-4.5950341,155.39095
4300000000,-4.599494,155.49939
4301000000,-4.5921831,155.55402
4302000000,-4.6078172,155.48082
4303000000,-4.6117783,155.39125
4304000000,-4.5905485,155.3109
4305000000,-4.6111026,155.28906
4306000000,-4.6089487,155.10023
4307000000,-4.6124206,155.22185
4308000000,-4.5879703,155.19174
4309000000,-4.6057482,155.0036
4310000000,-4.6189218,155.13518
4311000000,-4.6229749,154.98599
4312000000,-4.6282682,155.15233
4313000000,-4.6228209,154.82831
4314000000,-4.6287231,154.96114
4315000000,-4.6373186,154.85225
4316000000,-4.6048579,154.91167
4317000000,-4.6081805,154.8721
4318000000,-4.637239,154.75476
4319000000,-4.6402903,154.92767
4320000000,-4.6365418,154.67877
4321000000,-4.620615,154.68811
4322000000,-4.6137552,154.42641
4323000000,-4.5917182,154.65497
4324000000,-4.6157107,154.5484
4325000000,-4.6362858,154.7095
4326000000,-4.6297317,154.50577
4327000000,-4.6508613,154.50337
4328000000,-4.6403503,154.45399
4329000000,-4.618073,154.56567
4330000000,-4.6155276,154.33398
4331000000,-4.6198182,154.42421
4332000000,-4.6398406,154.21628
4333000000,-4.6295166,154.23178
4334000000,-4.6315665,154.11427
4335000000,-4.6288333,154.13937
4336000000,-4.6251163,154.11847
4337000000,-4.6405053,154.14362
4338000000,-4.6426311,153.89966
4339000000,-4.6366606,153.99496
4340000000,-4.6269579,154.00616
4341000000,-4.6482882,154.03522
4342000000,-4.6503391,153.87572
4343000000,-4.6247325,153.5899
4344000000,-4.6624713,153.76289
4345000000,-4.6623001,153.86612
4346000000,-4.6300726,153.43518
4347000000,-4.6320701,153.47499
4348000000,-4.666029,153.46651
4349000000,-4.6654315,153.42937
4350000000,-4.6689253,153.63937
4351000000,-4.6803565,153.52435
4352000000,-4.6433258,153.47987
4353000000,-4.6722894,153.41141
4354000000,-4.6577358,153.44322
4355000000,-4.6573453,153.11984
4356000000,-4.6446223,153.22466
4357000000,-4.674798,153.26843
4358000000,-4.6659131,153.11919
4359000000,-4.6727352,153.10779
4360000000,-4.6351771,153.08745
4361000000,-4.6446609,152.99059
4362000000,-4.6384954,153.31357
4363000000,-4.6414261,152.83038
4364000000,-4.6717062,153.04535
4365000000,-4.6689358,153.05112
4366000000,-4.6470585,152.94571
4367000000,-4.6638026,152.80673
4368000000,-4.6824212,152.7606
4369000000,-4.6742105,152.89864
4370000000,-4.644433,152.50909
4371000000,-4.6766171,152.63725
4372000000,-4.6767378,152.7935
4373000000,-4.6745911,152.68929
4374000000,-4.6652675,152.78435
4375000000,-4.7059054,152.65048
4376000000,-4.6602163,152.50218
4377000000,-4.6813169,152.53075
4378000000,-4.6728754,152.43411
4379000000,-4.6686654,152.46011
4380000000,-4.6900601,152.42421
4381000000,-4.6904721,152.24178
4382000000,-4.6875896,152.50533
4383000000,-4.6947913,152.28725
4384000000,-4.686368,152.16624
4385000000,-4.6872883,152.24828
4386000000,-4.663538,152.20061
4387000000,-4.6750093,152.31595
4388000000,-4.6848168,152.116
4389000000,-4.6772718,151.91441
4390000000,-4.6970301,152.07086
4391000000,-4.6828485,151.96898
4392000000,-4.696866,152.15529
4393000000,-4.6995988,152.12015
4394000000,-4.689949,151.82611
4395000000,-4.7059832,151.85156
4396000000,-4.6925702,152.06866
4397000000,-4.684145,151.59496
4398000000,-4.6962156,151.71187
4399000000,-4.6810169,151.66327
4400000000,-4.6915112,151.86531
4401000000,-4.6992559,151.51724
4402000000,-4.6774926,151.69168
4403000000,-4.7011771,151.60982
4404000000,-4.6918654,151.78975
4405000000,-4.669148,151.27104
4406000000,-4.7187104,151.42068
4407000000,-4.7317152,151.40248
4408000000,-4.7575073,151.66116
4409000000,-4.751287,151.40065
4410000000,-4.7120929,151.34805
4411000000,-4.7331209,151.29814
4412000000,-4.7183881,151.28943
4413000000,-4.7055445,151.23813
4414000000,-4.7237406,150.98505
4415000000,-4.7135663,151.09448
4416000000,-4.740921,151.07693
4417000000,-4.6957068,150.95581
4418000000,-4.7259851,151.02379
4419000000,-4.7303858,151.06799
4420000000,-4.7262764,151.01826
4421000000,-4.7316546,150.7773
4422000000,-4.7507,150.8186
4423000000,-4.7155557,150.87581
4424000000,-4.7442584,150.69221
4425000000,-4.7264895,150.73338
4426000000,-4.7391419,150.7438
4427000000,-4.7417302,150.48615
4428000000,-4.7348871,150.681
4429000000,-4.7372098,150.46883
4430000000,-4.7508955,150.62669
4431000000,-4.7526035,150.48566
4432000000,-4.7633438,150.62822
4433000000,-4.7472186,150.46307
4434000000,-4.7566495,150.56154
4435000000,-4.7325892,150.49066
4436000000,-4.7441273,150.24718
4437000000,-4.7557349,150.41403
4438000000,-4.7381701,150.16904
4439000000,-4.7556129,150.22539
4440000000,-4.7431006,150.27966
4441000000,-4.7811127,150.25125
4442000000,-4.7615399,150.16815
4443000000,-4.7831006,150.19196
4444000000,-4.7574902,150.09067
4445000000,-4.734199,150.02058
4446000000,-4.7713661,150.02547
4447000000,-4.7747211,149.99844
4448000000,-4.756434,149.98891
4449000000,-4.7827396,149.92561
4450000000,-4.755002,149.79536
4451000000,-4.7823958,150.00153
4452000000,-4.7718673,149.92943
4453000000,-4.7745318,149.79109
4454000000,-4.784338,149.68648
4455000000,-4.7355561,149.66905
4456000000,-4.7664552,149.64038
4457000000,-4.7947807,149.62491
4458000000,-4.7588048,149.6116
4459000000,-4.757432,149.51637
4460000000,-4.7690954,149.6044
4461000000,-4.7358441,149.50766
4462000000,-4.7743945,149.40468
4463000000,-4.7483039,149.58139
4464000000,-4.7640781,149.3373
4465000000,-4.7494278,149.40302
4466000000,-4.8049603,149.35124
4467000000,-4.7735362,149.32549
4468000000,-4.78122,149.18344
4469000000,-4.7492452,149.26048
4470000000,-4.7944798,149.20755
4471000000,-4.8066974,148.90155
4472000000,-4.7739892,149.09758
4473000000,-4.7809024,149.10364
4474000000,-4.788197,149.04962
4475000000,-4.801116,149.01855
4476000000,-4.7960882,148.97446
4477000000,-4.7847357,148.82356
4478000000,-4.7889905,149.05373
4479000000,-4.7733951,148.91905
4480000000,-4.7847943,148.70987
4481000000,-4.8039012,148.75237
4482000000,-4.818469,148.73865
4483000000,-4.7995129,148.68748
4484000000,-4.7887301,148.72095
4485000000,-4.8236914,148.74107
4486000000,-4.7950511,148.61974
4487000000,-4.8277626,148.55196
4488000000,-4.8314195,148.83885
4489000000,-4.8218732,148.36264
4490000000,-4.8198829,148.50037
4491000000,-4.8226399,148.50533
4492000000,-4.8046055,148.34703
4493000000,-4.8525519,148.34619
4494000000,-4.8239527,148.39168
4495000000,-4.8031921,148.29684
4496000000,-4.8529615,148.23111
4497000000,-4.8414426,148.36896
4498000000,-4.8502951,148.23363
4499000000,-4.8453178,148.026
4500000000,-4.8287191,148.18825
4501000000,-4.8085713,148.18924
4502000000,-4.8382239,148.08284
4503000000,-4.8202462,148.0421
4504000000,-4.8182592,147.81207
4505000000,-4.8067122,147.89644
4506000000,-4.8401785,147.9698
4507000000,-4.849216,147.98172
4508000000,-4.8316541,147.77007
4509000000,-4.8192387,147.81281
4510000000,-4.8067403,147.78838
4511000000,-4.8649302,147.85049
4512000000,-4.8191943,147.6274
4513000000,-4.8678446,147.68042
4514000000,-4.8530226,147.64026
4515000000,-4.846293,147.56404
4516000000,-4.8252568,147.63281
4517000000,-4.848506,147.50296
4518000000,-4.8175006,147.66046
4519000000,-4.8408508,147.42285
4520000000,-4.8882475,147.49138
4521000000,-4.8718944,147.40337
4522000000,-4.850872,147.40172
4523000000,-4.8598022,147.34634
4524000000,-4.8593817,147.24525
4525000000,-4.8703132,147.31134
4526000000,-4.8588004,147.26926
4527000000,-4.8825889,147.03407
4528000000,-4.8580775,146.97301
4529000000,-4.8763075,147.215
4530000000,-4.8622112,146.92516
4531000000,-4.8534284,146.9749
4532000000,-4.8839989,147.05635
4533000000,-4.8761125,146.96152
4534000000,-4.8800235,146.71841
4535000000,-4.904707,146.68512
4536000000,-4.8822026,146.74561
4537000000,-4.8691559,146.793
4538000000,-4.8974514,146.74959
4539000000,-4.8712049,146.79483
4540000000,-4.8977313,146.84984
4541000000,-4.9191952,146.49405
4542000000,-4.9050546,146.49457
4543000000,-4.8961811,146.54561
4544000000,-4.9087391,146.39478
4545000000,-4.8725519,146.52246
4546000000,-4.8878779,146.41167
4547000000,-4.8966575,146.22556
4548000000,-4.9142613,146.48853
4549000000,-4.9050555,146.3139
4550000000,-4.9079719,146.22182
4551000000,-4.8993721,146.29732
4552000000,-4.8951602,146.19632
4553000000,-4.905714,146.38275
4554000000,-4.9039831,146.15468
4555000000,-4.8889594,146.01215
4556000000,-4.8989072,146.00993
4557000000,-4.9001436,145.93376
4558000000,-4.9354954,146.01215
4559000000,-4.9164896,146.14391
4560000000,-4.9133115,145.70132
4561000000,-4.9113846,145.81685
4562000000,-4.9241185,145.9239
4563000000,-4.9110923,145.62561
4564000000,-4.9341378,145.67624
4565000000,-4.9189925,145.81862
4566000000,-4.9221191,145.76129
4567000000,-4.947998,145.6955
4568000000,-4.9333744,145.60071
4569000000,-4.9358253,145.6257
4570000000,-4.9453478,145.63368
4571000000,-4.9216394,145.27582
4572000000,-4.9449277,145.34412
4573000000,-4.9512038,145.40683
4574000000,-4.93542,145.53859
4575000000,-4.953361,145.29166
4576000000,-4.9371576,145.43222
4577000000,-4.9581418,145.05136
4578000000,-4.9350419,145.2348
4579000000,-4.9577265,145.10327
4580000000,-4.963975,145.15918
4581000000,-4.9683094,145.04173
4582000000,-4.9753075,145.12154
4583000000,-4.9613004,145.01744
4584000000,-4.9515362,144.85515
4585000000,-4.9772134,144.79547
4586000000,-4.9853468,144.9894
4587000000,-4.9697299,144.68858
4588000000,-4.9565301,144.8522
4589000000,-4.9646645,144.87721
4590000000,-4.9776959,144.74083
4591000000,-4.9830966,144.77611
4592000000,-4.9683995,144.8499
4593000000,-5.0045271,144.54556
4594000000,-5.0186753,144.71092
4595000000,-4.9987102,144.51836
4596000000,-4.9839845,144.60736
4597000000,-5.0017972,144.77927
4598000000,-4.9650435,144.51349
4599000000,-4.9916701,144.53734
4600000000,-5.0126271,144.46559
4601000000,-5.0292988,144.44049
4602000000,-4.9970617,144.3835
4603000000,-5.010438,144.34616
4604000000,-5.001153,144.41853
4605000000,-5.0217767,144.26996
4606000000,-5.0202065,144.05075
4607000000,-5.0266871,144.28784
4608000000,-5.024888,144.34935
4609000000,-5.0031137,144.06682
4610000000,-5.0272665,144.14525
4611000000,-5.0182819,143.99385
4612000000,-4.9978085,143.83052
4613000000,-5.065577,143.67918
4614000000,-5.0025277,143.88824
4615000000,-5.0321965,143.87657
4616000000,-5.0090122,143.64555
4617000000,-5.0461545,143.66254
4618000000,-5.0391231,143.84459
4619000000,-4.9959054,143.57079
4620000000,-5.0430379,143.70782
4621000000,-5.044136,143.65959
4622000000,-5.0342889,143.54175
4623000000,-5.0533037,143.62401
4624000000,-5.0713334,143.70862
4625000000,-5.0459871,143.28415
4626000000,-5.0390439,143.77017
4627000000,-5.0484824,143.28931
4628000000,-5.0917449,143.35789
4629000000,-5.0806298,143.17278
4630000000,-5.0975766,143.14075
4631000000,-5.0750694,143.21675
4632000000,-5.0486069,143.20628
4633000000,-5.0967484,143.23796
4634000000,-5.0582809,143.13461
4635000000,-5.0826735,142.91885
4636000000,-5.0827785,142.95361
4637000000,-5.0990753,143.13643
4638000000,-5.0689554,143.07077
4639000000,-5.0835414,142.9173
4640000000,-5.1130414,142.86263
4641000000,-5.0898666,142.90639
4642000000,-5.1204925,142.78206
4643000000,-5.1234822,142.84163
4644000000,-5.123435,142.78781
4645000000,-5.1192665,142.81383
4646000000,-5.1468067,142.73798
4647000000,-5.1459594,142.44861
4648000000,-5.157124,142.58505
4649000000,-5.1422386,142.57535
4650000000,-5.1111164,142.70531
4651000000,-5.1372871,142.31143
4652000000,-5.1494546,142.46652
4653000000,-5.1230869,142.39796
4654000000,-5.1586919,142.28946
4655000000,-5.1306243,142.10721
4656000000,-5.1563535,142.20457
4657000000,-5.1516948,142.28264
4658000000,-5.141314,142.35335
4659000000,-5.1691356,142.2341
4660000000,-5.148756,142.24916
4661000000,-5.1752834,141.89421
4662000000,-5.1824999,142.0262
4663000000,-5.1647573,142.08899
4664000000,-5.1651931,141.98738
4665000000,-5.1781697,141.82388
4666000000,-5.1861854,141.63998
4667000000,-5.1811924,141.84953
4668000000,-5.1557121,142.01074
4669000000,-5.1957316,141.95354
4670000000,-5.1835151,141.83095
4671000000,-5.1688495,141.71626
4672000000,-5.1903124,141.55357
4673000000,-5.2009993,141.54358
4674000000,-5.2007837,141.56767
4675000000,-5.2206011,141.59938
4676000000,-5.1811709,141.68887
4677000000,-5.1969323,141.40245
4678000000,-5.2065468,141.34869
4679000000,-5.1895514,141.27727
4680000000,-5.2356791,141.42213
4681000000,-5.2255688,141.21205
4682000000,-5.2463584,141.24651
4683000000,-5.2197194,141.34129
4684000000,-5.1860843,141.15416
4685000000,-5.2383614,141.03638
4686000000,-5.2558389,141.16402
4687000000,-5.2233224,141.10788
4688000000,-5.200047,141.16826
4689000000,-5.2385373,140.88461
4690000000,-5.2806292,140.83612
4691000000,-5.2298474,141.07138
4692000000,-5.2655492,140.91216
4693000000,-5.2225299,140.91656
4694000000,-5.2467942,140.71748
4695000000,-5.2792263,140.7518
4696000000,-5.2527094,140.65941
4697000000,-5.2547531,140.64507
4698000000,-5.277842,140.78503
4699000000,-5.2912574,140.59477
4700000000,-5.277122,140.63217
4701000000,-5.2630811,140.68929
4702000000,-5.2708731,140.45396
4703000000,-5.310164,140.39304
4704000000,-5.253582,140.48271
4705000000,-5.3276844,140.41412
4706000000,-5.2787247,140.48451
4707000000,-5.3005238,140.24318
4708000000,-5.2920442,140.08095
4709000000,-5.3093228,140.27414
4710000000,-5.2763247,140.41881
4711000000,-5.289084,140.01645
4712000000,-5.3099155,140.13817
4713000000,-5.2580395,139.80316
4714000000,-5.3101211,139.97447
4715000000,-5.3293324,140.10675
4716000000,-5.3093133,140.01442
4717000000,-5.3078461,139.98633
4718000000,-5.3077474,140.23051
4719000000,-5.343133,140.11713
4720000000,-5.3163819,140.03584
4721000000,-5.349617,140.00926
4722000000,-5.3278294,139.85838
4723000000,-5.3411317,139.85915
4724000000,-5.3254409,139.92039
4725000000,-5.3466196,139.83609
4726000000,-5.3648267,139.82404
4727000000,-5.3262415,139.6841
4728000000,-5.3680692,139.57619
4729000000,-5.3526773,139.54695
4730000000,-5.3925982,139.56866
4731000000,-5.4074287,139.28802
4732000000,-5.3852043,139.53192
4733000000,-5.3691506,139.65048
4734000000,-5.3478737,139.22919
4735000000,-5.369318,139.24634
4736000000,-5.3925486,138.97705
4737000000,-5.3714643,139.29172
4738000000,-5.4178696,139.24026
4739000000,-5.3856015,139.12701
4740000000,-5.4020209,139.0096
4741000000,-5.3971081,139.06148
4742000000,-5.4056478,139.12004
4743000000,-5.387476,138.99162
4744000000,-5.4190459,139.09462
4745000000,-5.4199271,138.69492
4746000000,-5.4582653,139.02818
4747000000,-5.4299569,138.82823
4748000000,-5.4057603,138.82739
4749000000,-5.4347143,138.81505
4750000000,-5.4357862,138.61272
4751000000,-5.4221268,138.80566
4752000000,-5.418416,138.83463
4753000000,-5.4441857,138.55028
4754000000,-5.4321175,138.76007
4755000000,-5.4656701,138.69099
4756000000,-5.4445152,138.80554
4757000000,-5.4631538,138.73753
4758000000,-5.4651861,138.70239
4759000000,-5.4790282,138.52151
4760000000,-5.4230399,138.42009
4761000000,-5.4691815,138.50528
4762000000,-5.4884501,138.58965
4763000000,-5.487401,138.40991
4764000000,-5.4581838,138.35834
4765000000,-5.4950619,138.39693
4766000000,-5.5025163,138.32106
4767000000,-5.5156035,138.35349
4768000000,-5.5096288,138.43639
4769000000,-5.5398221,138.51924
4770000000,-5.5447469,138.01544
4771000000,-5.501255,138.14018
4772000000,-5.526125,138.0634
4773000000,-5.51474,138.15652
4774000000,-5.5008912,137.826
4775000000,-5.5250311,137.91371
4776000000,-5.52773,137.75287
4777000000,-5.5125875,137.95609
4778000000,-5.5354934,137.90094
4779000000,-5.5331712,137.61195
4780000000,-5.5472569,137.67067
4781000000,-5.5425177,137.8035
4782000000,-5.5404778,137.50151
4783000000,-5.5909061,137.60873
4784000000,-5.5404291,137.48672
4785000000,-5.5800643,137.51006
4786000000,-5.5951276,137.60843
4787000000,-5.548358,137.59721
4788000000,-5.5872779,137.25259
4789000000,-5.6127281,137.58656
4790000000,-5.5809226,137.38489
4791000000,-5.5703149,137.39261
4792000000,-5.6169395,137.34096
4793000000,-5.599762,137.3044
4794000000,-5.581121,137.49168
4795000000,-5.6015716,137.1089
4796000000,-5.595047,137.23512
4797000000,-5.6089845,137.41614
4798000000,-5.6247935,137.17131
4799000000,-5.6210198,137.27672
4800000000,-5.6413789,137.03195
4801000000,-5.6253891,137.11272
4802000000,-5.6472726,137.18352
4803000000,-5.6186457,136.98102
4804000000,-5.6014338,137.05579
4805000000,-5.6259432,136.72113
4806000000,-5.6653638,136.59961
4807000000,-5.6434479,136.90508
4808000000,-5.6776605,136.89845
4809000000,-5.6456203,136.82594
4810000000,-5.6663852,136.78894
4811000000,-5.6610851,136.70107
4812000000,-5.6669731,136.46249
4813000000,-5.6697245,136.62494
4814000000,-5.6914749,136.4384
4815000000,-5.6779661,136.63213
4816000000,-5.6728921,136.48538
4817000000,-5.7249384,136.42365
4818000000,-5.7037716,136.61732
4819000000,-5.7254615,136.47304
4820000000,-5.7093382,136.47523
4821000000,-5.7467332,136.19073
4822000000,-5.7160721,136.23793
4823000000,-5.7365327,136.43832
4824000000,-5.7575645,136.44135
4825000000,-5.7759352,136.43861
4826000000,-5.7501788,136.38272
4827000000,-5.7538457,135.9962
4828000000,-5.7594872,135.9986
4829000000,-5.7604227,135.80916
4830000000,-5.773057,136.0432
4831000000,-5.7929158,136.26408
4832000000,-5.7980499,136.09433
4833000000,-5.7937522,135.89388
4834000000,-5.7958078,135.83855
4835000000,-5.7763295,135.70561
4836000000,-5.8060889,135.65375
4837000000,-5.814187,135.78606
4838000000,-5.7777233,135.63742
4839000000,-5.8167987,135.74402
4840000000,-5.8398724,135.60565
4841000000,-5.8715639,135.60461
4842000000,-5.839726,135.51465
4843000000,-5.8480401,135.7473
4844000000,-5.8471217,135.50952
4845000000,-5.8306832,135.59952
4846000000,-5.8600593,135.57224
4847000000,-5.8703809,135.56619
4848000000,-5.8652954,135.36026
4849000000,-5.9051108,135.37558
4850000000,-5.8652396,135.36072
4851000000,-5.9122944,135.25012
4852000000,-5.9024358,134.88452
4853000000,-5.8913884,135.15063
4854000000,-5.8565998,135.26836
4855000000,-5.9076419,135.12814
4856000000,-5.9106722,135.11696
4857000000,-5.9216199,135.00452
4858000000,-5.9171724,134.97855
4859000000,-5.9459658,134.84344
4860000000,-5.9029603,134.95299
4861000000,-5.9010835,134.91534
4862000000,-5.9166903,135.17825
4863000000,-5.9157219,135.00504
4864000000,-5.9730744,135.04497
4865000000,-5.9455528,134.84177
4866000000,-5.950717,134.95705
4867000000,-5.9685869,134.81885
4868000000,-5.956296,134.66119
4869000000,-5.9671593,134.57201
4870000000,-5.9769864,134.75328
4871000000,-5.963038,134.47615
4872000000,-5.9760861,134.78784
4873000000,-5.9887328,134.47728
4874000000,-6.0071683,134.94769
4875000000,-6.0191016,134.72623
4876000000,-5.9882469,134.5784
4877000000,-6.0196061,134.34566
4878000000,-6.0284514,134.60182
4879000000,-6.0534768,134.44989
4880000000,-6.0116968,134.13733
4881000000,-6.0210981,134.3186
4882000000,-6.0595946,134.23961
4883000000,-6.0399423,134.4539
4884000000,-6.0516648,134.25323
4885000000,-6.0435414,134.33646
4886000000,-6.0465641,134.24745
4887000000,-6.0832505,134.23291
4888000000,-6.055563,134.05193
4889000000,-6.069664,134.03104
4890000000,-6.0289683,134.20287
4891000000,-6.0794859,134.05382
4892000000,-6.1175094,134.30785
4893000000,-6.0661163,134.13701
4894000000,-6.0922685,134.13725
4895000000,-6.086102,134.15829
4896000000,-6.0924678,134.02538
4897000000,-6.1383696,133.80804
4898000000,-6.104495,133.95366
4899000000,-6.1624937,133.93105
4900000000,-6.1487026,133.88942
4901000000,-6.140573,133.83626
4902000000,-6.1547909,133.61998
4903000000,-6.1420603,133.93675
4904000000,-6.1879911,133.53548
4905000000,-6.1494088,133.48766
4906000000,-6.1375442,133.39182
4907000000,-6.1942735,133.59129
4908000000,-6.2149935,133.52733
4909000000,-6.1960964,133.56137
4910000000,-6.1700187,133.71335
4911000000,-6.2460771,133.38385
4912000000,-6.2183056,133.38879
4913000000,-6.2632442,133.47466
4914000000,-6.2382441,133.47981
4915000000,-6.2437129,133.20677
4916000000,-6.2694745,133.20506
4917000000,-6.2791367,133.48441
4918000000,-6.2743964,133.19571
4919000000,-6.2686725,133.22305
4920000000,-6.3151474,133.08145
4921000000,-6.2682719,133.08472
4922000000,-6.2917967,132.98633
4923000000,-6.329319,133.15524
4924000000,-6.332953,133.21065
4925000000,-6.3062949,133.25096
4926000000,-6.3593497,132.96468
4927000000,-6.3506575,133.27208
4928000000,-6.3372178,133.29799
4929000000,-6.3354602,133.04965
4930000000,-6.3756928,132.96059
4931000000,-6.3713832,132.93771
4932000000,-6.3782659,132.8598
4933000000,-6.3729582,133.00514
4934000000,-6.376791,132.84245
4935000000,-6.372345,132.65242
4936000000,-6.367209,132.79604
4937000000,-6.3608294,132.92888
4938000000,-6.4010034,132.65692
4939000000,-6.3980808,133.0303
4940000000,-6.4150014,132.6734
4941000000,-6.437181,132.85962
4942000000,-6.4224463,132.79884
4943000000,-6.4317927,132.45819
4944000000,-6.4251823,132.81982
4945000000,-6.4606514,132.69492
4946000000,-6.5169458,132.50505
4947000000,-6.4417958,132.81332
4948000000,-6.4578791,132.40036
4949000000,-6.4758158,132.56691
4950000000,-6.4954314,132.58707
4951000000,-6.5080905,132.47864
4952000000,-6.499845,132.58478
4953000000,-6.49297,132.77499
4954000000,-6.4971313,132.64862
4955000000,-6.5054135,132.69977
4956000000,-6.4910369,132.48795
4957000000,-6.5434046,132.57671
4958000000,-6.5316548,132.55013
4959000000,-6.5101242,132.42365
4960000000,-6.5629621,132.47337
4961000000,-6.5902424,132.35521
4962000000,-6.6123004,132.4046
4963000000,-6.564302,132.34517
4964000000,-6.5509062,132.05917
4965000000,-6.5836716,132.30498
4966000000,-6.5786176,132.45703
4967000000,-6.6005907,132.35019
4968000000,-6.6364179,132.39742
4969000000,-6.6003036,132.27245
4970000000,-6.6275134,132.40849
4971000000,-6.625895,132.25034
4972000000,-6.6635494,132.29716
4973000000,-6.6621814,132.22404
4974000000,-6.6575141,132.37175
4975000000,-6.6759315,132.41689
4976000000,-6.6890068,132.2025
4977000000,-6.6731062,132.28912
4978000000,-6.6648121,132.14896
4979000000,-6.7144084,132.13066
4980000000,-6.6779566,132.39424
4981000000,-6.6544685,132.36694
4982000000,-6.6740251,132.18996
4983000000,-6.723793,132.11353
4984000000,-6.6742167,132.0191
4985000000,-6.7087054,132.02425
4986000000,-6.6851854,132.04198
4987000000,-6.7227945,132.0511
4988000000,-6.7174664,132.22371
4989000000,-6.7630801,132.13454
4990000000,-6.7295008,132.03891
4991000000,-6.7767,132.16389
4992000000,-6.792541,131.96518
4993000000,-6.7709837,131.89905
4994000000,-6.7807345,132.26575
4995000000,-6.7810659,132.14404
4996000000,-6.7836332,132.08498
4997000000,-6.7860022,132.2594
4998000000,-6.8101978,132.14894
4999000000,-6.814096,132.18878
5000000000,-6.8525972,131.91986
END

