!CSV A.01.01
!Agilent Technologies,E8362C,MY49020225,A.09.42.22
!Agilent E8362C: A.09.42.22
!Date: Tuesday, March 08, 2016 15:12:52
!Source: Standard

BEGIN CH1_DATA
Freq(Hz),S21 Log Mag(dB),S21 Phase(°)
1000000000,-7.1422257,-47.421719
1001000000,-7.1844053,-47.42775
1002000000,-7.178165,-47.084793
1003000000,-7.1520762,-47.336555
1004000000,-7.1451764,-47.287094
1005000000,-7.1730576,-47.281109
1006000000,-7.1864853,-47.497555
1007000000,-7.1535883,-47.52034
1008000000,-7.1679683,-47.729916
1009000000,-7.1928396,-47.513073
1010000000,-7.1722531,-47.660484
1011000000,-7.1865525,-47.59642
1012000000,-7.2133079,-47.331429
1013000000,-7.1567154,-47.849941
1014000000,-7.1867266,-47.752716
1015000000,-7.1680036,-47.888508
1016000000,-7.1614795,-47.844936
1017000000,-7.1870675,-47.825874
1018000000,-7.2197752,-47.92841
1019000000,-7.2155061,-47.733063
1020000000,-7.2110596,-47.870064
1021000000,-7.192873,-48.022491
1022000000,-7.2008238,-47.842945
1023000000,-7.2461762,-47.961407
1024000000,-7.2522144,-47.96384
1025000000,-7.2273622,-48.121571
1026000000,-7.2502131,-48.304287
1027000000,-7.1853161,-48.234509
1028000000,-7.2240958,-48.391827
1029000000,-7.1996279,-48.249569
1030000000,-7.2266726,-48.535946
1031000000,-7.2364159,-48.315136
1032000000,-7.2420192,-48.516891
1033000000,-7.2438998,-48.383556
1034000000,-7.2555132,-48.429596
1035000000,-7.2667556,-48.442139
1036000000,-7.2422004,-48.604851
1037000000,-7.228488,-48.713188
1038000000,-7.2261753,-48.546188
1039000000,-7.25317,-48.627781
1040000000,-7.2444391,-48.681435
1041000000,-7.2738423,-48.743881
1042000000,-7.2885728,-48.740135
1043000000,-7.233983,-48.750126
1044000000,-7.2442122,-48.733238
1045000000,-7.3131332,-48.961876
1046000000,-7.2514095,-49.12429
1047000000,-7.283864,-48.811226
1048000000,-7.2747655,-48.821739
1049000000,-7.2333784,-48.846718
1050000000,-7.2766209,-48.999153
1051000000,-7.2725015,-49.212887
1052000000,-7.2826962,-49.090832
1053000000,-7.2881017,-48.970669
1054000000,-7.2551675,-49.149731
1055000000,-7.2860084,-49.155704
1056000000,-7.2676954,-49.159313
1057000000,-7.2747197,-49.221313
1058000000,-7.2968888,-49.222996
1059000000,-7.3121123,-49.296093
1060000000,-7.2604733,-49.288712
1061000000,-7.3199744,-49.290489
1062000000,-7.3117423,-49.356255
1063000000,-7.2917895,-49.318474
1064000000,-7.3158116,-49.478294
1065000000,-7.3032541,-49.540398
1066000000,-7.3161402,-49.836845
1067000000,-7.3115463,-49.590866
1068000000,-7.294682,-49.547321
1069000000,-7.3241887,-49.681023
1070000000,-7.3244653,-49.562298
1071000000,-7.3037391,-49.599281
1072000000,-7.3028131,-49.682503
1073000000,-7.3206758,-49.765709
1074000000,-7.3096199,-49.414234
1075000000,-7.3571405,-49.917282
1076000000,-7.322648,-50.036381
1077000000,-7.3458371,-49.95652
1078000000,-7.3265028,-49.917038
1079000000,-7.3283935,-49.977531
1080000000,-7.2999878,-49.973259
1081000000,-7.3617663,-50.01944
1082000000,-7.3465481,-50.158234
1083000000,-7.3536997,-50.11108
1084000000,-7.324482,-50.15229
1085000000,-7.3615217,-50.144337
1086000000,-7.3451757,-50.342403
1087000000,-7.3456464,-50.239113
1088000000,-7.353456,-50.169243
1089000000,-7.3492732,-50.344028
1090000000,-7.3592606,-50.297966
1091000000,-7.3406358,-50.331989
1092000000,-7.3660707,-50.428097
1093000000,-7.332612,-50.622452
1094000000,-7.3958259,-50.345207
1095000000,-7.354948,-50.418613
1096000000,-7.3664107,-50.664474
1097000000,-7.3596206,-50.498993
1098000000,-7.3537416,-50.632523
1099000000,-7.3914986,-50.762203
1100000000,-7.3665905,-50.711563
1101000000,-7.3745646,-50.815548
1102000000,-7.3909039,-50.60569
1103000000,-7.3911362,-50.877151
1104000000,-7.3688321,-50.954811
1105000000,-7.3885808,-51.027649
1106000000,-7.3772378,-50.930866
1107000000,-7.416183,-50.840458
1108000000,-7.396071,-51.150196
1109000000,-7.3880906,-51.015255
1110000000,-7.3893137,-51.079205
1111000000,-7.4145265,-50.797115
1112000000,-7.3848619,-51.158691
1113000000,-7.4209957,-51.191383
1114000000,-7.398695,-51.276154
1115000000,-7.4091005,-50.998558
1116000000,-7.4253054,-51.217613
1117000000,-7.3905511,-51.050484
1118000000,-7.4176245,-51.266968
1119000000,-7.4027333,-51.446705
1120000000,-7.4054232,-51.473164
1121000000,-7.4382329,-51.454544
1122000000,-7.4427242,-51.62249
1123000000,-7.4209547,-51.344349
1124000000,-7.4109588,-51.51564
1125000000,-7.4233398,-51.541168
1126000000,-7.4222789,-51.489288
1127000000,-7.4493165,-51.68821
1128000000,-7.445827,-51.503822
1129000000,-7.4680219,-51.664646
1130000000,-7.4807634,-51.587948
1131000000,-7.4412532,-51.626163
1132000000,-7.4573288,-51.564968
1133000000,-7.4424486,-51.976925
1134000000,-7.4394355,-51.926758
1135000000,-7.4902415,-51.747391
1136000000,-7.4787278,-51.737125
1137000000,-7.4737954,-51.931118
1138000000,-7.4427404,-51.885323
1139000000,-7.4612961,-51.967121
1140000000,-7.459621,-52.171024
1141000000,-7.4931402,-52.048023
1142000000,-7.4839497,-51.973591
1143000000,-7.4318857,-52.008659
1144000000,-7.4627991,-52.336353
1145000000,-7.5012364,-52.38282
1146000000,-7.4735484,-51.926109
1147000000,-7.4801998,-52.147526
1148000000,-7.5080848,-52.274479
1149000000,-7.5029283,-52.169853
1150000000,-7.49087,-52.42778
1151000000,-7.4885373,-52.246498
1152000000,-7.4815269,-52.436745
1153000000,-7.5134974,-52.235783
1154000000,-7.5079494,-52.340908
1155000000,-7.4874668,-52.687817
1156000000,-7.4962034,-52.490372
1157000000,-7.5203118,-52.421913
1158000000,-7.519475,-52.465519
1159000000,-7.5529256,-52.76038
1160000000,-7.4767156,-52.627087
1161000000,-7.5028276,-52.422726
1162000000,-7.5123725,-52.791893
1163000000,-7.5228276,-52.664097
1164000000,-7.5373273,-52.753849
1165000000,-7.5128465,-52.812321
1166000000,-7.5325222,-52.796635
1167000000,-7.5084963,-52.88475
1168000000,-7.5304093,-52.698746
1169000000,-7.5426941,-52.806961
1170000000,-7.512176,-52.852013
1171000000,-7.541069,-52.89991
1172000000,-7.5466805,-52.974785
1173000000,-7.5487761,-52.729988
1174000000,-7.5725703,-52.828747
1175000000,-7.5554724,-52.991833
1176000000,-7.5135703,-53.020641
1177000000,-7.5828924,-52.961025
1178000000,-7.5506611,-53.204994
1179000000,-7.5419436,-53.19133
1180000000,-7.5544848,-53.229942
1181000000,-7.5545802,-53.113297
1182000000,-7.5534167,-53.357338
1183000000,-7.5465059,-53.100899
1184000000,-7.5685406,-53.062649
1185000000,-7.5884061,-53.202404
1186000000,-7.5742459,-53.228405
1187000000,-7.5739446,-53.568134
1188000000,-7.5604553,-53.424049
1189000000,-7.587297,-53.48597
1190000000,-7.5547585,-53.450481
1191000000,-7.5846391,-53.359043
1192000000,-7.5669036,-53.485119
1193000000,-7.6158056,-53.497551
1194000000,-7.5893898,-53.590271
1195000000,-7.5989895,-53.494682
1196000000,-7.591506,-53.432632
1197000000,-7.6042237,-53.848473
1198000000,-7.6026912,-53.756954
1199000000,-7.5904083,-53.652023
1200000000,-7.6202207,-53.843636
1201000000,-7.587955,-53.86055
1202000000,-7.5978632,-53.857601
1203000000,-7.6044135,-53.945641
1204000000,-7.6235566,-53.841965
1205000000,-7.5955882,-53.988297
1206000000,-7.624289,-53.831474
1207000000,-7.627811,-53.814835
1208000000,-7.6100044,-53.809368
1209000000,-7.6166177,-53.85038
1210000000,-7.6449995,-53.993984
1211000000,-7.6381149,-54.031254
1212000000,-7.6228194,-53.959084
1213000000,-7.6334877,-54.04829
1214000000,-7.6188817,-53.880772
1215000000,-7.6136432,-54.071152
1216000000,-7.6336575,-53.976177
1217000000,-7.6434259,-54.083725
1218000000,-7.625628,-54.272575
1219000000,-7.6294122,-54.167625
1220000000,-7.6251054,-54.28653
1221000000,-7.6268711,-54.35038
1222000000,-7.6521916,-54.357197
1223000000,-7.6624322,-54.224098
1224000000,-7.6183243,-54.209019
1225000000,-7.6496515,-54.290409
1226000000,-7.6566319,-54.428352
1227000000,-7.662632,-54.601257
1228000000,-7.6605697,-54.474327
1229000000,-7.6353602,-54.196754
1230000000,-7.6711388,-54.468296
1231000000,-7.6655293,-54.722424
1232000000,-7.677628,-54.577415
1233000000,-7.6465325,-54.508411
1234000000,-7.6704922,-54.550056
1235000000,-7.6303897,-54.575985
1236000000,-7.672225,-54.563709
1237000000,-7.6725292,-54.643612
1238000000,-7.6872721,-54.650864
1239000000,-7.6823254,-54.696182
1240000000,-7.6885858,-54.841526
1241000000,-7.6857347,-54.847439
1242000000,-7.6849618,-54.762733
1243000000,-7.6856184,-54.775784
1244000000,-7.6887321,-54.735847
1245000000,-7.6920447,-54.851681
1246000000,-7.6913247,-55.043396
1247000000,-7.6715093,-55.095112
1248000000,-7.6893497,-54.932236
1249000000,-7.6703591,-55.156487
1250000000,-7.6956172,-55.034103
1251000000,-7.6868839,-55.247944
1252000000,-7.6778321,-55.234974
1253000000,-7.7198625,-54.918591
1254000000,-7.7221465,-55.181911
1255000000,-7.7024136,-55.071083
1256000000,-7.6878443,-55.070599
1257000000,-7.6878614,-55.080276
1258000000,-7.6663632,-55.422367
1259000000,-7.692729,-55.258862
1260000000,-7.7376328,-54.956444
1261000000,-7.7300029,-55.20438
1262000000,-7.7211123,-55.520763
1263000000,-7.7092452,-55.404972
1264000000,-7.7204628,-55.413204
1265000000,-7.7159534,-55.355011
1266000000,-7.7508669,-55.441681
1267000000,-7.7182779,-55.504173
1268000000,-7.7107782,-55.613071
1269000000,-7.7231293,-55.464207
1270000000,-7.745214,-55.505962
1271000000,-7.7385478,-55.393761
1272000000,-7.7195063,-55.633121
1273000000,-7.732914,-55.700455
1274000000,-7.7252169,-55.626579
1275000000,-7.7452579,-55.677242
1276000000,-7.7454925,-55.7061
1277000000,-7.731463,-55.718082
1278000000,-7.7203498,-55.613342
1279000000,-7.7652545,-55.724274
1280000000,-7.7640834,-55.832588
1281000000,-7.7610145,-55.835815
1282000000,-7.7903142,-55.738205
1283000000,-7.7604098,-56.001049
1284000000,-7.7343168,-55.978947
1285000000,-7.7559557,-55.859318
1286000000,-7.741982,-55.977947
1287000000,-7.7593341,-55.845642
1288000000,-7.7556481,-55.856853
1289000000,-7.7705517,-56.005112
1290000000,-7.7605166,-56.182194
1291000000,-7.7617478,-56.049385
1292000000,-7.7798257,-56.24662
1293000000,-7.7689991,-56.124973
1294000000,-7.7582488,-56.073792
1295000000,-7.7692423,-56.124519
1296000000,-7.7831235,-55.986847
1297000000,-7.792912,-56.019943
1298000000,-7.7780466,-56.347904
1299000000,-7.7823915,-56.062435
1300000000,-7.787406,-56.36615
1301000000,-7.786314,-56.177231
1302000000,-7.7720728,-56.374451
1303000000,-7.7751975,-56.30373
1304000000,-7.7965493,-56.302197
1305000000,-7.7942472,-56.210987
1306000000,-7.7864671,-56.168743
1307000000,-7.7732639,-56.373383
1308000000,-7.8177443,-56.407825
1309000000,-7.7955194,-56.597378
1310000000,-7.7818727,-56.688431
1311000000,-7.789505,-56.554771
1312000000,-7.8119555,-56.39534
1313000000,-7.7850142,-56.728291
1314000000,-7.8107791,-56.788078
1315000000,-7.8056297,-56.676392
1316000000,-7.8290439,-56.829163
1317000000,-7.8054061,-56.503891
1318000000,-7.8066659,-56.640388
1319000000,-7.82441,-56.79491
1320000000,-7.8235731,-56.822742
1321000000,-7.8297591,-56.770397
1322000000,-7.8130536,-56.639381
1323000000,-7.8090739,-56.780811
1324000000,-7.8317542,-56.727116
1325000000,-7.8163695,-56.663021
1326000000,-7.8295059,-56.734608
1327000000,-7.8204846,-56.749214
1328000000,-7.8327246,-56.765114
1329000000,-7.870934,-56.878067
1330000000,-7.8691106,-56.835999
1331000000,-7.836411,-57.003727
1332000000,-7.8099103,-56.879219
1333000000,-7.870625,-56.942261
1334000000,-7.8438449,-56.954197
1335000000,-7.8275175,-57.109921
1336000000,-7.8389282,-57.098923
1337000000,-7.8405519,-57.100002
1338000000,-7.8253679,-57.155937
1339000000,-7.8331108,-57.124363
1340000000,-7.8738613,-56.798084
1341000000,-7.8721981,-56.938614
1342000000,-7.846581,-57.348228
1343000000,-7.8375621,-57.068565
1344000000,-7.8486223,-57.187912
1345000000,-7.8688784,-57.188431
1346000000,-7.8517179,-57.252674
1347000000,-7.8973804,-57.28091
1348000000,-7.8556099,-57.415379
1349000000,-7.8495598,-57.368057
1350000000,-7.8663774,-57.369656
1351000000,-7.8666735,-57.191334
1352000000,-7.8761134,-57.365654
1353000000,-7.8483281,-57.341694
1354000000,-7.8884258,-57.348011
1355000000,-7.8906469,-57.184189
1356000000,-7.853754,-57.525951
1357000000,-7.8729711,-57.524891
1358000000,-7.8728666,-57.308456
1359000000,-7.8585572,-57.42131
1360000000,-7.8471189,-57.451031
1361000000,-7.880178,-57.493732
1362000000,-7.8620558,-57.749203
1363000000,-7.8647799,-57.510735
1364000000,-7.883853,-57.495186
1365000000,-7.8911815,-57.455669
1366000000,-7.885417,-57.406544
1367000000,-7.8803377,-57.577862
1368000000,-7.8988972,-57.544781
1369000000,-7.871624,-57.461262
1370000000,-7.9057317,-57.712696
1371000000,-7.9049659,-57.63961
1372000000,-7.8658805,-57.802948
1373000000,-7.9168463,-57.656464
1374000000,-7.8772674,-57.752312
1375000000,-7.9024377,-57.600475
1376000000,-7.8968558,-57.610954
1377000000,-7.8934736,-57.775135
1378000000,-7.9229102,-57.816063
1379000000,-7.9068103,-57.85281
1380000000,-7.9157414,-57.895363
1381000000,-7.9457736,-57.748985
1382000000,-7.8973756,-57.97237
1383000000,-7.9213009,-57.750732
1384000000,-7.9104056,-57.74408
1385000000,-7.9052143,-57.960625
1386000000,-7.8981743,-57.795567
1387000000,-7.9343023,-58.077038
1388000000,-7.9065228,-57.897068
1389000000,-7.917345,-58.055058
1390000000,-7.9132972,-57.905334
1391000000,-7.8967552,-57.92646
1392000000,-7.9409308,-57.967079
1393000000,-7.9131012,-58.024952
1394000000,-7.9148765,-58.115143
1395000000,-7.9261093,-57.683231
1396000000,-7.8945818,-58.096619
1397000000,-7.9176011,-58.063992
1398000000,-7.9163246,-58.076305
1399000000,-7.9100275,-58.06068
1400000000,-7.9190807,-58.218784
1401000000,-7.8894868,-58.303055
1402000000,-7.9294729,-58.124847
1403000000,-7.9024301,-58.238594
1404000000,-7.93295,-58.093456
1405000000,-7.9209118,-58.323185
1406000000,-7.9259748,-58.42662
1407000000,-7.9377575,-58.215294
1408000000,-7.9256635,-58.178547
1409000000,-7.9056726,-58.187378
1410000000,-7.9136486,-58.330952
1411000000,-7.9164586,-58.395569
1412000000,-7.9260726,-58.385494
1413000000,-7.9159541,-58.402081
1414000000,-7.9315238,-58.19524
1415000000,-7.9227905,-58.43087
1416000000,-7.9153562,-58.47105
1417000000,-7.9064646,-58.435078
1418000000,-7.9319363,-58.297749
1419000000,-7.9342432,-58.510475
1420000000,-7.9465785,-58.40361
1421000000,-7.9384403,-58.466312
1422000000,-7.9666204,-58.244957
1423000000,-7.8949218,-58.257942
1424000000,-7.9445009,-58.548267
1425000000,-7.9135857,-58.60297
1426000000,-7.9539695,-58.612949
1427000000,-7.9267321,-58.46302
1428000000,-7.9096689,-58.39019
1429000000,-7.9131002,-58.44265
1430000000,-7.9610271,-58.335178
1431000000,-7.9211192,-58.473122
1432000000,-7.9345522,-58.698269
1433000000,-7.9486132,-58.704529
1434000000,-7.9249549,-58.646225
1435000000,-7.9422827,-58.557083
1436000000,-7.9337702,-58.652241
1437000000,-7.9596348,-58.689754
1438000000,-7.936729,-58.748932
1439000000,-7.9524412,-58.785042
1440000000,-7.950768,-58.870399
1441000000,-7.9672427,-58.741158
1442000000,-7.9606109,-58.793407
1443000000,-7.9592538,-58.959759
1444000000,-7.9439273,-58.828625
1445000000,-7.9453783,-58.793621
1446000000,-7.9525313,-59.016251
1447000000,-7.9403386,-58.877277
1448000000,-7.9139791,-58.98315
1449000000,-7.946898,-58.837299
1450000000,-7.970078,-58.828365
1451000000,-7.9627051,-59.051125
1452000000,-7.9173417,-58.969608
1453000000,-7.9789014,-59.11599
1454000000,-7.9672251,-58.969082
1455000000,-7.9672499,-59.011852
1456000000,-7.9630475,-58.949566
1457000000,-7.9444666,-58.78257
1458000000,-7.9365478,-59.136475
1459000000,-7.9864955,-59.077816
1460000000,-7.9187846,-58.919823
1461000000,-7.9697104,-59.082127
1462000000,-7.972641,-59.198193
1463000000,-7.9499555,-59.082573
1464000000,-7.9617944,-58.956657
1465000000,-7.975245,-59.128674
1466000000,-7.9565907,-59.123451
1467000000,-7.9435029,-59.166363
1468000000,-7.9613504,-59.008698
1469000000,-7.9531469,-59.300449
1470000000,-7.940413,-59.102119
1471000000,-7.9830017,-59.046597
1472000000,-7.9664445,-59.332138
1473000000,-7.9744644,-59.350021
1474000000,-7.9585533,-59.175285
1475000000,-7.9909315,-59.270779
1476000000,-7.9597325,-59.254105
1477000000,-7.9605646,-59.198235
1478000000,-7.9822245,-59.173092
1479000000,-7.9467258,-59.409889
1480000000,-7.9602036,-59.334114
1481000000,-7.9577155,-59.280182
1482000000,-7.9527211,-59.589844
1483000000,-7.9599719,-59.334087
1484000000,-7.9531536,-59.454613
1485000000,-7.9673343,-59.266563
1486000000,-7.9696178,-59.323833
1487000000,-7.9483848,-59.443253
1488000000,-7.9527874,-59.358055
1489000000,-7.9657683,-59.397579
1490000000,-7.9494123,-59.445595
1491000000,-7.9562702,-59.481461
1492000000,-7.9689007,-59.505981
1493000000,-7.9584928,-59.249592
1494000000,-7.9548621,-59.571053
1495000000,-7.9601226,-59.426716
1496000000,-7.9593854,-59.505314
1497000000,-7.9699388,-59.471378
1498000000,-7.9678416,-59.54361
1499000000,-7.9493942,-59.49181
1500000000,-7.962357,-59.690525
1501000000,-7.9839916,-59.63673
1502000000,-7.9932089,-59.67268
1503000000,-7.955646,-59.492493
1504000000,-7.9415941,-59.444134
1505000000,-7.9552507,-59.714233
1506000000,-7.9878502,-59.650311
1507000000,-7.9968023,-59.515388
1508000000,-7.9836888,-59.803593
1509000000,-7.9778008,-59.513008
1510000000,-7.9805641,-59.53159
1511000000,-7.9600434,-59.600285
1512000000,-7.9658742,-59.559067
1513000000,-7.9778399,-59.403549
1514000000,-7.9253616,-59.749458
1515000000,-7.9606133,-59.462597
1516000000,-7.9609118,-59.638031
1517000000,-7.9630127,-59.640579
1518000000,-7.9452577,-59.663273
1519000000,-7.9803243,-59.665222
1520000000,-7.944346,-59.715176
1521000000,-7.9680161,-59.826988
1522000000,-7.9379768,-59.72176
1523000000,-7.9577279,-59.931374
1524000000,-7.9589434,-59.767345
1525000000,-7.9311333,-59.82299
1526000000,-7.9492426,-59.841549
1527000000,-7.9588895,-59.915977
1528000000,-7.9819236,-59.681919
1529000000,-7.9687834,-59.745193
1530000000,-7.9619417,-59.837418
1531000000,-7.9510612,-59.887238
1532000000,-7.9420443,-59.688362
1533000000,-7.9249525,-59.974812
1534000000,-7.9545808,-59.76527
1535000000,-7.9580631,-59.903831
1536000000,-7.9321771,-59.99205
1537000000,-7.9410229,-59.839512
1538000000,-7.9281764,-59.970661
1539000000,-7.9569626,-59.988098
1540000000,-7.9428129,-59.741993
1541000000,-7.9217854,-59.911293
1542000000,-7.9496589,-59.983311
1543000000,-7.9494953,-60.021332
1544000000,-7.9643784,-59.850231
1545000000,-7.9776959,-59.85284
1546000000,-7.9519176,-59.982403
1547000000,-7.9739513,-60.026886
1548000000,-7.9470119,-59.822029
1549000000,-7.945971,-60.000439
1550000000,-7.964932,-60.092121
1551000000,-7.952661,-60.05711
1552000000,-7.9070349,-60.186481
1553000000,-7.922287,-59.886417
1554000000,-7.9168229,-59.907249
1555000000,-7.9328737,-59.962265
1556000000,-7.9241376,-60.012215
1557000000,-7.9265471,-59.999912
1558000000,-7.9380302,-60.102066
1559000000,-7.9364839,-59.974178
1560000000,-7.9341264,-60.127842
1561000000,-7.9069533,-60.038731
1562000000,-7.9168634,-60.113583
1563000000,-7.9342566,-59.99242
1564000000,-7.9121695,-60.105644
1565000000,-7.904829,-59.993355
1566000000,-7.9182096,-60.013245
1567000000,-7.9014554,-60.071663
1568000000,-7.939539,-60.051971
1569000000,-7.9359055,-60.124256
1570000000,-7.9110394,-59.976669
1571000000,-7.9029126,-60.133682
1572000000,-7.9208684,-60.006367
1573000000,-7.9102225,-60.234947
1574000000,-7.9014745,-60.062016
1575000000,-7.8879957,-60.156914
1576000000,-7.8938894,-60.212231
1577000000,-7.877799,-60.286564
1578000000,-7.8941751,-60.286118
1579000000,-7.9128804,-60.30687
1580000000,-7.8815556,-60.109879
1581000000,-7.9076247,-60.209045
1582000000,-7.9000945,-60.150383
1583000000,-7.8635688,-60.275948
1584000000,-7.9077125,-60.461178
1585000000,-7.8962126,-60.019482
1586000000,-7.8947058,-60.416878
1587000000,-7.8579144,-60.284691
1588000000,-7.8917637,-60.308365
1589000000,-7.8944221,-60.394611
1590000000,-7.8864307,-60.338711
1591000000,-7.898263,-60.354591
1592000000,-7.8855786,-60.341373
1593000000,-7.8561673,-60.300838
1594000000,-7.8630877,-60.323833
1595000000,-7.8688474,-60.407982
1596000000,-7.8662243,-60.417923
1597000000,-7.882401,-60.365692
1598000000,-7.8564448,-60.472015
1599000000,-7.854609,-60.525181
1600000000,-7.8560476,-60.373383
1601000000,-7.8657341,-60.288494
1602000000,-7.8517823,-60.647114
1603000000,-7.8672805,-60.388115
1604000000,-7.8592935,-60.591068
1605000000,-7.8403416,-60.269207
1606000000,-7.8744984,-60.454811
1607000000,-7.8631458,-60.603226
1608000000,-7.8508029,-60.439312
1609000000,-7.842895,-60.597439
1610000000,-7.8455062,-60.514355
1611000000,-7.8453012,-60.599255
1612000000,-7.8331857,-60.542347
1613000000,-7.8262067,-60.483566
1614000000,-7.8239069,-60.550385
1615000000,-7.8291059,-60.480637
1616000000,-7.8527508,-60.335964
1617000000,-7.8168583,-60.352795
1618000000,-7.865078,-60.483158
1619000000,-7.7829013,-60.715309
1620000000,-7.8110523,-60.739849
1621000000,-7.8086386,-60.440788
1622000000,-7.8169336,-60.36227
1623000000,-7.8108311,-60.591953
1624000000,-7.7809529,-60.58942
1625000000,-7.804678,-60.72345
1626000000,-7.829267,-60.484394
1627000000,-7.8196712,-60.598858
1628000000,-7.8232059,-60.636543
1629000000,-7.8057461,-60.711823
1630000000,-7.7748551,-60.769695
1631000000,-7.798945,-60.711235
1632000000,-7.7898846,-60.70018
1633000000,-7.7704492,-60.671295
1634000000,-7.7755661,-60.654846
1635000000,-7.7691708,-60.583469
1636000000,-7.7850757,-60.712856
1637000000,-7.7438807,-60.548195
1638000000,-7.7541709,-60.634132
1639000000,-7.7550755,-60.887531
1640000000,-7.780149,-60.584763
1641000000,-7.7743335,-60.70916
1642000000,-7.7533345,-60.718601
1643000000,-7.7459826,-60.719658
1644000000,-7.7592077,-60.683506
1645000000,-7.7800961,-60.759895
1646000000,-7.7516117,-60.695568
1647000000,-7.7212753,-60.814297
1648000000,-7.7102427,-60.75605
1649000000,-7.7409763,-60.892208
1650000000,-7.7213445,-60.763557
1651000000,-7.7327304,-60.694382
1652000000,-7.7295318,-60.811756
1653000000,-7.7139812,-60.798225
1654000000,-7.7388654,-60.798252
1655000000,-7.711935,-60.710766
1656000000,-7.7274871,-60.65102
1657000000,-7.7218781,-60.832779
1658000000,-7.7122469,-60.689079
1659000000,-7.6977668,-60.741146
1660000000,-7.712985,-60.87986
1661000000,-7.6852441,-60.780865
1662000000,-7.7135167,-60.841347
1663000000,-7.6884856,-60.672749
1664000000,-7.6907849,-60.795902
1665000000,-7.6763129,-60.803055
1666000000,-7.6755171,-60.933575
1667000000,-7.6823311,-60.891716
1668000000,-7.6820846,-60.899082
1669000000,-7.6867442,-60.814331
1670000000,-7.655654,-61.001163
1671000000,-7.6594338,-60.907742
1672000000,-7.6673255,-60.864902
1673000000,-7.6620874,-61.076626
1674000000,-7.6601591,-61.072254
1675000000,-7.6421046,-61.104622
1676000000,-7.6658444,-60.94632
1677000000,-7.6358624,-61.201862
1678000000,-7.6466517,-60.960819
1679000000,-7.6567874,-61.100681
1680000000,-7.6247191,-61.135738
1681000000,-7.6485128,-60.866871
1682000000,-7.6375537,-60.928505
1683000000,-7.6151266,-61.190136
1684000000,-7.6162028,-60.959541
1685000000,-7.6248789,-60.901573
1686000000,-7.6127601,-61.010639
1687000000,-7.6062894,-60.952389
1688000000,-7.6133256,-60.919373
1689000000,-7.5866971,-60.977684
1690000000,-7.5855784,-61.109261
1691000000,-7.5896506,-60.982101
1692000000,-7.5644636,-60.944973
1693000000,-7.5965018,-61.137413
1694000000,-7.566236,-61.263561
1695000000,-7.5651383,-61.290695
1696000000,-7.5478964,-61.250515
1697000000,-7.5795727,-61.113037
1698000000,-7.5727882,-61.259918
1699000000,-7.5519185,-61.117859
1700000000,-7.5550261,-61.162827
1701000000,-7.5688128,-61.158588
1702000000,-7.58114,-61.172405
1703000000,-7.5279007,-61.313019
1704000000,-7.5732212,-60.902248
1705000000,-7.5391421,-61.313454
1706000000,-7.5355878,-61.139599
1707000000,-7.5283384,-61.281879
1708000000,-7.5240092,-61.17688
1709000000,-7.5187831,-61.205318
1710000000,-7.4801903,-61.34956
1711000000,-7.5131931,-61.165199
1712000000,-7.4583821,-61.112751
1713000000,-7.5058041,-61.568604
1714000000,-7.4985752,-61.416023
1715000000,-7.4817367,-61.340237
1716000000,-7.5135722,-61.381401
1717000000,-7.4775915,-61.41357
1718000000,-7.5135741,-61.392235
1719000000,-7.5014124,-61.585987
1720000000,-7.4911485,-61.090782
1721000000,-7.4793897,-61.218121
1722000000,-7.4671822,-61.417362
1723000000,-7.4650035,-61.372391
1724000000,-7.4279346,-61.481197
1725000000,-7.4416132,-61.407684
1726000000,-7.4362631,-61.445026
1727000000,-7.4494519,-61.307587
1728000000,-7.4296007,-61.38451
1729000000,-7.4316998,-61.509243
1730000000,-7.4279323,-61.494053
1731000000,-7.378828,-61.408981
1732000000,-7.4090834,-61.647057
1733000000,-7.4175091,-61.542397
1734000000,-7.411119,-61.548698
1735000000,-7.389174,-61.243706
1736000000,-7.4033895,-61.486004
1737000000,-7.4092889,-61.428009
1738000000,-7.373239,-61.719658
1739000000,-7.3408065,-61.572319
1740000000,-7.3790855,-61.606319
1741000000,-7.3885593,-61.743053
1742000000,-7.3835726,-61.710403
1743000000,-7.368484,-61.716854
1744000000,-7.3327479,-61.666084
1745000000,-7.3478584,-61.779293
1746000000,-7.3442507,-61.643925
1747000000,-7.3392897,-61.710953
1748000000,-7.3821712,-61.697201
1749000000,-7.3365636,-61.745533
1750000000,-7.3359156,-61.74815
1751000000,-7.2911453,-61.940922
1752000000,-7.2778506,-61.871323
1753000000,-7.3171296,-61.776329
1754000000,-7.2802844,-61.928944
1755000000,-7.2857671,-61.799362
1756000000,-7.2867603,-61.784241
1757000000,-7.277617,-61.9505
1758000000,-7.2782006,-61.924976
1759000000,-7.2805138,-61.993801
1760000000,-7.2586055,-61.961327
1761000000,-7.2479,-61.885517
1762000000,-7.2564611,-62.018898
1763000000,-7.2678895,-62.041313
1764000000,-7.2600265,-62.055752
1765000000,-7.2347794,-61.946545
1766000000,-7.2500701,-62.120571
1767000000,-7.222322,-61.982815
1768000000,-7.2257447,-61.948875
1769000000,-7.1982751,-61.919735
1770000000,-7.2024031,-61.907204
1771000000,-7.2288823,-62.196224
1772000000,-7.1752787,-62.103317
1773000000,-7.176672,-61.993065
1774000000,-7.1848612,-62.004288
1775000000,-7.1662674,-62.112206
1776000000,-7.177784,-62.262447
1777000000,-7.1562114,-62.109467
1778000000,-7.1687837,-62.125305
1779000000,-7.1608977,-62.020988
1780000000,-7.1547842,-62.152203
1781000000,-7.1354585,-62.200012
1782000000,-7.1463041,-62.20192
1783000000,-7.1424351,-62.203838
1784000000,-7.1702714,-62.196419
1785000000,-7.1082745,-62.032688
1786000000,-7.1187429,-62.247757
1787000000,-7.1229801,-62.206623
1788000000,-7.1221237,-62.233776
1789000000,-7.1067319,-62.256992
1790000000,-7.0775838,-62.400105
1791000000,-7.085639,-62.446072
1792000000,-7.0613017,-62.41856
1793000000,-7.0660195,-62.37009
1794000000,-7.0220418,-62.415207
1795000000,-7.0752196,-62.436852
1796000000,-7.0550971,-62.61639
1797000000,-7.0461025,-62.533558
1798000000,-7.0549617,-62.441925
1799000000,-7.0414515,-62.61554
1800000000,-7.0231838,-62.470207
1801000000,-7.0247416,-62.479668
1802000000,-7.0265441,-62.709095
1803000000,-7.0407124,-62.582909
1804000000,-7.0201025,-62.900776
1805000000,-7.019619,-62.790703
1806000000,-6.9924569,-62.786343
1807000000,-6.9751515,-62.825077
1808000000,-6.975276,-62.527527
1809000000,-6.9908977,-62.896301
1810000000,-7.0070581,-62.738838
1811000000,-6.9602008,-62.846718
1812000000,-6.9481411,-62.795559
1813000000,-6.9658957,-62.765026
1814000000,-6.9431238,-62.816772
1815000000,-6.9271002,-62.825645
1816000000,-6.9614592,-62.77219
1817000000,-6.9371848,-62.899807
1818000000,-6.9028211,-62.897732
1819000000,-6.9428225,-62.899002
1820000000,-6.8988543,-63.036034
1821000000,-6.9083037,-62.840111
1822000000,-6.8863583,-62.893291
1823000000,-6.8888664,-63.174782
1824000000,-6.8873286,-62.978424
1825000000,-6.8637762,-62.975979
1826000000,-6.8699136,-62.955357
1827000000,-6.8376293,-63.141289
1828000000,-6.8692374,-63.06654
1829000000,-6.846396,-62.942265
1830000000,-6.8816047,-63.023434
1831000000,-6.8347774,-63.134876
1832000000,-6.8532181,-63.080399
1833000000,-6.8430128,-63.118244
1834000000,-6.8201733,-63.137585
1835000000,-6.7888722,-63.246555
1836000000,-6.7810483,-63.117363
1837000000,-6.8067789,-63.275223
1838000000,-6.7922616,-63.370293
1839000000,-6.8037076,-63.277737
1840000000,-6.7891841,-63.58672
1841000000,-6.7759986,-63.333908
1842000000,-6.7850718,-63.404423
1843000000,-6.7559304,-63.689144
1844000000,-6.7661281,-63.319576
1845000000,-6.7372723,-63.363419
1846000000,-6.724546,-63.678291
1847000000,-6.7343769,-63.607758
1848000000,-6.7430687,-63.666496
1849000000,-6.6679826,-63.506962
1850000000,-6.7129111,-63.433567
1851000000,-6.7017484,-63.413471
1852000000,-6.6816587,-63.614422
1853000000,-6.7051549,-63.773388
1854000000,-6.7086053,-63.663311
1855000000,-6.6686382,-63.867332
1856000000,-6.6702032,-63.603195
1857000000,-6.618351,-63.854607
1858000000,-6.6927881,-63.788292
1859000000,-6.6479921,-63.763203
1860000000,-6.6299562,-63.925327
1861000000,-6.6583867,-64.014709
1862000000,-6.6286397,-63.760628
1863000000,-6.6286569,-63.877972
1864000000,-6.6088123,-63.694904
1865000000,-6.622211,-63.788517
1866000000,-6.6141567,-64.115341
1867000000,-6.5791998,-64.050224
1868000000,-6.5871153,-63.938202
1869000000,-6.5696454,-64.138908
1870000000,-6.5702257,-64.198532
1871000000,-6.5438027,-64.087975
1872000000,-6.5277925,-64.199371
1873000000,-6.5382514,-64.171913
1874000000,-6.543004,-64.123863
1875000000,-6.5473175,-64.252281
1876000000,-6.4877782,-64.370674
1877000000,-6.523046,-64.289101
1878000000,-6.4891586,-64.425079
1879000000,-6.4974856,-64.407448
1880000000,-6.5161991,-64.651917
1881000000,-6.4645801,-64.206741
1882000000,-6.4667153,-64.405823
1883000000,-6.4716897,-64.503922
1884000000,-6.4811296,-64.300941
1885000000,-6.4618182,-64.583061
1886000000,-6.4600019,-64.762794
1887000000,-6.4530077,-64.530594
1888000000,-6.4228129,-64.634315
1889000000,-6.4265699,-64.601761
1890000000,-6.4228511,-64.622856
1891000000,-6.4115639,-64.977524
1892000000,-6.4211111,-64.838493
1893000000,-6.3906827,-64.65197
1894000000,-6.4008842,-64.81002
1895000000,-6.3760171,-65.084068
1896000000,-6.3646626,-64.924995
1897000000,-6.3736081,-64.856018
1898000000,-6.3712506,-64.904846
1899000000,-6.3552589,-64.99221
1900000000,-6.3247013,-64.916885
1901000000,-6.3323417,-64.907196
1902000000,-6.3396902,-64.986214
1903000000,-6.2992611,-65.226089
1904000000,-6.3154712,-65.246742
1905000000,-6.3036628,-65.142593
1906000000,-6.3050499,-65.135475
1907000000,-6.2982192,-65.213493
1908000000,-6.2706523,-65.212868
1909000000,-6.2825909,-65.357697
1910000000,-6.2696238,-65.479904
1911000000,-6.2478495,-65.459579
1912000000,-6.257719,-65.3853
1913000000,-6.2751374,-65.527695
1914000000,-6.2237415,-65.490952
1915000000,-6.2323399,-65.539948
1916000000,-6.233232,-65.357521
1917000000,-6.1861744,-65.380722
1918000000,-6.1948628,-65.636482
1919000000,-6.1959767,-65.711502
1920000000,-6.191885,-65.74707
1921000000,-6.2014766,-65.775894
1922000000,-6.1634707,-65.935387
1923000000,-6.1783199,-65.737083
1924000000,-6.1619735,-65.652931
1925000000,-6.1705003,-65.882652
1926000000,-6.136405,-65.997375
1927000000,-6.1457705,-65.994019
1928000000,-6.1578493,-65.779182
1929000000,-6.1288514,-65.957886
1930000000,-6.1142912,-66.091469
1931000000,-6.1241894,-66.105553
1932000000,-6.1190963,-66.121101
1933000000,-6.0864739,-65.913307
1934000000,-6.0720329,-66.268898
1935000000,-6.08887,-66.077469
1936000000,-6.0999641,-66.278748
1937000000,-6.0363102,-66.111572
1938000000,-6.0675235,-66.29509
1939000000,-6.0468359,-66.545799
1940000000,-6.0327539,-66.374336
1941000000,-6.0267448,-66.392952
1942000000,-6.0207949,-66.384102
1943000000,-6.0108514,-66.672974
1944000000,-6.0120573,-66.48909
1945000000,-5.9734263,-66.726913
1946000000,-5.9869595,-66.796455
1947000000,-5.9967747,-66.823471
1948000000,-6.0014367,-66.814262
1949000000,-5.9750814,-66.916031
1950000000,-5.935163,-66.723572
1951000000,-5.9668236,-66.903923
1952000000,-5.9442396,-66.709984
1953000000,-5.9513197,-66.794983
1954000000,-5.9200253,-67.162537
1955000000,-5.9080248,-66.773361
1956000000,-5.9171691,-67.033936
1957000000,-5.9117351,-67.385696
1958000000,-5.910881,-67.278969
1959000000,-5.8713183,-67.195724
1960000000,-5.8718524,-67.255997
1961000000,-5.8561659,-67.334312
1962000000,-5.8707318,-67.550575
1963000000,-5.8561125,-67.202255
1964000000,-5.8321857,-67.483818
1965000000,-5.8366475,-67.553139
1966000000,-5.8149896,-67.46357
1967000000,-5.81604,-67.531769
1968000000,-5.8359208,-67.657639
1969000000,-5.7820363,-67.832352
1970000000,-5.7872763,-67.751488
1971000000,-5.7960691,-67.745918
1972000000,-5.7692113,-67.867584
1973000000,-5.7387481,-67.708313
1974000000,-5.7446508,-67.925323
1975000000,-5.7634864,-68.019585
1976000000,-5.7486873,-68.004387
1977000000,-5.7361031,-67.951385
1978000000,-5.7230082,-68.057068
1979000000,-5.7242393,-67.910286
1980000000,-5.7007484,-68.001968
1981000000,-5.715663,-68.274971
1982000000,-5.6999946,-68.103775
1983000000,-5.693675,-68.207413
1984000000,-5.675384,-68.308876
1985000000,-5.6830587,-68.378845
1986000000,-5.6861134,-68.300308
1987000000,-5.6606073,-68.405746
1988000000,-5.6290293,-68.627266
1989000000,-5.6331348,-68.503334
1990000000,-5.6431546,-68.618233
1991000000,-5.6125674,-68.804863
1992000000,-5.6242852,-68.800018
1993000000,-5.6423111,-68.73555
1994000000,-5.581224,-68.81411
1995000000,-5.600965,-68.719696
1996000000,-5.5681081,-68.922211
1997000000,-5.5872092,-68.881851
1998000000,-5.5700059,-68.963707
1999000000,-5.5637045,-69.184349
2000000000,-5.5668182,-69.18866
2001000000,-5.5603852,-68.918762
2002000000,-5.5393672,-68.874664
2003000000,-5.5646996,-69.22155
2004000000,-5.5185671,-69.271873
2005000000,-5.5079961,-69.54512
2006000000,-5.4980297,-69.59153
2007000000,-5.4889874,-69.179184
2008000000,-5.5213337,-69.436676
2009000000,-5.4713669,-69.322189
2010000000,-5.4712362,-69.431671
2011000000,-5.4987397,-69.46489
2012000000,-5.4777122,-69.374237
2013000000,-5.4661369,-69.705261
2014000000,-5.4297824,-69.721992
2015000000,-5.4386101,-69.704582
2016000000,-5.4439507,-70.006378
2017000000,-5.394886,-70.16362
2018000000,-5.3875127,-69.922302
2019000000,-5.4092879,-69.943481
2020000000,-5.4146595,-70.076042
2021000000,-5.3901677,-70.140594
2022000000,-5.3853397,-70.25679
2023000000,-5.3858418,-70.203735
2024000000,-5.3548417,-70.381706
2025000000,-5.3749852,-70.672356
2026000000,-5.3410759,-70.35363
2027000000,-5.341218,-70.622864
2028000000,-5.3475943,-70.597481
2029000000,-5.3168821,-70.329231
2030000000,-5.3107219,-70.524384
2031000000,-5.2836971,-70.539581
2032000000,-5.2990546,-70.715385
2033000000,-5.2908154,-70.733124
2034000000,-5.3138866,-70.652687
2035000000,-5.2819533,-70.798485
2036000000,-5.2785134,-70.672607
2037000000,-5.2815633,-70.942085
2038000000,-5.2550983,-71.232651
2039000000,-5.2406526,-70.829933
2040000000,-5.2640462,-71.121651
2041000000,-5.2283068,-71.150261
2042000000,-5.1967053,-71.376152
2043000000,-5.209332,-71.24852
2044000000,-5.2069817,-71.397896
2045000000,-5.1711106,-71.33448
2046000000,-5.141593,-71.483971
2047000000,-5.1737556,-71.407532
2048000000,-5.147634,-71.571335
2049000000,-5.1569233,-71.805397
2050000000,-5.1727743,-71.72467
2051000000,-5.1619353,-71.701897
2052000000,-5.1581907,-71.849739
2053000000,-5.088376,-71.905052
2054000000,-5.1266508,-72.075554
2055000000,-5.1026483,-71.999207
2056000000,-5.1209593,-71.931435
2057000000,-5.1236053,-72.077904
2058000000,-5.0807729,-72.186455
2059000000,-5.073103,-72.431763
2060000000,-5.0532336,-72.44738
2061000000,-5.0730047,-72.336418
2062000000,-5.0947218,-72.420319
2063000000,-5.0816526,-72.377823
2064000000,-5.0291562,-72.633858
2065000000,-5.0312457,-72.515762
2066000000,-5.0417628,-72.507339
2067000000,-5.0129156,-72.673203
2068000000,-4.9995904,-72.913193
2069000000,-5.0110841,-72.796791
2070000000,-4.9842348,-72.947716
2071000000,-4.9841566,-73.104813
2072000000,-4.9654303,-72.955299
2073000000,-4.9714966,-73.07711
2074000000,-4.9488554,-73.079758
2075000000,-4.9442296,-73.077324
2076000000,-4.9588761,-73.289841
2077000000,-4.932971,-73.444565
2078000000,-4.9317632,-73.325821
2079000000,-4.9413137,-73.397263
2080000000,-4.9303489,-73.512299
2081000000,-4.9152699,-73.501167
2082000000,-4.8905287,-73.587502
2083000000,-4.9132304,-73.829803
2084000000,-4.8719001,-73.755341
2085000000,-4.9136915,-73.876678
2086000000,-4.9034624,-73.92112
2087000000,-4.8412952,-74.172806
2088000000,-4.8442044,-74.121918
2089000000,-4.8658404,-73.94487
2090000000,-4.80024,-74.172333
2091000000,-4.8314695,-74.307167
2092000000,-4.8584113,-74.246346
2093000000,-4.8331776,-74.214333
2094000000,-4.7764606,-74.389214
2095000000,-4.8072667,-74.461273
2096000000,-4.7583394,-74.73317
2097000000,-4.7748361,-74.599434
2098000000,-4.7728853,-74.682877
2099000000,-4.7499266,-74.631218
2100000000,-4.753541,-74.87397
2101000000,-4.7431607,-74.958458
2102000000,-4.7526021,-74.950348
2103000000,-4.7513471,-75.080963
2104000000,-4.7345562,-75.092415
2105000000,-4.7318053,-75.084343
2106000000,-4.7453527,-75.235703
2107000000,-4.7190013,-75.248825
2108000000,-4.6907787,-75.380516
2109000000,-4.656168,-75.295418
2110000000,-4.7287307,-75.425385
2111000000,-4.671607,-75.59494
2112000000,-4.6573076,-75.763588
2113000000,-4.6791377,-75.891098
2114000000,-4.640748,-75.656425
2115000000,-4.6643963,-75.871788
2116000000,-4.6532931,-75.768463
2117000000,-4.6433444,-75.944679
2118000000,-4.6427565,-75.967392
2119000000,-4.6155834,-76.110939
2120000000,-4.6372876,-76.028343
2121000000,-4.6162562,-76.202698
2122000000,-4.6216607,-76.256813
2123000000,-4.5929656,-76.417328
2124000000,-4.5717936,-76.51548
2125000000,-4.5866642,-76.49511
2126000000,-4.5635819,-76.738197
2127000000,-4.554873,-76.564392
2128000000,-4.5663152,-76.660294
2129000000,-4.5461192,-76.822105
2130000000,-4.5651178,-76.852951
2131000000,-4.5176215,-76.978546
2132000000,-4.5900302,-76.854782
2133000000,-4.5157113,-77.148544
2134000000,-4.5307055,-77.184204
2135000000,-4.5183496,-77.268295
2136000000,-4.511899,-77.193901
2137000000,-4.5112367,-77.418076
2138000000,-4.4905553,-77.550636
2139000000,-4.4803066,-77.630905
2140000000,-4.5047183,-77.663048
2141000000,-4.4969387,-77.503235
2142000000,-4.4658375,-77.631409
2143000000,-4.4799776,-77.735458
2144000000,-4.4467931,-77.719521
2145000000,-4.4407992,-77.872627
2146000000,-4.4387145,-77.959343
2147000000,-4.4433069,-78.017937
2148000000,-4.4273238,-78.040329
2149000000,-4.4119296,-78.172195
2150000000,-4.3989911,-78.161003
2151000000,-4.3840222,-78.444519
2152000000,-4.3911924,-78.534653
2153000000,-4.3818655,-78.497482
2154000000,-4.371552,-78.672279
2155000000,-4.3894992,-78.825851
2156000000,-4.3655066,-78.685677
2157000000,-4.3557682,-78.756012
2158000000,-4.3380184,-78.680298
2159000000,-4.3443675,-78.560165
2160000000,-4.3281579,-79.017464
2161000000,-4.3421559,-79.079056
2162000000,-4.3006043,-79.281158
2163000000,-4.3180981,-79.285759
2164000000,-4.3084536,-79.301155
2165000000,-4.3035727,-79.464836
2166000000,-4.2890916,-79.492935
2167000000,-4.2921762,-79.501022
2168000000,-4.2713161,-79.57122
2169000000,-4.3074136,-79.562042
2170000000,-4.2231951,-79.778847
2171000000,-4.2583122,-79.868034
2172000000,-4.2717538,-79.945656
2173000000,-4.2649307,-80.182739
2174000000,-4.2432575,-79.99025
2175000000,-4.2041626,-80.156639
2176000000,-4.2516294,-80.362015
2177000000,-4.2351727,-80.28672
2178000000,-4.1924481,-80.34243
2179000000,-4.2223368,-80.475624
2180000000,-4.2242684,-80.574318
2181000000,-4.1918411,-80.607094
2182000000,-4.2239661,-80.573387
2183000000,-4.1969962,-80.760735
2184000000,-4.1541185,-80.801132
2185000000,-4.1746964,-80.937347
2186000000,-4.1363115,-80.898323
2187000000,-4.1751904,-80.964409
2188000000,-4.1548314,-81.187828
2189000000,-4.1665387,-81.192398
2190000000,-4.1287537,-81.176926
2191000000,-4.1130791,-81.307625
2192000000,-4.1305723,-81.283852
2193000000,-4.1265669,-81.650375
2194000000,-4.1240239,-81.664864
2195000000,-4.1268363,-81.632561
2196000000,-4.09378,-81.764305
2197000000,-4.1202397,-81.778099
2198000000,-4.0387444,-81.893265
2199000000,-4.0589981,-82.164627
2200000000,-4.0803037,-82.044739
2201000000,-4.0538564,-82.033173
2202000000,-4.0731478,-82.026192
2203000000,-4.0750418,-82.323784
2204000000,-4.0271182,-82.600807
2205000000,-4.0553894,-82.375153
2206000000,-4.0682616,-82.454567
2207000000,-4.0320387,-82.585365
2208000000,-4.0242658,-82.812874
2209000000,-4.0368447,-82.83783
2210000000,-4.0080361,-83.025475
2211000000,-4.0264187,-82.894547
2212000000,-4.0328789,-82.965683
2213000000,-3.9912221,-82.928139
2214000000,-3.9894168,-83.195267
2215000000,-3.9846504,-83.207985
2216000000,-4.0128512,-83.406136
2217000000,-3.9819949,-83.580132
2218000000,-3.971998,-83.52549
2219000000,-3.9444096,-83.675682
2220000000,-3.9852357,-83.457169
2221000000,-3.9537654,-83.568161
2222000000,-3.937995,-83.73214
2223000000,-3.9387419,-83.954147
2224000000,-3.9474535,-83.99614
2225000000,-3.9420154,-84.020485
2226000000,-3.9249475,-84.191429
2227000000,-3.9553838,-84.202133
2228000000,-3.9035625,-84.266228
2229000000,-3.8947365,-84.338737
2230000000,-3.9108827,-84.743179
2231000000,-3.896538,-84.746361
2232000000,-3.9299176,-84.744621
2233000000,-3.9008994,-84.848999
2234000000,-3.882534,-84.770508
2235000000,-3.8727067,-85.071007
2236000000,-3.8567641,-84.932373
2237000000,-3.8801179,-85.121765
2238000000,-3.8565197,-85.218483
2239000000,-3.8580065,-85.327721
2240000000,-3.8514566,-85.239723
2241000000,-3.8449159,-85.301613
2242000000,-3.8653891,-85.420204
2243000000,-3.8555367,-85.525414
2244000000,-3.8580873,-85.450523
2245000000,-3.8241272,-85.420372
2246000000,-3.801898,-85.694366
2247000000,-3.8206065,-85.833221
2248000000,-3.7647026,-86.020782
2249000000,-3.7966216,-85.985138
2250000000,-3.8049388,-86.100655
2251000000,-3.7818651,-86.12394
2252000000,-3.7679918,-86.447563
2253000000,-3.7812059,-86.246185
2254000000,-3.7671554,-86.560356
2255000000,-3.7893407,-86.612526
2256000000,-3.7733939,-86.541817
2257000000,-3.7650471,-86.514641
2258000000,-3.7784259,-86.795555
2259000000,-3.7520435,-87.002861
2260000000,-3.739655,-87.029976
2261000000,-3.7349992,-86.849785
2262000000,-3.740325,-87.097496
2263000000,-3.7160394,-87.235756
2264000000,-3.7384214,-87.217735
2265000000,-3.7060354,-87.061684
2266000000,-3.7245488,-87.380867
2267000000,-3.7085357,-87.610893
2268000000,-3.7167878,-87.71524
2269000000,-3.7325015,-87.487747
2270000000,-3.6838086,-87.795273
2271000000,-3.689775,-87.854408
2272000000,-3.7039666,-87.93026
2273000000,-3.6939569,-87.960434
2274000000,-3.6878257,-88.29702
2275000000,-3.68821,-88.021538
2276000000,-3.6944249,-88.249481
2277000000,-3.6599503,-88.477394
2278000000,-3.6746185,-88.558441
2279000000,-3.6608303,-88.525528
2280000000,-3.6562898,-88.597755
2281000000,-3.6472108,-88.589478
2282000000,-3.6551235,-88.971359
2283000000,-3.6222482,-88.541519
2284000000,-3.6251523,-88.878128
2285000000,-3.6060174,-89.206131
2286000000,-3.6392312,-89.387207
2287000000,-3.6052825,-89.404457
2288000000,-3.5922379,-89.423874
2289000000,-3.6269631,-89.407608
2290000000,-3.6051645,-89.626785
2291000000,-3.6126583,-89.79274
2292000000,-3.6075895,-89.697258
2293000000,-3.5993667,-89.906357
2294000000,-3.5783596,-89.763512
2295000000,-3.5781839,-89.845459
2296000000,-3.5809045,-90.195007
2297000000,-3.56791,-90.061981
2298000000,-3.5771577,-90.214027
2299000000,-3.5769835,-90.17421
2300000000,-3.5202324,-90.42849
2301000000,-3.5566862,-90.483879
2302000000,-3.5285378,-90.601234
2303000000,-3.5691519,-90.689682
2304000000,-3.5540619,-90.661865
2305000000,-3.5292432,-90.562561
2306000000,-3.5384769,-90.838234
2307000000,-3.5530088,-91.022514
2308000000,-3.5122426,-91.040436
2309000000,-3.5249343,-91.118828
2310000000,-3.526623,-91.211586
2311000000,-3.498271,-91.272873
2312000000,-3.5337076,-91.670006
2313000000,-3.5226855,-91.652267
2314000000,-3.4972434,-91.544388
2315000000,-3.5097661,-91.725883
2316000000,-3.504478,-91.796097
2317000000,-3.4802194,-91.678612
2318000000,-3.4799261,-92.037903
2319000000,-3.4470232,-92.106537
2320000000,-3.4950573,-92.03656
2321000000,-3.4842534,-92.203957
2322000000,-3.448195,-92.279907
2323000000,-3.4489114,-92.273178
2324000000,-3.4466703,-92.519638
2325000000,-3.4566214,-92.764145
2326000000,-3.4816079,-92.689735
2327000000,-3.4422603,-92.507294
2328000000,-3.4791107,-92.811928
2329000000,-3.4736638,-92.842529
2330000000,-3.4382901,-92.9748
2331000000,-3.4347093,-92.868454
2332000000,-3.4600534,-93.254143
2333000000,-3.4756615,-93.386971
2334000000,-3.4300866,-93.31028
2335000000,-3.4139614,-93.71666
2336000000,-3.3996761,-93.416656
2337000000,-3.4296842,-93.442543
2338000000,-3.3971553,-93.652046
2339000000,-3.4115224,-93.68264
2340000000,-3.3721747,-93.839188
2341000000,-3.4152637,-93.863411
2342000000,-3.3749702,-94.113716
2343000000,-3.3864315,-94.171387
2344000000,-3.3713987,-94.304634
2345000000,-3.3669012,-94.119614
2346000000,-3.3919895,-94.535652
2347000000,-3.3742847,-94.525627
2348000000,-3.3938177,-94.640106
2349000000,-3.3919969,-94.575768
2350000000,-3.3590403,-94.600685
2351000000,-3.3771143,-95.023186
2352000000,-3.3389628,-94.869286
2353000000,-3.3761744,-94.916954
2354000000,-3.3568356,-95.1437
2355000000,-3.3480682,-94.942673
2356000000,-3.3755023,-95.193611
2357000000,-3.3509808,-95.341339
2358000000,-3.342114,-95.420685
2359000000,-3.3780854,-95.584999
2360000000,-3.3661582,-95.777405
2361000000,-3.3294272,-95.546471
2362000000,-3.3087971,-95.702499
2363000000,-3.3097246,-95.846886
2364000000,-3.2868352,-95.983017
2365000000,-3.3143141,-96.019539
2366000000,-3.2723024,-96.230186
2367000000,-3.3206017,-96.33226
2368000000,-3.3026426,-96.44529
2369000000,-3.2754536,-96.350906
2370000000,-3.3352842,-96.411888
2371000000,-3.3012078,-96.343628
2372000000,-3.3412056,-96.815102
2373000000,-3.2949753,-96.736122
2374000000,-3.3469079,-96.951103
2375000000,-3.2813959,-97.165321
2376000000,-3.2686117,-96.949051
2377000000,-3.2470896,-97.144714
2378000000,-3.3013458,-97.25679
2379000000,-3.2941043,-97.476715
2380000000,-3.2844031,-97.523582
2381000000,-3.2669654,-97.46936
2382000000,-3.26141,-97.602356
2383000000,-3.2851963,-97.817398
2384000000,-3.264437,-97.624046
2385000000,-3.2954257,-97.804573
2386000000,-3.2593753,-98.031326
2387000000,-3.2603502,-98.090546
2388000000,-3.2490351,-97.994606
2389000000,-3.2496622,-98.178268
2390000000,-3.2891703,-98.274193
2391000000,-3.2707019,-98.347214
2392000000,-3.2352619,-98.476234
2393000000,-3.2573164,-98.589706
2394000000,-3.2354653,-98.759842
2395000000,-3.2443295,-98.68898
2396000000,-3.2571948,-98.827751
2397000000,-3.228816,-98.820984
2398000000,-3.2931128,-98.909424
2399000000,-3.2282972,-99.094635
2400000000,-3.2386258,-99.210312
2401000000,-3.2128563,-99.27861
2402000000,-3.2431839,-99.516586
2403000000,-3.2595758,-99.513199
2404000000,-3.2062278,-99.453964
2405000000,-3.2128534,-99.722183
2406000000,-3.2464674,-99.638741
2407000000,-3.2017815,-99.843338
2408000000,-3.2175314,-99.90818
2409000000,-3.2067964,-99.892624
2410000000,-3.2136583,-100.28436
2411000000,-3.1907125,-100.05458
2412000000,-3.229208,-100.33372
2413000000,-3.1950648,-100.46868
2414000000,-3.2182798,-100.50812
2415000000,-3.2146618,-100.57255
2416000000,-3.2189968,-100.72969
2417000000,-3.2305539,-100.7507
2418000000,-3.1992791,-100.90408
2419000000,-3.1954648,-100.77811
2420000000,-3.1901996,-101.08678
2421000000,-3.1618268,-101.34146
2422000000,-3.1730621,-101.17392
2423000000,-3.1830983,-101.16472
2424000000,-3.1844435,-101.42068
2425000000,-3.1728721,-101.39651
2426000000,-3.175797,-101.44614
2427000000,-3.1673706,-101.70627
2428000000,-3.1482255,-101.83501
2429000000,-3.1426399,-101.63371
2430000000,-3.1648853,-101.72137
2431000000,-3.1672156,-102.00782
2432000000,-3.1687458,-101.94502
2433000000,-3.1655912,-102.16658
2434000000,-3.1536136,-102.28757
2435000000,-3.1768043,-102.54565
2436000000,-3.1741064,-102.48987
2437000000,-3.1475034,-102.34811
2438000000,-3.1487126,-102.66898
2439000000,-3.1612747,-102.53751
2440000000,-3.163224,-102.89098
2441000000,-3.1112926,-102.69959
2442000000,-3.1456919,-102.85266
2443000000,-3.1817489,-102.90983
2444000000,-3.15049,-103.17096
2445000000,-3.1540377,-103.18407
2446000000,-3.1721585,-103.30472
2447000000,-3.1353896,-103.39169
2448000000,-3.1274357,-103.64205
2449000000,-3.1327648,-103.67349
2450000000,-3.1269894,-103.80305
2451000000,-3.0995622,-103.64642
2452000000,-3.1112945,-103.95481
2453000000,-3.1022832,-104.03777
2454000000,-3.0952122,-104.10989
2455000000,-3.1382594,-104.22272
2456000000,-3.1398997,-104.21189
2457000000,-3.12058,-104.33033
2458000000,-3.100795,-104.48045
2459000000,-3.1550498,-104.45947
2460000000,-3.0797338,-104.54734
2461000000,-3.1256969,-104.69997
2462000000,-3.1219306,-104.85925
2463000000,-3.1023972,-104.90556
2464000000,-3.1096654,-104.9515
2465000000,-3.1270363,-105.0616
2466000000,-3.0966666,-105.27596
2467000000,-3.1013405,-105.29778
2468000000,-3.1011307,-105.12106
2469000000,-3.0943916,-105.45417
2470000000,-3.0963087,-105.56158
2471000000,-3.1102555,-105.66474
2472000000,-3.0942786,-105.83593
2473000000,-3.0930626,-105.92246
2474000000,-3.1167252,-105.99242
2475000000,-3.079715,-106.09907
2476000000,-3.1227021,-106.25809
2477000000,-3.1058836,-106.11633
2478000000,-3.0917192,-106.2521
2479000000,-3.0993702,-106.18523
2480000000,-3.1058331,-106.29775
2481000000,-3.0949571,-106.4545
2482000000,-3.0831409,-106.43292
2483000000,-3.0658734,-106.73377
2484000000,-3.1018937,-106.63932
2485000000,-3.1051714,-106.94314
2486000000,-3.0928028,-106.95909
2487000000,-3.1110835,-106.83366
2488000000,-3.0835211,-107.18341
2489000000,-3.0583432,-107.48605
2490000000,-3.0598102,-107.3336
2491000000,-3.0735333,-107.53927
2492000000,-3.0687416,-107.60761
2493000000,-3.0719917,-107.59267
2494000000,-3.0856836,-107.70601
2495000000,-3.0972724,-107.74196
2496000000,-3.0870521,-107.94302
2497000000,-3.1030846,-108.01558
2498000000,-3.075321,-107.92104
2499000000,-3.0637128,-108.05933
2500000000,-3.0780449,-108.22363
2501000000,-3.0843639,-108.33304
2502000000,-3.0689251,-108.51799
2503000000,-3.0761895,-108.43705
2504000000,-3.0758047,-108.50105
2505000000,-3.0659966,-108.62097
2506000000,-3.0588639,-108.87947
2507000000,-3.088429,-108.93246
2508000000,-3.1049674,-108.81282
2509000000,-3.0721288,-109.1195
2510000000,-3.0685008,-109.00903
2511000000,-3.0669222,-109.08432
2512000000,-3.0765536,-109.40768
2513000000,-3.071259,-109.2367
2514000000,-3.0910454,-109.62192
2515000000,-3.0839279,-109.55283
2516000000,-3.051744,-109.7335
2517000000,-3.0420804,-109.66729
2518000000,-3.1226709,-109.78496
2519000000,-3.0420508,-109.99939
2520000000,-3.0609033,-110.1098
2521000000,-3.0313613,-110.19415
2522000000,-3.1026139,-110.2984
2523000000,-3.063066,-110.01849
2524000000,-3.0964119,-110.33767
2525000000,-3.0794404,-110.16675
2526000000,-3.0875576,-110.52646
2527000000,-3.0832186,-110.65167
2528000000,-3.0484478,-110.67932
2529000000,-3.0356028,-110.86205
2530000000,-3.0844655,-110.87034
2531000000,-3.0853846,-111.17675
2532000000,-3.1068106,-111.03467
2533000000,-3.0852814,-111.193
2534000000,-3.0800278,-111.24744
2535000000,-3.0547276,-111.37593
2536000000,-3.0386858,-111.48597
2537000000,-3.0710816,-111.53885
2538000000,-3.0489752,-111.65525
2539000000,-3.0725493,-111.77995
2540000000,-3.0698278,-111.76281
2541000000,-3.0794306,-111.9824
2542000000,-3.0782177,-111.98732
2543000000,-3.0458918,-112.2059
2544000000,-3.0491292,-112.19707
2545000000,-3.0954144,-112.1163
2546000000,-3.0432248,-112.42661
2547000000,-3.0470519,-112.42919
2548000000,-3.0800221,-112.48002
2549000000,-3.082958,-112.63825
2550000000,-3.0415618,-112.49699
2551000000,-3.0354412,-112.81541
2552000000,-3.0557775,-113.02895
2553000000,-3.0835581,-112.84557
2554000000,-3.0371022,-112.90051
2555000000,-3.0539546,-113.01362
2556000000,-3.0378406,-113.34277
2557000000,-3.1141167,-113.27605
2558000000,-3.0995624,-113.22596
2559000000,-3.0969574,-113.67883
2560000000,-3.0814493,-113.5873
2561000000,-3.0799983,-113.4683
2562000000,-3.049444,-113.75619
2563000000,-3.0670118,-113.90631
2564000000,-3.0845089,-113.7396
2565000000,-3.0832884,-114.06602
2566000000,-3.081141,-114.01236
2567000000,-3.0865023,-114.34425
2568000000,-3.0699823,-114.22595
2569000000,-3.0466945,-114.42216
2570000000,-3.0597031,-114.50773
2571000000,-3.0831871,-114.61211
2572000000,-3.0675204,-114.81563
2573000000,-3.0854514,-114.61749
2574000000,-3.03949,-114.79126
2575000000,-3.0777462,-114.63141
2576000000,-3.0517068,-115.16695
2577000000,-3.1071181,-115.09425
2578000000,-3.0698216,-115.0915
2579000000,-3.0572195,-115.45417
2580000000,-3.09512,-115.2252
2581000000,-3.0893774,-115.42393
2582000000,-3.0897856,-115.51228
2583000000,-3.0545626,-115.37258
2584000000,-3.0585067,-115.7913
2585000000,-3.0945621,-115.7925
2586000000,-3.0836191,-115.75518
2587000000,-3.0730591,-115.91325
2588000000,-3.0653069,-115.88208
2589000000,-3.0814095,-116.29922
2590000000,-3.0831428,-116.1978
2591000000,-3.106144,-116.1375
2592000000,-3.0976591,-116.37443
2593000000,-3.0959296,-116.57284
2594000000,-3.1328981,-116.57178
2595000000,-3.0915663,-116.7864
2596000000,-3.0845547,-116.6076
2597000000,-3.0950418,-116.86351
2598000000,-3.0732484,-117.0138
2599000000,-3.086575,-117.36491
2600000000,-3.0835147,-117.16685
2601000000,-3.0933588,-117.0436
2602000000,-3.1079805,-117.21319
2603000000,-3.0953374,-117.28127
2604000000,-3.0931971,-117.57924
2605000000,-3.1250184,-117.36175
2606000000,-3.0610945,-117.36373
2607000000,-3.1148672,-117.67216
2608000000,-3.0873833,-117.85895
2609000000,-3.1271689,-117.72603
2610000000,-3.0564046,-118.00891
2611000000,-3.1031601,-118.19135
2612000000,-3.1145337,-118.1221
2613000000,-3.1224899,-118.24628
2614000000,-3.1245618,-118.29063
2615000000,-3.1186655,-118.34326
2616000000,-3.105181,-118.33618
2617000000,-3.1133399,-118.40685
2618000000,-3.1305957,-118.65406
2619000000,-3.1562386,-118.64465
2620000000,-3.1077445,-118.81733
2621000000,-3.1150954,-118.96779
2622000000,-3.1474433,-119.06028
2623000000,-3.1038969,-118.94236
2624000000,-3.0875759,-119.26331
2625000000,-3.1545875,-119.18224
2626000000,-3.1190102,-119.34391
2627000000,-3.1049201,-119.30066
2628000000,-3.1190934,-119.42781
2629000000,-3.1197784,-119.4473
2630000000,-3.1544199,-119.55607
2631000000,-3.1397407,-119.56726
2632000000,-3.1188135,-119.82613
2633000000,-3.1262665,-119.89989
2634000000,-3.1110349,-119.97327
2635000000,-3.1176486,-119.90695
2636000000,-3.1029384,-120.47752
2637000000,-3.1355999,-120.19024
2638000000,-3.1362662,-120.31428
2639000000,-3.1706352,-120.47323
2640000000,-3.141602,-120.48158
2641000000,-3.1532366,-120.75249
2642000000,-3.1364949,-120.95293
2643000000,-3.1319737,-120.54856
2644000000,-3.1328804,-120.83427
2645000000,-3.1311777,-120.97228
2646000000,-3.1680646,-120.97047
2647000000,-3.1437209,-121.18926
2648000000,-3.1227136,-121.09446
2649000000,-3.17506,-121.32082
2650000000,-3.126215,-121.239
2651000000,-3.1531487,-121.48714
2652000000,-3.1421721,-121.38554
2653000000,-3.1811061,-121.67515
2654000000,-3.1798348,-121.68634
2655000000,-3.1552722,-121.59344
2656000000,-3.1653895,-121.8447
2657000000,-3.1757386,-122.00967
2658000000,-3.1608915,-122.14954
2659000000,-3.1573281,-122.09787
2660000000,-3.1946006,-122.16694
2661000000,-3.2107956,-122.49548
2662000000,-3.1892991,-122.2132
2663000000,-3.1701334,-122.51485
2664000000,-3.2007215,-122.39529
2665000000,-3.1788988,-122.62684
2666000000,-3.2007694,-122.66373
2667000000,-3.175786,-123.09167
2668000000,-3.190079,-122.87919
2669000000,-3.1922071,-122.90199
2670000000,-3.176851,-122.95171
2671000000,-3.1881437,-123.15718
2672000000,-3.1721284,-123.07914
2673000000,-3.1817815,-123.30798
2674000000,-3.1897755,-123.35325
2675000000,-3.176645,-123.28093
2676000000,-3.1930037,-123.42628
2677000000,-3.1754115,-123.80285
2678000000,-3.2066302,-123.66681
2679000000,-3.1921778,-123.73457
2680000000,-3.2054622,-123.77061
2681000000,-3.1986012,-123.86268
2682000000,-3.2311668,-123.7678
2683000000,-3.202301,-124.18446
2684000000,-3.1829636,-124.27879
2685000000,-3.1834428,-124.33508
2686000000,-3.2438831,-124.20119
2687000000,-3.1998873,-124.40132
2688000000,-3.2669091,-124.53278
2689000000,-3.2331414,-124.64221
2690000000,-3.2435291,-124.60291
2691000000,-3.2274153,-124.86165
2692000000,-3.245337,-124.90761
2693000000,-3.2056355,-124.87289
2694000000,-3.2114744,-125.03241
2695000000,-3.247232,-125.11794
2696000000,-3.2780521,-125.31324
2697000000,-3.2658038,-125.35864
2698000000,-3.259378,-125.27067
2699000000,-3.2772534,-125.40479
2700000000,-3.2539489,-125.56753
2701000000,-3.2779627,-125.50256
2702000000,-3.2385151,-125.71326
2703000000,-3.2215297,-125.93093
2704000000,-3.2792816,-125.73981
2705000000,-3.281678,-125.90269
2706000000,-3.2678537,-125.90173
2707000000,-3.2379861,-126.0229
2708000000,-3.2713096,-126.11659
2709000000,-3.2338705,-126.32348
2710000000,-3.3004818,-126.33281
2711000000,-3.3110244,-126.29549
2712000000,-3.2844214,-126.42983
2713000000,-3.2750418,-126.47794
2714000000,-3.2904413,-126.70956
2715000000,-3.3013952,-126.66302
2716000000,-3.3219471,-126.91754
2717000000,-3.310802,-126.63264
2718000000,-3.2869902,-126.93828
2719000000,-3.285485,-127.23058
2720000000,-3.3003469,-127.0051
2721000000,-3.3074799,-127.24312
2722000000,-3.3203943,-127.20222
2723000000,-3.2897344,-127.17875
2724000000,-3.3008475,-127.39837
2725000000,-3.3113344,-127.35262
2726000000,-3.3177273,-127.60561
2727000000,-3.3073385,-127.74066
2728000000,-3.3211186,-127.61847
2729000000,-3.3187799,-127.88442
2730000000,-3.3058825,-127.58379
2731000000,-3.3163245,-127.95979
2732000000,-3.308428,-128.0435
2733000000,-3.3490882,-128.1153
2734000000,-3.3104601,-128.2361
2735000000,-3.2987642,-128.29108
2736000000,-3.336782,-128.31297
2737000000,-3.343049,-128.50922
2738000000,-3.3414888,-128.40413
2739000000,-3.3214719,-128.70134
2740000000,-3.333611,-128.74872
2741000000,-3.3291812,-128.81448
2742000000,-3.3207185,-128.88583
2743000000,-3.3254666,-128.82591
2744000000,-3.3305886,-128.94524
2745000000,-3.3355651,-129.05602
2746000000,-3.375875,-129.35757
2747000000,-3.379081,-129.05327
2748000000,-3.3300273,-129.46944
2749000000,-3.3560829,-129.47049
2750000000,-3.3760207,-129.40738
2751000000,-3.364001,-129.72603
2752000000,-3.3699791,-129.53516
2753000000,-3.3770685,-129.67139
2754000000,-3.3595052,-129.87257
2755000000,-3.3777728,-129.67554
2756000000,-3.4056096,-129.72238
2757000000,-3.3594573,-130.04404
2758000000,-3.3819187,-130.02711
2759000000,-3.4075089,-130.15573
2760000000,-3.398334,-130.24567
2761000000,-3.4088778,-130.39967
2762000000,-3.3987088,-130.5164
2763000000,-3.4136918,-130.37163
2764000000,-3.4384904,-130.32553
2765000000,-3.4176359,-130.63712
2766000000,-3.407618,-130.70767
2767000000,-3.3839951,-130.57785
2768000000,-3.4288566,-130.85332
2769000000,-3.4047015,-130.89148
2770000000,-3.4125965,-130.84099
2771000000,-3.4212146,-131.23747
2772000000,-3.4506257,-131.08298
2773000000,-3.4268649,-131.21097
2774000000,-3.3997905,-131.58046
2775000000,-3.4401462,-131.57616
2776000000,-3.4661417,-131.52713
2777000000,-3.4258454,-131.57147
2778000000,-3.4751654,-131.65817
2779000000,-3.4378762,-131.6754
2780000000,-3.4613135,-131.73172
2781000000,-3.4450684,-131.96364
2782000000,-3.4339933,-131.76385
2783000000,-3.4706073,-131.94891
2784000000,-3.4641204,-132.08421
2785000000,-3.4506011,-132.21011
2786000000,-3.4364774,-132.28761
2787000000,-3.4815927,-132.14864
2788000000,-3.4748819,-132.44315
2789000000,-3.455512,-132.33809
2790000000,-3.4509506,-132.51595
2791000000,-3.4765389,-132.70117
2792000000,-3.4746063,-132.69753
2793000000,-3.4789591,-132.76599
2794000000,-3.4935701,-132.99489
2795000000,-3.4758697,-132.91133
2796000000,-3.4684765,-133.18347
2797000000,-3.4658446,-133.02313
2798000000,-3.5227511,-133.18164
2799000000,-3.458329,-133.01703
2800000000,-3.5020316,-133.353
2801000000,-3.5178132,-133.2327
2802000000,-3.5294578,-133.41643
2803000000,-3.5039845,-133.43707
2804000000,-3.5395687,-133.63446
2805000000,-3.540679,-133.60788
2806000000,-3.5255373,-133.67949
2807000000,-3.5209558,-133.78769
2808000000,-3.5050595,-133.76894
2809000000,-3.5029168,-133.90138
2810000000,-3.538151,-134.15872
2811000000,-3.5397339,-133.869
2812000000,-3.5368879,-134.17116
2813000000,-3.5704682,-134.24057
2814000000,-3.5479853,-134.24532
2815000000,-3.5221081,-134.58214
2816000000,-3.5431364,-134.40413
2817000000,-3.5199869,-134.48183
2818000000,-3.5482891,-134.5125
2819000000,-3.5459452,-134.4335
2820000000,-3.5923223,-134.7861
2821000000,-3.567096,-134.67735
2822000000,-3.5653939,-134.83475
2823000000,-3.5998349,-134.90073
2824000000,-3.5631869,-134.97861
2825000000,-3.553827,-135.0464
2826000000,-3.5562887,-135.04237
2827000000,-3.6142788,-135.49698
2828000000,-3.5772431,-135.20522
2829000000,-3.5961168,-135.24892
2830000000,-3.5785329,-135.31688
2831000000,-3.6100442,-135.70879
2832000000,-3.5834184,-135.66095
2833000000,-3.6299193,-135.58672
2834000000,-3.5933213,-135.73384
2835000000,-3.5853202,-135.75174
2836000000,-3.6336515,-135.95357
2837000000,-3.6042566,-135.99289
2838000000,-3.6106188,-135.99521
2839000000,-3.6328144,-136.39536
2840000000,-3.6412232,-136.05711
2841000000,-3.636116,-136.13918
2842000000,-3.6097698,-136.46219
2843000000,-3.6038942,-136.53516
2844000000,-3.6416385,-136.48187
2845000000,-3.6387222,-136.63434
2846000000,-3.6381392,-136.71048
2847000000,-3.6440022,-136.87897
2848000000,-3.64764,-136.77507
2849000000,-3.6605821,-136.82291
2850000000,-3.6617384,-136.87755
2851000000,-3.6568501,-137.00911
2852000000,-3.6538048,-137.04785
2853000000,-3.6632705,-137.25978
2854000000,-3.6682661,-137.2244
2855000000,-3.6963651,-137.38358
2856000000,-3.68925,-137.3029
2857000000,-3.6565955,-137.47701
2858000000,-3.693748,-137.55171
2859000000,-3.6961057,-137.53638
2860000000,-3.696106,-137.68886
2861000000,-3.6904693,-137.78645
2862000000,-3.6776731,-137.63612
2863000000,-3.710983,-137.76631
2864000000,-3.6712165,-138.06129
2865000000,-3.6613693,-137.91003
2866000000,-3.7081957,-138.07848
2867000000,-3.7133076,-138.18495
2868000000,-3.7190266,-138.30334
2869000000,-3.7146986,-138.30757
2870000000,-3.7009537,-138.21846
2871000000,-3.7346818,-138.39221
2872000000,-3.7273946,-138.48547
2873000000,-3.7213993,-138.62849
2874000000,-3.7271323,-138.63326
2875000000,-3.7401459,-138.38463
2876000000,-3.7438891,-138.87296
2877000000,-3.7484052,-138.97206
2878000000,-3.7679186,-138.93614
2879000000,-3.7448781,-139.08411
2880000000,-3.7625065,-138.99922
2881000000,-3.7486758,-138.99973
2882000000,-3.7593935,-139.18919
2883000000,-3.7899907,-139.33415
2884000000,-3.7605972,-139.22069
2885000000,-3.779264,-139.52101
2886000000,-3.7880168,-139.65372
2887000000,-3.7882898,-139.71971
2888000000,-3.815989,-139.84534
2889000000,-3.7612224,-139.53081
2890000000,-3.7709455,-139.63828
2891000000,-3.8142316,-139.80551
2892000000,-3.7842243,-139.91403
2893000000,-3.8028324,-139.98091
2894000000,-3.8195829,-139.98703
2895000000,-3.7953835,-140.00343
2896000000,-3.84951,-140.22554
2897000000,-3.8063722,-140.17441
2898000000,-3.853852,-140.21393
2899000000,-3.8013678,-140.38141
2900000000,-3.8315294,-140.52287
2901000000,-3.8082969,-140.43184
2902000000,-3.8338692,-140.54895
2903000000,-3.8490002,-140.56277
2904000000,-3.8091733,-140.7556
2905000000,-3.8249836,-140.63158
2906000000,-3.8415496,-140.63344
2907000000,-3.8573971,-141.08569
2908000000,-3.8240457,-140.92279
2909000000,-3.862206,-140.79787
2910000000,-3.8531685,-141.30719
2911000000,-3.890202,-141.3365
2912000000,-3.877187,-141.23343
2913000000,-3.8825781,-141.17654
2914000000,-3.8644173,-141.37918
2915000000,-3.892071,-141.47903
2916000000,-3.9217155,-141.50284
2917000000,-3.8850057,-141.42947
2918000000,-3.8809693,-141.72823
2919000000,-3.9075468,-141.7961
2920000000,-3.8331044,-141.77011
2921000000,-3.8555751,-142.0051
2922000000,-3.9027402,-141.9758
2923000000,-3.8891404,-142.00398
2924000000,-3.8892303,-142.02075
2925000000,-3.9121182,-142.06975
2926000000,-3.8915968,-142.06519
2927000000,-3.8913541,-142.35446
2928000000,-3.9180429,-142.228
2929000000,-3.9188778,-142.44281
2930000000,-3.9646714,-142.44487
2931000000,-3.9160831,-142.58643
2932000000,-3.9408135,-142.33273
2933000000,-3.9604037,-142.4321
2934000000,-3.9105849,-142.74481
2935000000,-3.9552619,-143.00122
2936000000,-3.9205458,-142.85208
2937000000,-3.9521768,-142.98425
2938000000,-3.9684904,-142.89746
2939000000,-3.9447103,-143.08986
2940000000,-3.9372339,-143.21307
2941000000,-3.9472833,-142.98419
2942000000,-3.9984517,-143.35049
2943000000,-3.9555306,-143.43416
2944000000,-3.9382875,-143.16917
2945000000,-4.0117469,-143.65811
2946000000,-3.9851003,-143.66492
2947000000,-3.9659643,-143.70987
2948000000,-4.0169897,-143.64398
2949000000,-4.0063419,-143.79791
2950000000,-3.9788365,-143.82553
2951000000,-4.0248871,-143.61684
2952000000,-4.0377502,-143.82599
2953000000,-4.0087276,-143.8837
2954000000,-4.0360999,-144.09184
2955000000,-4.0355887,-144.05171
2956000000,-3.9864876,-144.03552
2957000000,-3.9899678,-144.51979
2958000000,-4.0146055,-144.10406
2959000000,-3.9925683,-144.33115
2960000000,-4.0031409,-144.43253
2961000000,-4.0190268,-144.64815
2962000000,-4.0264392,-144.56033
2963000000,-4.0716233,-144.6823
2964000000,-4.0490499,-144.62685
2965000000,-4.0682983,-145.05519
2966000000,-4.0314102,-144.69112
2967000000,-4.0428047,-144.6757
2968000000,-4.0878839,-144.86131
2969000000,-4.0658202,-144.8902
2970000000,-4.0677919,-145.03632
2971000000,-4.0734868,-144.91492
2972000000,-4.0436606,-145.32425
2973000000,-4.0647073,-145.14833
2974000000,-4.1002479,-145.51837
2975000000,-4.0895734,-145.50743
2976000000,-4.1076469,-145.37158
2977000000,-4.1046419,-145.67491
2978000000,-4.0962334,-145.44594
2979000000,-4.093235,-145.66133
2980000000,-4.1298366,-145.65894
2981000000,-4.0751071,-145.73787
2982000000,-4.113718,-145.69527
2983000000,-4.0797796,-145.83725
2984000000,-4.1038218,-145.76163
2985000000,-4.1263652,-145.99174
2986000000,-4.0804477,-146.00774
2987000000,-4.1345387,-146.14961
2988000000,-4.1074557,-146.21793
2989000000,-4.1340866,-146.28964
2990000000,-4.1451192,-146.47253
2991000000,-4.1604114,-146.36888
2992000000,-4.1348748,-146.35785
2993000000,-4.1674466,-146.66678
2994000000,-4.1507521,-146.47403
2995000000,-4.1839747,-146.403
2996000000,-4.1635695,-146.74153
2997000000,-4.1651249,-146.65051
2998000000,-4.1398168,-146.96909
2999000000,-4.1660471,-146.68025
3000000000,-4.1863732,-146.9373
3001000000,-4.1754193,-147.0148
3002000000,-4.1838007,-147.0675
3003000000,-4.1792426,-147.04138
3004000000,-4.1875949,-147.21368
3005000000,-4.193439,-147.19315
3006000000,-4.2051263,-147.34013
3007000000,-4.1972122,-147.31613
3008000000,-4.2074924,-147.48965
3009000000,-4.2159152,-147.62138
3010000000,-4.2115836,-147.74124
3011000000,-4.2199135,-147.44209
3012000000,-4.1951509,-147.65945
3013000000,-4.2303786,-147.8159
3014000000,-4.226388,-147.83371
3015000000,-4.2324157,-147.68591
3016000000,-4.2422152,-148.02844
3017000000,-4.2656722,-147.94708
3018000000,-4.2520876,-148.05151
3019000000,-4.2615452,-148.10292
3020000000,-4.2514219,-148.32181
3021000000,-4.2331176,-148.23564
3022000000,-4.2598233,-148.42905
3023000000,-4.260767,-148.40439
3024000000,-4.2728782,-148.41216
3025000000,-4.2839007,-148.48447
3026000000,-4.2885094,-148.68312
3027000000,-4.2631392,-148.35852
3028000000,-4.2801509,-148.65717
3029000000,-4.2551298,-148.79822
3030000000,-4.2666321,-148.88937
3031000000,-4.2588077,-149.0162
3032000000,-4.3038425,-148.97256
3033000000,-4.3052373,-148.8524
3034000000,-4.2767873,-149.19159
3035000000,-4.2785435,-148.94763
3036000000,-4.3220377,-148.87938
3037000000,-4.2910056,-149.3145
3038000000,-4.3089542,-149.29848
3039000000,-4.3104944,-149.32805
3040000000,-4.3375301,-149.51659
3041000000,-4.326036,-149.38232
3042000000,-4.3614578,-149.33673
3043000000,-4.3347783,-149.66728
3044000000,-4.3503232,-149.78957
3045000000,-4.3382649,-149.50003
3046000000,-4.3392372,-149.9624
3047000000,-4.361712,-149.69998
3048000000,-4.3580227,-149.88962
3049000000,-4.3396549,-150.11736
3050000000,-4.373877,-150.11964
3051000000,-4.3589101,-150.04068
3052000000,-4.3924737,-150.16556
3053000000,-4.3726664,-149.92415
3054000000,-4.3732162,-150.36166
3055000000,-4.3894467,-150.08958
3056000000,-4.4088516,-150.28448
3057000000,-4.4084458,-150.24365
3058000000,-4.4000468,-150.42096
3059000000,-4.3987937,-150.42027
3060000000,-4.4114294,-150.63814
3061000000,-4.4193325,-150.7688
3062000000,-4.4736972,-150.56027
3063000000,-4.4248447,-150.58086
3064000000,-4.3980098,-150.77208
3065000000,-4.4105172,-150.97066
3066000000,-4.4053168,-150.91476
3067000000,-4.4518814,-150.92912
3068000000,-4.4385891,-150.98004
3069000000,-4.4613647,-151.18127
3070000000,-4.4203486,-151.15041
3071000000,-4.4583836,-151.28955
3072000000,-4.4667821,-151.40651
3073000000,-4.4230375,-151.24548
3074000000,-4.4488344,-151.22316
3075000000,-4.4674764,-151.25612
3076000000,-4.4672513,-151.52612
3077000000,-4.4671097,-151.55261
3078000000,-4.4677091,-151.49611
3079000000,-4.4850163,-151.67563
3080000000,-4.4746246,-151.77219
3081000000,-4.4845524,-151.82912
3082000000,-4.4814477,-152.1806
3083000000,-4.4940996,-151.97874
3084000000,-4.4806476,-151.93604
3085000000,-4.5153804,-151.85458
3086000000,-4.4750566,-152.08746
3087000000,-4.5480528,-152.04207
3088000000,-4.5046186,-152.14174
3089000000,-4.4930682,-152.23285
3090000000,-4.4868031,-152.44208
3091000000,-4.5237231,-152.29816
3092000000,-4.4938688,-152.45935
3093000000,-4.5631552,-152.54852
3094000000,-4.5285907,-152.62921
3095000000,-4.5270567,-152.57291
3096000000,-4.5384474,-152.84174
3097000000,-4.5326905,-152.99321
3098000000,-4.5497904,-152.56366
3099000000,-4.5423708,-152.71974
3100000000,-4.5550437,-152.69951
3101000000,-4.5875401,-153.14336
3102000000,-4.5856318,-152.81265
3103000000,-4.5916815,-153.02728
3104000000,-4.5942554,-153.1198
3105000000,-4.5461636,-153.23071
3106000000,-4.5908556,-153.1714
3107000000,-4.5787749,-153.30432
3108000000,-4.5809703,-153.50156
3109000000,-4.5988946,-153.52107
3110000000,-4.6002979,-153.31343
3111000000,-4.5631552,-153.34717
3112000000,-4.5822096,-153.58867
3113000000,-4.6509652,-153.54681
3114000000,-4.5905657,-153.67406
3115000000,-4.6016107,-153.76483
3116000000,-4.5996146,-153.69417
3117000000,-4.612884,-153.75264
3118000000,-4.6406436,-153.89133
3119000000,-4.6065617,-153.91856
3120000000,-4.6140227,-154.02019
3121000000,-4.6154866,-154.04112
3122000000,-4.6324911,-154.15834
3123000000,-4.6227026,-154.34711
3124000000,-4.6219583,-153.97644
3125000000,-4.6073685,-154.11096
3126000000,-4.6695638,-154.35941
3127000000,-4.6309114,-154.5278
3128000000,-4.6485085,-154.30963
3129000000,-4.6728663,-154.41055
3130000000,-4.6739235,-154.72411
3131000000,-4.6682568,-154.89551
3132000000,-4.6820245,-154.70183
3133000000,-4.6663837,-154.72603
3134000000,-4.6738343,-154.68689
3135000000,-4.6686511,-154.8333
3136000000,-4.697957,-154.93758
3137000000,-4.6787663,-154.98062
3138000000,-4.6984448,-154.94112
3139000000,-4.6880527,-155.14664
3140000000,-4.7012258,-155.16133
3141000000,-4.6995897,-155.09888
3142000000,-4.6696687,-155.28973
3143000000,-4.6932287,-155.27834
3144000000,-4.7183738,-155.403
3145000000,-4.7257094,-155.3835
3146000000,-4.6934018,-155.44627
3147000000,-4.6998038,-155.59264
3148000000,-4.7618637,-155.57832
3149000000,-4.7385974,-155.70418
3150000000,-4.728951,-155.7455
3151000000,-4.7491169,-155.83662
3152000000,-4.7671523,-155.49854
3153000000,-4.7685308,-155.88597
3154000000,-4.7664099,-155.80815
3155000000,-4.7454882,-155.98131
3156000000,-4.7636323,-155.85793
3157000000,-4.775867,-156.17145
3158000000,-4.7767024,-156.22618
3159000000,-4.7660379,-156.05017
3160000000,-4.7822194,-156.21367
3161000000,-4.7552586,-156.30721
3162000000,-4.8003426,-156.3746
3163000000,-4.7503734,-156.5843
3164000000,-4.7937303,-156.32643
3165000000,-4.8120642,-156.28078
3166000000,-4.8046827,-156.54442
3167000000,-4.8069153,-156.76686
3168000000,-4.8056059,-156.78409
3169000000,-4.7801743,-156.87511
3170000000,-4.7918,-156.64485
3171000000,-4.8025713,-156.6378
3172000000,-4.8375211,-156.66388
3173000000,-4.8085628,-156.85117
3174000000,-4.8447289,-157.02704
3175000000,-4.8383651,-156.96851
3176000000,-4.8480482,-157.11079
3177000000,-4.8363056,-157.04463
3178000000,-4.8416858,-157.12483
3179000000,-4.8450975,-157.32396
3180000000,-4.8705459,-157.06369
3181000000,-4.8685145,-157.42532
3182000000,-4.8431807,-157.48669
3183000000,-4.8611999,-157.34319
3184000000,-4.8760414,-157.58171
3185000000,-4.8629866,-157.40163
3186000000,-4.8446107,-157.55597
3187000000,-4.8442068,-157.7038
3188000000,-4.9064035,-157.63838
3189000000,-4.8750114,-157.77228
3190000000,-4.8968587,-157.86751
3191000000,-4.8902225,-157.95998
3192000000,-4.9212475,-157.94028
3193000000,-4.9080124,-158.01866
3194000000,-4.925272,-157.80389
3195000000,-4.8922529,-158.13092
3196000000,-4.946547,-158.33435
3197000000,-4.9241185,-158.25525
3198000000,-4.9087591,-158.14091
3199000000,-4.9453893,-158.30185
3200000000,-4.906436,-158.41379
3201000000,-4.9389076,-158.37677
3202000000,-4.9290533,-158.52534
3203000000,-4.9180655,-158.4268
3204000000,-4.9247627,-158.50908
3205000000,-4.9665356,-158.49498
3206000000,-4.9426417,-158.53195
3207000000,-4.9615116,-158.6557
3208000000,-4.9364071,-158.68942
3209000000,-4.9574919,-158.98543
3210000000,-4.9389968,-158.6422
3211000000,-4.9677052,-158.93953
3212000000,-4.9734783,-159.04222
3213000000,-4.9664707,-158.99071
3214000000,-4.9645824,-159.24634
3215000000,-4.9862838,-159.18213
3216000000,-4.9634414,-159.32741
3217000000,-4.9919477,-159.00116
3218000000,-4.9978046,-158.91194
3219000000,-4.9638824,-159.22235
3220000000,-4.9924955,-159.4872
3221000000,-4.9947515,-159.36536
3222000000,-5.0174193,-159.42085
3223000000,-5.001792,-159.66724
3224000000,-5.0029268,-159.46216
3225000000,-4.9930286,-159.65254
3226000000,-5.0352621,-159.79752
3227000000,-5.008616,-159.61639
3228000000,-5.0224748,-159.74376
3229000000,-5.03651,-159.93327
3230000000,-5.024992,-160.08554
3231000000,-5.0369124,-160.17075
3232000000,-5.0293536,-159.91286
3233000000,-5.0534282,-160.13255
3234000000,-5.0529361,-160.35081
3235000000,-5.0669746,-160.15132
3236000000,-5.0585551,-160.20978
3237000000,-5.0462952,-160.24144
3238000000,-5.0649199,-160.5004
3239000000,-5.0675631,-160.31906
3240000000,-5.0859179,-160.3299
3241000000,-5.1014757,-160.53198
3242000000,-5.0412316,-160.62859
3243000000,-5.0679069,-160.76855
3244000000,-5.1054378,-160.2724
3245000000,-5.0807805,-160.51643
3246000000,-5.1338601,-160.36925
3247000000,-5.1051383,-160.78529
3248000000,-5.1258049,-160.82237
3249000000,-5.107728,-160.77859
3250000000,-5.1329618,-160.98218
3251000000,-5.1135416,-160.81387
3252000000,-5.1262698,-160.95357
3253000000,-5.1442051,-161.10713
3254000000,-5.1534519,-160.98528
3255000000,-5.1395359,-160.96321
3256000000,-5.1611233,-160.96133
3257000000,-5.1436763,-161.26653
3258000000,-5.1653714,-161.19115
3259000000,-5.1678891,-161.26108
3260000000,-5.15874,-161.53365
3261000000,-5.1479354,-161.4037
3262000000,-5.1143508,-161.36348
3263000000,-5.1969891,-161.41782
3264000000,-5.1654453,-161.51277
3265000000,-5.1417103,-161.44
3266000000,-5.184422,-161.78519
3267000000,-5.1512609,-161.65366
3268000000,-5.1776266,-161.71544
3269000000,-5.1939769,-161.59619
3270000000,-5.1734581,-161.81497
3271000000,-5.1938057,-161.8255
3272000000,-5.2129111,-161.80257
3273000000,-5.20647,-162.04857
3274000000,-5.1939335,-161.98935
3275000000,-5.2043271,-161.9435
3276000000,-5.1784768,-162.21458
3277000000,-5.1956429,-162.19389
3278000000,-5.2179899,-162.16806
3279000000,-5.2699695,-162.26515
3280000000,-5.2266188,-162.3009
3281000000,-5.2459369,-162.37196
3282000000,-5.2132921,-162.37578
3283000000,-5.2322235,-162.35756
3284000000,-5.2521071,-162.37674
3285000000,-5.2180815,-162.3941
3286000000,-5.2315311,-162.50829
3287000000,-5.272851,-162.578
3288000000,-5.2535925,-162.67305
3289000000,-5.2689691,-162.66434
3290000000,-5.2645044,-162.77884
3291000000,-5.2726908,-162.9371
3292000000,-5.2951317,-162.74817
3293000000,-5.271246,-162.84978
3294000000,-5.2780938,-163.04254
3295000000,-5.2753544,-162.94212
3296000000,-5.2899046,-163.06378
3297000000,-5.2574363,-163.16612
3298000000,-5.2940631,-163.31984
3299000000,-5.3120933,-163.23422
3300000000,-5.2877998,-163.33878
3301000000,-5.3096476,-163.21057
3302000000,-5.2945971,-163.2408
3303000000,-5.3129549,-163.32013
3304000000,-5.3060155,-163.46698
3305000000,-5.3394623,-163.30759
3306000000,-5.3131561,-163.44746
3307000000,-5.3228698,-163.6013
3308000000,-5.3081341,-163.76482
3309000000,-5.3220196,-163.57687
3310000000,-5.3124194,-163.70993
3311000000,-5.3495936,-163.68776
3312000000,-5.346446,-163.82458
3313000000,-5.3333578,-163.8822
3314000000,-5.3391542,-163.77249
3315000000,-5.3469534,-163.9782
3316000000,-5.3349838,-163.85481
3317000000,-5.3525281,-164.04512
3318000000,-5.3300529,-164.1389
3319000000,-5.3807745,-164.19243
3320000000,-5.3550563,-164.00761
3321000000,-5.3600502,-164.25179
3322000000,-5.3722472,-164.28345
3323000000,-5.3747234,-164.16844
3324000000,-5.3852973,-164.39606
3325000000,-5.3794637,-164.32764
3326000000,-5.3795304,-164.61462
3327000000,-5.3545122,-164.48112
3328000000,-5.3677287,-164.39854
3329000000,-5.4058056,-164.43506
3330000000,-5.4222136,-164.48483
3331000000,-5.3735356,-164.7267
3332000000,-5.4039197,-164.57042
3333000000,-5.434401,-164.78746
3334000000,-5.4242072,-164.7569
3335000000,-5.4440842,-164.85732
3336000000,-5.4244289,-164.86533
3337000000,-5.4086332,-165.01959
3338000000,-5.4119768,-164.92467
3339000000,-5.4710841,-165.14328
3340000000,-5.4406147,-164.87782
3341000000,-5.4495177,-164.8933
3342000000,-5.4210854,-165.1505
3343000000,-5.4442272,-165.07501
3344000000,-5.4597163,-165.18344
3345000000,-5.4330707,-165.29657
3346000000,-5.4611764,-165.41394
3347000000,-5.4527044,-165.48274
3348000000,-5.4623904,-165.37149
3349000000,-5.4492044,-165.55426
3350000000,-5.4590106,-165.69057
3351000000,-5.4612384,-165.44743
3352000000,-5.4606447,-165.7218
3353000000,-5.4817829,-165.47728
3354000000,-5.4789138,-165.65906
3355000000,-5.5112314,-165.8102
3356000000,-5.4732666,-165.69508
3357000000,-5.4973984,-165.78062
3358000000,-5.5039701,-165.77985
3359000000,-5.4804773,-165.67004
3360000000,-5.502883,-165.79933
3361000000,-5.4985938,-166.16895
3362000000,-5.5054579,-165.98395
3363000000,-5.5233574,-166.24287
3364000000,-5.5063744,-165.8912
3365000000,-5.5320435,-166.27328
3366000000,-5.5235457,-166.2137
3367000000,-5.5249457,-166.31282
3368000000,-5.4924459,-166.09479
3369000000,-5.5509782,-166.22209
3370000000,-5.5524859,-166.43689
3371000000,-5.5194941,-166.47656
3372000000,-5.5410986,-166.38869
3373000000,-5.5287929,-166.48743
3374000000,-5.5355177,-166.52824
3375000000,-5.5697107,-166.43994
3376000000,-5.5592747,-166.76326
3377000000,-5.6029367,-166.69733
3378000000,-5.5840454,-166.70766
3379000000,-5.5706162,-166.90414
3380000000,-5.5723934,-166.85286
3381000000,-5.5743284,-166.7525
3382000000,-5.5733738,-166.85953
3383000000,-5.5738239,-167.02945
3384000000,-5.5808916,-167.07779
3385000000,-5.5577879,-167.06401
3386000000,-5.5787048,-167.06918
3387000000,-5.6281462,-167.30013
3388000000,-5.5973196,-167.18654
3389000000,-5.5940595,-167.32626
3390000000,-5.596993,-167.18887
3391000000,-5.5861931,-167.10567
3392000000,-5.5956893,-167.30461
3393000000,-5.5819736,-167.26213
3394000000,-5.580441,-167.46671
3395000000,-5.5927925,-167.40175
3396000000,-5.5994215,-167.44412
3397000000,-5.6305127,-167.46651
3398000000,-5.6404963,-167.60246
3399000000,-5.6543255,-167.6333
3400000000,-5.6240692,-167.73564
3401000000,-5.63519,-167.64975
3402000000,-5.6499276,-167.64972
3403000000,-5.6322551,-167.98236
3404000000,-5.6602769,-167.81636
3405000000,-5.6790943,-168.01363
3406000000,-5.6315107,-167.83025
3407000000,-5.6515598,-167.96341
3408000000,-5.6526203,-167.91232
3409000000,-5.6715136,-168.21329
3410000000,-5.6413226,-168.05354
3411000000,-5.6469116,-168.28691
3412000000,-5.6960902,-168.14905
3413000000,-5.6841459,-168.20825
3414000000,-5.6784773,-168.23828
3415000000,-5.7029872,-168.34
3416000000,-5.6793327,-168.37048
3417000000,-5.6790156,-168.37395
3418000000,-5.6957283,-168.66867
3419000000,-5.6993055,-168.51833
3420000000,-5.6954074,-168.58977
3421000000,-5.6888909,-168.50188
3422000000,-5.6722813,-168.62952
3423000000,-5.689229,-168.78069
3424000000,-5.6995821,-168.78218
3425000000,-5.706233,-168.66734
3426000000,-5.7192664,-168.7444
3427000000,-5.6935601,-168.97229
3428000000,-5.6998639,-168.8222
3429000000,-5.7212987,-169.00012
3430000000,-5.7355919,-169.16084
3431000000,-5.7227731,-168.90514
3432000000,-5.7462921,-169.05653
3433000000,-5.7011003,-169.0966
3434000000,-5.7149692,-169.12767
3435000000,-5.7352529,-169.34979
3436000000,-5.7479296,-169.34351
3437000000,-5.7449136,-169.09538
3438000000,-5.7520247,-169.34074
3439000000,-5.7318797,-169.32001
3440000000,-5.7531867,-169.49185
3441000000,-5.7661257,-169.65302
3442000000,-5.7548051,-169.47586
3443000000,-5.7671304,-169.55005
3444000000,-5.7691793,-169.63405
3445000000,-5.7684493,-169.57823
3446000000,-5.7850957,-169.57686
3447000000,-5.7539196,-169.69913
3448000000,-5.795229,-169.63206
3449000000,-5.7649145,-169.75072
3450000000,-5.7761817,-169.93582
3451000000,-5.7929983,-169.79007
3452000000,-5.7882681,-169.74951
3453000000,-5.776207,-170.06839
3454000000,-5.8116808,-170.06082
3455000000,-5.7778201,-170.11688
3456000000,-5.7899599,-170.1394
3457000000,-5.7743721,-170.16119
3458000000,-5.8189363,-170.22739
3459000000,-5.8201714,-170.18459
3460000000,-5.808959,-170.19278
3461000000,-5.8406205,-170.52299
3462000000,-5.8308825,-170.37367
3463000000,-5.8317475,-170.25224
3464000000,-5.813715,-170.46681
3465000000,-5.8344641,-170.33946
3466000000,-5.8383737,-170.44586
3467000000,-5.8270512,-170.57718
3468000000,-5.8419328,-170.60516
3469000000,-5.8309116,-170.54739
3470000000,-5.8605051,-170.73152
3471000000,-5.8561006,-170.83978
3472000000,-5.8647633,-170.53711
3473000000,-5.8283291,-170.72598
3474000000,-5.8587451,-170.70181
3475000000,-5.8673248,-170.79077
3476000000,-5.8475528,-171.03317
3477000000,-5.8612337,-170.87988
3478000000,-5.8585882,-171.0175
3479000000,-5.880475,-170.9319
3480000000,-5.872304,-171.20161
3481000000,-5.9024081,-171.18657
3482000000,-5.8816004,-171.12776
3483000000,-5.8882303,-171.08011
3484000000,-5.8835354,-171.32593
3485000000,-5.885273,-171.25854
3486000000,-5.8753304,-171.33583
3487000000,-5.9234309,-171.50719
3488000000,-5.8915801,-171.26506
3489000000,-5.9000387,-171.59756
3490000000,-5.9111934,-171.44157
3491000000,-5.9004388,-171.56709
3492000000,-5.9200726,-171.54147
3493000000,-5.8947554,-171.45757
3494000000,-5.8989038,-171.5452
3495000000,-5.9473257,-171.70703
3496000000,-5.9247608,-171.70753
3497000000,-5.9351225,-171.89897
3498000000,-5.9172635,-171.87524
3499000000,-5.9191284,-171.74498
3500000000,-5.9325624,-171.75031
3501000000,-5.919013,-171.86208
3502000000,-5.9505682,-172.03716
3503000000,-5.945703,-172.00681
3504000000,-5.9254565,-171.97551
3505000000,-5.9417439,-172.05592
3506000000,-5.9656363,-172.12067
3507000000,-5.9304624,-171.98869
3508000000,-5.9604306,-172.31671
3509000000,-5.9568667,-172.32742
3510000000,-5.9519682,-172.29106
3511000000,-5.9837613,-172.23595
3512000000,-5.9667506,-172.34943
3513000000,-5.9749923,-172.37209
3514000000,-5.9893923,-172.48946
3515000000,-5.9895635,-172.39827
3516000000,-5.9617062,-172.80286
3517000000,-5.959528,-172.61804
3518000000,-5.9795289,-172.52547
3519000000,-6.0004845,-172.70601
3520000000,-6.0122304,-172.71246
3521000000,-5.9760518,-172.84155
3522000000,-5.9970598,-172.91618
3523000000,-6.0135331,-172.83281
3524000000,-5.9854331,-172.89159
3525000000,-6.0424118,-172.9899
3526000000,-6.031323,-173.11093
3527000000,-6.0260992,-172.91
3528000000,-6.032712,-172.96188
3529000000,-6.031723,-173.02582
3530000000,-6.0389009,-173.04594
3531000000,-6.0360227,-173.25507
3532000000,-6.0454979,-173.00395
3533000000,-6.0474567,-173.3083
3534000000,-6.0350041,-173.27745
3535000000,-6.0352039,-173.28856
3536000000,-6.0607252,-173.31339
3537000000,-6.0612717,-173.23642
3538000000,-6.0213661,-173.55811
3539000000,-6.0476174,-173.54654
3540000000,-6.0722551,-173.56815
3541000000,-6.0538282,-173.62489
3542000000,-6.045876,-173.61661
3543000000,-6.0719023,-173.58064
3544000000,-6.048892,-173.46153
3545000000,-6.0400066,-173.66344
3546000000,-6.0363622,-173.67567
3547000000,-6.0784502,-173.8647
3548000000,-6.0689139,-173.86732
3549000000,-6.0581269,-173.78815
3550000000,-6.0853372,-173.9894
3551000000,-6.0966554,-174.01294
3552000000,-6.09799,-173.73158
3553000000,-6.0791464,-173.72813
3554000000,-6.0961714,-173.98376
3555000000,-6.0935717,-174.10707
3556000000,-6.1524715,-174.10631
3557000000,-6.1023059,-174.17155
3558000000,-6.1151772,-174.08122
3559000000,-6.0954938,-174.41905
3560000000,-6.1356297,-174.3373
3561000000,-6.1050763,-174.34473
3562000000,-6.102716,-174.25409
3563000000,-6.1195307,-174.47417
3564000000,-6.0789962,-174.31075
3565000000,-6.1106858,-174.39468
3566000000,-6.1013899,-174.26466
3567000000,-6.1347971,-174.55116
3568000000,-6.1582232,-174.54404
3569000000,-6.1152925,-174.29022
3570000000,-6.1674595,-174.68521
3571000000,-6.1321015,-174.64792
3572000000,-6.1480532,-174.43097
3573000000,-6.1377649,-174.66942
3574000000,-6.1180115,-174.68399
3575000000,-6.132268,-174.85051
3576000000,-6.1582422,-174.6664
3577000000,-6.1869588,-174.73492
3578000000,-6.1840897,-175.00069
3579000000,-6.1780758,-175.24525
3580000000,-6.1560292,-174.97685
3581000000,-6.1438274,-174.87616
3582000000,-6.1861229,-175.14935
3583000000,-6.1904478,-175.0824
3584000000,-6.1793652,-175.09215
3585000000,-6.152596,-175.22165
3586000000,-6.1712303,-175.14908
3587000000,-6.1519732,-175.21446
3588000000,-6.1692076,-175.2028
3589000000,-6.1644425,-175.38597
3590000000,-6.168963,-175.52225
3591000000,-6.2068009,-175.48415
3592000000,-6.2114391,-175.48863
3593000000,-6.2030411,-175.3222
3594000000,-6.1794109,-175.56503
3595000000,-6.2048259,-175.64801
3596000000,-6.2145209,-175.68353
3597000000,-6.2102923,-175.61403
3598000000,-6.2216873,-175.69308
3599000000,-6.1903005,-175.71126
3600000000,-6.200345,-175.51955
3601000000,-6.2030263,-175.88022
3602000000,-6.2035947,-175.68211
3603000000,-6.241456,-175.89452
3604000000,-6.2196708,-176.05849
3605000000,-6.215353,-175.91708
3606000000,-6.231452,-176.00397
3607000000,-6.2390375,-176.09135
3608000000,-6.1890845,-176.07729
3609000000,-6.2319531,-176.14394
3610000000,-6.2344408,-176.42378
3611000000,-6.2461796,-176.07658
3612000000,-6.2488008,-176.17117
3613000000,-6.2378988,-176.47905
3614000000,-6.2659621,-176.2318
3615000000,-6.2410364,-176.40086
3616000000,-6.265316,-176.2789
3617000000,-6.2509289,-176.29915
3618000000,-6.2747574,-176.51564
3619000000,-6.2516561,-176.46669
3620000000,-6.277122,-176.55946
3621000000,-6.2719088,-176.84819
3622000000,-6.2842727,-176.68895
3623000000,-6.2756371,-176.85632
3624000000,-6.2770195,-176.60344
3625000000,-6.2812371,-176.69606
3626000000,-6.273272,-176.84828
3627000000,-6.2855859,-176.82217
3628000000,-6.2484884,-176.7513
3629000000,-6.2737269,-176.94148
3630000000,-6.3118286,-177.01003
3631000000,-6.264142,-177.02373
3632000000,-6.2966418,-177.04625
3633000000,-6.2858686,-177.03427
3634000000,-6.3020592,-177.20451
3635000000,-6.2978916,-177.08318
3636000000,-6.2945452,-177.24539
3637000000,-6.3067694,-177.24142
3638000000,-6.3285465,-177.17543
3639000000,-6.3051839,-177.42386
3640000000,-6.3172669,-177.36882
3641000000,-6.3123717,-177.37715
3642000000,-6.3590751,-177.18959
3643000000,-6.3196502,-177.60251
3644000000,-6.3300257,-177.36507
3645000000,-6.3387609,-177.58702
3646000000,-6.340086,-177.54301
3647000000,-6.3382168,-177.6095
3648000000,-6.3322597,-177.6546
3649000000,-6.3373141,-177.71317
3650000000,-6.295465,-177.6642
3651000000,-6.3890548,-177.78311
3652000000,-6.3325138,-177.72739
3653000000,-6.3112392,-177.90857
3654000000,-6.3472857,-177.64091
3655000000,-6.3589354,-177.87799
3656000000,-6.3635774,-177.80789
3657000000,-6.3282347,-178.00467
3658000000,-6.3465562,-177.91508
3659000000,-6.35782,-177.98837
3660000000,-6.3543019,-177.98114
3661000000,-6.3795276,-178.0618
3662000000,-6.3935318,-177.93382
3663000000,-6.3677535,-178.08344
3664000000,-6.367012,-178.1118
3665000000,-6.3669105,-178.06854
3666000000,-6.3769917,-178.25688
3667000000,-6.4098058,-178.36276
3668000000,-6.3778558,-178.31552
3669000000,-6.3932915,-178.33986
3670000000,-6.3820128,-178.30573
3671000000,-6.367733,-178.36617
3672000000,-6.4086866,-178.36174
3673000000,-6.4287071,-178.42093
3674000000,-6.3975558,-178.42842
3675000000,-6.4098063,-178.6651
3676000000,-6.3777342,-178.57663
3677000000,-6.4023962,-178.65709
3678000000,-6.4184465,-178.59427
3679000000,-6.3950429,-178.77028
3680000000,-6.4453163,-178.62535
3681000000,-6.4237785,-178.82184
3682000000,-6.388679,-178.87163
3683000000,-6.4092574,-178.79997
3684000000,-6.4418149,-178.82214
3685000000,-6.4521327,-178.87695
3686000000,-6.43788,-179.04558
3687000000,-6.4405727,-179.11143
3688000000,-6.4273448,-178.98746
3689000000,-6.4308453,-179.23271
3690000000,-6.4466071,-179.20808
3691000000,-6.4570093,-179.21852
3692000000,-6.4475598,-179.18997
3693000000,-6.4335747,-179.24265
3694000000,-6.4492455,-179.41473
3695000000,-6.4460354,-179.57254
3696000000,-6.4296741,-179.51933
3697000000,-6.445787,-179.42909
3698000000,-6.4701228,-179.37422
3699000000,-6.4551039,-179.49583
3700000000,-6.4585862,-179.55914
3701000000,-6.4870811,-179.61563
3702000000,-6.4838481,-179.79964
3703000000,-6.4694929,-179.6817
3704000000,-6.4996147,-179.71007
3705000000,-6.4674377,-179.74132
3706000000,-6.4695773,-179.51553
3707000000,-6.4843559,-179.76765
3708000000,-6.4665222,-179.81691
3709000000,-6.4480572,-179.95763
3710000000,-6.4875846,-179.82599
3711000000,-6.4724641,-179.98706
3712000000,-6.5006933,-179.95734
3713000000,-6.4773555,-180.04164
3714000000,-6.5310068,-180.07968
3715000000,-6.4699082,-180.08757
3716000000,-6.5135803,-180.0329
3717000000,-6.4870238,-180.24464
3718000000,-6.4990168,-180.22217
3719000000,-6.4875135,-180.29973
3720000000,-6.5000844,-180.30737
3721000000,-6.5099101,-180.23178
3722000000,-6.5070758,-180.28981
3723000000,-6.5205097,-180.29552
3724000000,-6.5220137,-180.44763
3725000000,-6.5111051,-180.26355
3726000000,-6.5205302,-180.46191
3727000000,-6.5614352,-180.61865
3728000000,-6.509726,-180.6871
3729000000,-6.5166903,-180.62326
3730000000,-6.5205951,-180.53284
3731000000,-6.5309453,-180.64897
3732000000,-6.530499,-180.739
3733000000,-6.5143719,-180.71062
3734000000,-6.574369,-180.60089
3735000000,-6.5760946,-180.68248
3736000000,-6.5539908,-180.97383
3737000000,-6.5387244,-180.81816
3738000000,-6.5526953,-180.84451
3739000000,-6.5396891,-180.8208
3740000000,-6.5650654,-180.80255
3741000000,-6.5424342,-180.96846
3742000000,-6.574945,-180.94275
3743000000,-6.5407634,-181.07446
3744000000,-6.5788984,-181.02191
3745000000,-6.5583954,-181.12413
3746000000,-6.5690365,-181.17937
3747000000,-6.5711265,-181.15645
3748000000,-6.5628424,-181.34148
3749000000,-6.5889049,-181.30835
3750000000,-6.5724311,-181.39871
3751000000,-6.5791678,-181.29427
3752000000,-6.5705185,-181.38033
3753000000,-6.557796,-181.26064
3754000000,-6.5966625,-181.28947
3755000000,-6.5942502,-181.44455
3756000000,-6.5986056,-181.55339
3757000000,-6.5859332,-181.35721
3758000000,-6.6121082,-181.57315
3759000000,-6.5835814,-181.66162
3760000000,-6.6307154,-181.86243
3761000000,-6.6234651,-181.59608
3762000000,-6.6244054,-181.74054
3763000000,-6.5969677,-181.69383
3764000000,-6.6146631,-181.9429
3765000000,-6.5836315,-181.79553
3766000000,-6.6036296,-181.89517
3767000000,-6.5858774,-181.76534
3768000000,-6.6073747,-182.09377
3769000000,-6.6053634,-182.07707
3770000000,-6.6175299,-182.01118
3771000000,-6.6196613,-182.01065
3772000000,-6.6096559,-182.09706
3773000000,-6.6376967,-182.25633
3774000000,-6.6265588,-182.11353
3775000000,-6.6645074,-182.33034
3776000000,-6.6562319,-182.29285
3777000000,-6.6074204,-182.2095
3778000000,-6.6485372,-182.38107
3779000000,-6.6588345,-182.25233
3780000000,-6.6617818,-182.44562
3781000000,-6.664464,-182.414
3782000000,-6.6279049,-182.30975
3783000000,-6.6697407,-182.35669
3784000000,-6.6515293,-182.40024
3785000000,-6.6555543,-182.65207
3786000000,-6.651587,-182.67813
3787000000,-6.6526203,-182.42714
3788000000,-6.6636581,-182.68651
3789000000,-6.6561775,-182.76956
3790000000,-6.6650748,-182.74535
3791000000,-6.6617699,-182.50691
3792000000,-6.667151,-182.76042
3793000000,-6.6942549,-182.61798
3794000000,-6.6953716,-182.72342
3795000000,-6.6826673,-182.9039
3796000000,-6.7020097,-182.93867
3797000000,-6.6739159,-182.80933
3798000000,-6.6954985,-182.93076
3799000000,-6.6774893,-182.83383
3800000000,-6.6827569,-183.048
3801000000,-6.6650314,-183.1626
3802000000,-6.6941242,-183.01015
3803000000,-6.6932344,-183.18733
3804000000,-6.6938057,-183.1142
3805000000,-6.6961637,-183.20732
3806000000,-6.6944256,-183.0938
3807000000,-6.7081165,-183.31465
3808000000,-6.7246237,-183.32129
3809000000,-6.7066946,-183.3465
3810000000,-6.7006016,-183.61737
3811000000,-6.7042408,-183.24005
3812000000,-6.7162714,-183.54607
3813000000,-6.7200856,-183.38779
3814000000,-6.7222314,-183.63376
3815000000,-6.7163444,-183.3517
3816000000,-6.7238288,-183.58966
3817000000,-6.7264919,-183.71089
3818000000,-6.7333341,-183.69359
3819000000,-6.7333355,-183.57649
3820000000,-6.7327929,-183.78334
3821000000,-6.7380033,-183.70665
3822000000,-6.7270494,-183.67068
3823000000,-6.7663493,-183.73259
3824000000,-6.7522788,-184.0311
3825000000,-6.7329044,-183.98811
3826000000,-6.7331986,-183.97032
3827000000,-6.7383742,-184.00935
3828000000,-6.7505426,-183.95531
3829000000,-6.7476788,-183.99365
3830000000,-6.753233,-184.07211
3831000000,-6.7719975,-184.22641
3832000000,-6.7344012,-184.11392
3833000000,-6.7522407,-184.1274
3834000000,-6.751308,-184.14908
3835000000,-6.7668982,-184.1931
3836000000,-6.759336,-184.24753
3837000000,-6.7616014,-184.21799
3838000000,-6.7697663,-184.29613
3839000000,-6.7839417,-184.31601
3840000000,-6.7750072,-184.31207
3841000000,-6.786777,-184.35161
3842000000,-6.7636914,-184.558
3843000000,-6.7710075,-184.57732
3844000000,-6.7819486,-184.43669
3845000000,-6.7926397,-184.6046
3846000000,-6.7673125,-184.46468
3847000000,-6.7891822,-184.60406
3848000000,-6.7835994,-184.57426
3849000000,-6.7918816,-184.91537
3850000000,-6.7895865,-184.61713
3851000000,-6.8078799,-184.68002
3852000000,-6.7751107,-184.73907
3853000000,-6.8185768,-184.98721
3854000000,-6.8250127,-184.78496
3855000000,-6.7935958,-184.66632
3856000000,-6.8173733,-184.78348
3857000000,-6.809957,-184.78969
3858000000,-6.8282351,-184.92346
3859000000,-6.8237219,-185.04395
3860000000,-6.8274288,-185.01436
3861000000,-6.8089991,-184.95816
3862000000,-6.8239422,-185.07635
3863000000,-6.8053837,-185.24084
3864000000,-6.8271484,-185.22557
3865000000,-6.828999,-185.21034
3866000000,-6.822546,-185.13197
3867000000,-6.8278799,-185.18646
3868000000,-6.8537626,-185.22656
3869000000,-6.8286905,-185.41655
3870000000,-6.8351998,-185.2925
3871000000,-6.852037,-185.34227
3872000000,-6.8389349,-185.27147
3873000000,-6.858624,-185.34888
3874000000,-6.8333945,-185.41115
3875000000,-6.8620286,-185.48883
3876000000,-6.8305101,-185.64455
3877000000,-6.8310299,-185.71461
3878000000,-6.8624043,-185.65457
3879000000,-6.8497705,-185.60826
3880000000,-6.8583055,-185.77911
3881000000,-6.8606272,-185.81862
3882000000,-6.8422399,-185.72272
3883000000,-6.8394632,-185.73286
3884000000,-6.861721,-185.66609
3885000000,-6.8485851,-185.79637
3886000000,-6.8796391,-185.93599
3887000000,-6.877708,-185.76576
3888000000,-6.8513031,-185.87999
3889000000,-6.8758702,-186.03026
3890000000,-6.8662829,-185.88448
3891000000,-6.8721051,-185.98663
3892000000,-6.874958,-186.12737
3893000000,-6.8699574,-186.17636
3894000000,-6.8388577,-186.09496
3895000000,-6.8975029,-186.11754
3896000000,-6.889379,-186.26976
3897000000,-6.8760171,-186.28938
3898000000,-6.8852615,-186.22314
3899000000,-6.8906288,-186.22868
3900000000,-6.9112263,-186.3351
3901000000,-6.9094596,-186.31152
3902000000,-6.8986263,-186.42075
3903000000,-6.9005971,-186.42113
3904000000,-6.9009557,-186.41069
3905000000,-6.8945861,-186.64743
3906000000,-6.9048676,-186.45297
3907000000,-6.9221649,-186.42302
3908000000,-6.9103651,-186.48738
3909000000,-6.9160933,-186.61813
3910000000,-6.9104586,-186.60075
3911000000,-6.9022689,-186.66229
3912000000,-6.9007697,-186.68991
3913000000,-6.9068818,-186.82065
3914000000,-6.9218612,-186.65465
3915000000,-6.9185786,-186.86177
3916000000,-6.9259377,-186.9361
3917000000,-6.8879371,-186.87894
3918000000,-6.9330425,-186.61545
3919000000,-6.9287524,-186.78883
3920000000,-6.9586997,-187.10214
3921000000,-6.9065843,-187.03036
3922000000,-6.9294314,-186.97449
3923000000,-6.9493971,-187.07542
3924000000,-6.9479337,-186.92128
3925000000,-6.9562616,-187.00441
3926000000,-6.9322982,-187.22127
3927000000,-6.9326215,-187.1243
3928000000,-6.9165387,-187.075
3929000000,-6.9508553,-187.15298
3930000000,-6.9568977,-187.11522
3931000000,-6.9412866,-187.20634
3932000000,-6.9186683,-187.35968
3933000000,-6.9391742,-187.27791
3934000000,-6.9448919,-187.29922
3935000000,-6.9402227,-187.32204
3936000000,-6.9393735,-187.39645
3937000000,-6.9703422,-187.54675
3938000000,-6.940639,-187.46278
3939000000,-7.0000525,-187.4675
3940000000,-6.9835343,-187.73941
3941000000,-6.9686284,-187.54947
3942000000,-6.965251,-187.47014
3943000000,-6.9717107,-187.51044
3944000000,-6.9745026,-187.62088
3945000000,-6.9580846,-187.85741
3946000000,-6.9685135,-187.75151
3947000000,-6.9702168,-187.72145
3948000000,-6.9842796,-187.81923
3949000000,-6.97401,-187.92395
3950000000,-6.9867287,-187.73453
3951000000,-6.9833803,-187.99004
3952000000,-6.9876947,-187.62465
3953000000,-6.96627,-187.92632
3954000000,-6.9799705,-188.07878
3955000000,-6.9807858,-187.86734
3956000000,-6.9666252,-187.89258
3957000000,-6.9838152,-188.14783
3958000000,-6.9983149,-188.1964
3959000000,-6.9612403,-188.31837
3960000000,-6.9933634,-188.26784
3961000000,-7.0225849,-188.24226
3962000000,-6.99299,-188.12268
3963000000,-7.0234084,-188.2758
3964000000,-6.9998441,-188.18724
3965000000,-6.9929404,-188.40201
3966000000,-6.9813447,-188.31192
3967000000,-7.0000696,-188.23825
3968000000,-7.016717,-188.35788
3969000000,-7.0099983,-188.15308
3970000000,-7.0343723,-188.50133
3971000000,-7.0220518,-188.57831
3972000000,-7.0253272,-188.51399
3973000000,-7.0174265,-188.58743
3974000000,-7.0210428,-188.53406
3975000000,-7.008399,-188.61867
3976000000,-7.0171075,-188.44803
3977000000,-6.9908957,-188.72318
3978000000,-7.0232434,-188.46826
3979000000,-7.021071,-188.6544
3980000000,-7.047205,-188.76212
3981000000,-7.0489197,-188.95323
3982000000,-7.0334249,-188.73744
3983000000,-7.0326185,-188.74908
3984000000,-7.059021,-188.70943
3985000000,-7.0295024,-189.08736
3986000000,-7.0378704,-188.82541
3987000000,-7.0388389,-188.94394
3988000000,-7.0556908,-188.81691
3989000000,-7.0287576,-188.97774
3990000000,-7.0233736,-189.24454
3991000000,-7.0731688,-188.90927
3992000000,-7.0404787,-189.08746
3993000000,-7.0840831,-189.28821
3994000000,-7.0611472,-188.98399
3995000000,-7.0749073,-189.13326
3996000000,-7.0387044,-189.30923
3997000000,-7.0361066,-189.34665
3998000000,-7.06637,-189.31482
3999000000,-7.0526915,-189.40324
4000000000,-7.0501361,-189.47968
4001000000,-7.0565429,-189.26367
4002000000,-7.0397496,-189.55251
4003000000,-7.0719318,-189.30289
4004000000,-7.0614114,-189.28395
4005000000,-7.0773377,-189.23041
4006000000,-7.0687513,-189.61111
4007000000,-7.1006846,-189.53618
4008000000,-7.0761452,-189.40492
4009000000,-7.0668783,-189.44208
4010000000,-7.0755892,-189.61282
4011000000,-7.0777049,-189.59737
4012000000,-7.0809565,-189.56848
4013000000,-7.0786805,-189.57594
4014000000,-7.1091199,-189.57697
4015000000,-7.0941691,-189.73648
4016000000,-7.0689669,-189.78873
4017000000,-7.0974669,-189.75052
4018000000,-7.0885129,-189.74963
4019000000,-7.0980406,-189.75638
4020000000,-7.0954185,-189.74684
4021000000,-7.0804067,-189.94286
4022000000,-7.07868,-189.87518
4023000000,-7.0964036,-189.97231
4024000000,-7.0703936,-189.82187
4025000000,-7.1106968,-189.85301
4026000000,-7.0898156,-190.03061
4027000000,-7.0993814,-190.13071
4028000000,-7.1325254,-190.01453
4029000000,-7.1074624,-190.07982
4030000000,-7.0757799,-190.27216
4031000000,-7.1345348,-190.3573
4032000000,-7.1009374,-190.18242
4033000000,-7.1261353,-190.31342
4034000000,-7.1001825,-190.16589
4035000000,-7.1200175,-190.14661
4036000000,-7.1263981,-190.38205
4037000000,-7.1106029,-190.18385
4038000000,-7.1030717,-190.44987
4039000000,-7.1028981,-190.52654
4040000000,-7.147203,-190.53616
4041000000,-7.1480856,-190.52826
4042000000,-7.1338663,-190.58493
4043000000,-7.1385694,-190.43828
4044000000,-7.1534662,-190.62189
4045000000,-7.1123514,-190.70093
4046000000,-7.15027,-190.54733
4047000000,-7.1216245,-190.57538
4048000000,-7.1162238,-190.61707
4049000000,-7.1195326,-190.49611
4050000000,-7.1356635,-190.59854
4051000000,-7.1590438,-190.82123
4052000000,-7.156146,-191.00665
4053000000,-7.1210465,-190.72578
4054000000,-7.1467128,-190.95952
4055000000,-7.1508012,-190.92252
4056000000,-7.1458898,-190.80096
4057000000,-7.1444759,-190.82715
4058000000,-7.1744027,-191.01721
4059000000,-7.1501069,-190.97586
4060000000,-7.1605411,-191.08762
4061000000,-7.1845427,-191.04057
4062000000,-7.1527171,-191.03902
4063000000,-7.151958,-190.98708
4064000000,-7.1456709,-191.10315
4065000000,-7.1748052,-190.99667
4066000000,-7.1708555,-191.2421
4067000000,-7.1245756,-191.13058
4068000000,-7.1488657,-191.0863
4069000000,-7.1790295,-191.45113
4070000000,-7.1545348,-191.13356
4071000000,-7.1820064,-191.22441
4072000000,-7.1770391,-191.19257
4073000000,-7.1862416,-191.28395
4074000000,-7.1829143,-191.40512
4075000000,-7.1374755,-191.38268
4076000000,-7.1978059,-191.47444
4077000000,-7.1736627,-191.48668
4078000000,-7.190475,-191.45418
4079000000,-7.1762033,-191.436
4080000000,-7.1639194,-191.45645
4081000000,-7.17943,-191.34218
4082000000,-7.2162466,-191.58716
4083000000,-7.1931429,-191.53941
4084000000,-7.1799903,-191.54698
4085000000,-7.1685896,-191.62086
4086000000,-7.1725163,-191.70328
4087000000,-7.2200112,-191.70412
4088000000,-7.2090588,-191.85612
4089000000,-7.2093825,-191.67256
4090000000,-7.1788387,-191.76802
4091000000,-7.183219,-191.7683
4092000000,-7.178987,-191.89555
4093000000,-7.1960373,-191.89206
4094000000,-7.2237988,-191.79866
4095000000,-7.2168059,-192.01894
4096000000,-7.2076507,-192.06612
4097000000,-7.2371712,-191.93079
4098000000,-7.2113376,-192.00211
4099000000,-7.2318244,-192.24081
4100000000,-7.2112837,-192.08345
4101000000,-7.2052298,-192.00041
4102000000,-7.2357883,-192.11314
4103000000,-7.2340221,-192.01662
4104000000,-7.1891074,-192.04062
4105000000,-7.2262421,-192.26367
4106000000,-7.2065158,-192.21709
4107000000,-7.2103901,-192.1707
4108000000,-7.2209654,-192.16452
4109000000,-7.1818328,-192.25912
4110000000,-7.2030034,-192.15445
4111000000,-7.2097569,-192.22173
4112000000,-7.2004371,-192.12134
4113000000,-7.234921,-192.33376
4114000000,-7.1979651,-192.43648
4115000000,-7.1971421,-192.39063
4116000000,-7.2236991,-192.29608
4117000000,-7.197413,-192.429
4118000000,-7.2376051,-192.37946
4119000000,-7.2153893,-192.47554
4120000000,-7.2145176,-192.54616
4121000000,-7.1994066,-192.52469
4122000000,-7.1963696,-192.61682
4123000000,-7.2518892,-192.62987
4124000000,-7.1929402,-192.4261
4125000000,-7.2274599,-192.57858
4126000000,-7.2285566,-192.67528
4127000000,-7.2318535,-192.72386
4128000000,-7.2479072,-192.77267
4129000000,-7.2174845,-192.67261
4130000000,-7.2143426,-192.86887
4131000000,-7.2293096,-192.8439
4132000000,-7.2301245,-192.89362
4133000000,-7.2490048,-193.04434
4134000000,-7.2174969,-192.96643
4135000000,-7.2405734,-192.79779
4136000000,-7.2446976,-193.11238
4137000000,-7.239542,-193.09579
4138000000,-7.234942,-193.04214
4139000000,-7.2451177,-193.04977
4140000000,-7.2910795,-193.12158
4141000000,-7.2462296,-193.08904
4142000000,-7.2374187,-193.00879
4143000000,-7.2586074,-193.21642
4144000000,-7.2448139,-193.28758
4145000000,-7.2206669,-193.29707
4146000000,-7.2418675,-193.34273
4147000000,-7.2230182,-193.22707
4148000000,-7.2395473,-193.31723
4149000000,-7.2441549,-193.27075
4150000000,-7.2507825,-193.28044
4151000000,-7.2586746,-193.39029
4152000000,-7.2498312,-193.31084
4153000000,-7.2850051,-193.25607
4154000000,-7.2572083,-193.52454
4155000000,-7.2535257,-193.3791
4156000000,-7.2347436,-193.39444
4157000000,-7.2656822,-193.49577
4158000000,-7.2479649,-193.56059
4159000000,-7.2665744,-193.61217
4160000000,-7.2571507,-193.5303
4161000000,-7.2637362,-193.74039
4162000000,-7.2602253,-193.47556
4163000000,-7.2382522,-193.64218
4164000000,-7.2454619,-193.63431
4165000000,-7.2453885,-193.55994
4166000000,-7.2560363,-193.8371
4167000000,-7.2524362,-193.8351
4168000000,-7.2687755,-193.80113
4169000000,-7.2632952,-193.832
4170000000,-7.2560191,-193.83128
4171000000,-7.259902,-193.7962
4172000000,-7.2333722,-194.03267
4173000000,-7.2417297,-193.87025
4174000000,-7.2525387,-193.84419
4175000000,-7.2649555,-193.75977
4176000000,-7.2710342,-194.21623
4177000000,-7.2365894,-194.06607
4178000000,-7.267746,-193.8707
4179000000,-7.2215781,-194.05261
4180000000,-7.2511926,-194.10435
4181000000,-7.2574425,-194.12456
4182000000,-7.2426019,-194.06917
4183000000,-7.2652993,-193.95026
4184000000,-7.2634139,-194.18663
4185000000,-7.2463026,-194.05598
4186000000,-7.2852616,-194.03061
4187000000,-7.2914338,-194.31619
4188000000,-7.2538805,-194.23219
4189000000,-7.262989,-194.33258
4190000000,-7.2759428,-194.36163
4191000000,-7.2615042,-194.33818
4192000000,-7.2653131,-194.32156
4193000000,-7.2643876,-194.32191
4194000000,-7.2594986,-194.35152
4195000000,-7.2732677,-194.39955
4196000000,-7.2545204,-194.44106
4197000000,-7.2594938,-194.30339
4198000000,-7.2926531,-194.55901
4199000000,-7.268981,-194.6129
4200000000,-7.2670641,-194.54662
4201000000,-7.2802835,-194.67355
4202000000,-7.2659016,-194.51907
4203000000,-7.2653737,-194.4444
4204000000,-7.2778158,-194.78581
4205000000,-7.2858853,-194.70671
4206000000,-7.2997084,-194.72757
4207000000,-7.2815919,-194.74159
4208000000,-7.289897,-194.59874
4209000000,-7.2678814,-194.68068
4210000000,-7.2568903,-194.79616
4211000000,-7.2801237,-194.75699
4212000000,-7.2681508,-194.89606
4213000000,-7.2892222,-194.7285
4214000000,-7.2443833,-194.91292
4215000000,-7.2620726,-195.05264
4216000000,-7.2799335,-194.83957
4217000000,-7.2698684,-195.02942
4218000000,-7.2551894,-194.89139
4219000000,-7.2668281,-195.00774
4220000000,-7.2824564,-195.03101
4221000000,-7.2627659,-195.08052
4222000000,-7.2619576,-195.04738
4223000000,-7.238245,-195.23431
4224000000,-7.2741051,-195.14586
4225000000,-7.2430735,-195.28712
4226000000,-7.2673688,-195.17172
4227000000,-7.2536654,-195.23083
4228000000,-7.2792215,-195.383
4229000000,-7.2829967,-195.3232
4230000000,-7.2870317,-195.14577
4231000000,-7.2954731,-195.26694
4232000000,-7.2590094,-195.33446
4233000000,-7.2744942,-195.55772
4234000000,-7.2711744,-195.43544
4235000000,-7.2831945,-195.51003
4236000000,-7.2745223,-195.26561
4237000000,-7.3061371,-195.47005
4238000000,-7.2826128,-195.42358
4239000000,-7.2770391,-195.36479
4240000000,-7.2655315,-195.54372
4241000000,-7.2633696,-195.60962
4242000000,-7.2779918,-195.64615
4243000000,-7.2930775,-195.73772
4244000000,-7.2952108,-195.5397
4245000000,-7.2881622,-195.63049
4246000000,-7.2709746,-195.689
4247000000,-7.2845521,-195.83736
4248000000,-7.2876897,-195.78931
4249000000,-7.2535968,-195.66138
4250000000,-7.2945819,-195.75188
4251000000,-7.249579,-195.90341
4252000000,-7.2911329,-195.94116
4253000000,-7.3036251,-195.96576
4254000000,-7.2592878,-195.80696
4255000000,-7.2488856,-195.79584
4256000000,-7.2776423,-195.94965
4257000000,-7.272615,-195.90382
4258000000,-7.2695088,-195.83028
4259000000,-7.2646971,-195.96866
4260000000,-7.2671509,-196.15199
4261000000,-7.2653317,-195.89294
4262000000,-7.2738132,-196.04749
4263000000,-7.2859378,-196.06622
4264000000,-7.2820845,-196.10747
4265000000,-7.2846041,-196.13564
4266000000,-7.2732191,-196.11884
4267000000,-7.2565689,-196.16057
4268000000,-7.2699556,-196.22391
4269000000,-7.2771797,-196.19402
4270000000,-7.2664042,-196.29388
4271000000,-7.2765002,-196.30217
4272000000,-7.2654877,-196.40173
4273000000,-7.2603245,-196.4521
4274000000,-7.301527,-196.14499
4275000000,-7.2597013,-196.42766
4276000000,-7.2827802,-196.40735
4277000000,-7.2389436,-196.38109
4278000000,-7.2680159,-196.44499
4279000000,-7.2331371,-196.45634
4280000000,-7.2510691,-196.62991
4281000000,-7.2710404,-196.32884
4282000000,-7.2884102,-196.54198
4283000000,-7.2706819,-196.61467
4284000000,-7.279006,-196.65894
4285000000,-7.2676525,-196.71382
4286000000,-7.2757449,-196.67845
4287000000,-7.2999649,-196.49309
4288000000,-7.2863474,-196.67764
4289000000,-7.2987218,-196.83266
4290000000,-7.2859998,-196.65884
4291000000,-7.261148,-196.78516
4292000000,-7.261682,-196.73935
4293000000,-7.2856078,-197.06754
4294000000,-7.2871032,-196.66753
4295000000,-7.2560759,-196.94894
4296000000,-7.2685013,-197.02115
4297000000,-7.2749491,-196.95831
4298000000,-7.2815094,-196.99165
4299000000,-7.2888188,-196.95386
4300000000,-7.259798,-196.90964
4301000000,-7.2875123,-197.06311
4302000000,-7.2736454,-197.06958
4303000000,-7.2589836,-197.04341
4304000000,-7.2914982,-197.04741
4305000000,-7.2691417,-197.20909
4306000000,-7.2703419,-197.10294
4307000000,-7.2503505,-197.04913
4308000000,-7.259347,-197.15649
4309000000,-7.2344236,-197.17448
4310000000,-7.2839165,-197.24126
4311000000,-7.2826915,-197.14717
4312000000,-7.258049,-197.07599
4313000000,-7.278348,-197.25885
4314000000,-7.2828641,-197.35307
4315000000,-7.2730598,-197.46445
4316000000,-7.2545395,-197.2827
4317000000,-7.2755737,-197.50224
4318000000,-7.2475886,-197.34856
4319000000,-7.258687,-197.38802
4320000000,-7.2495708,-197.15297
4321000000,-7.2776675,-197.55708
4322000000,-7.2583437,-197.69258
4323000000,-7.2420983,-197.48477
4324000000,-7.2358785,-197.51285
4325000000,-7.2507224,-197.41684
4326000000,-7.280725,-197.49397
4327000000,-7.2456384,-197.60249
4328000000,-7.283133,-197.51883
4329000000,-7.2580047,-197.57053
4330000000,-7.261127,-197.60065
4331000000,-7.2607479,-197.67336
4332000000,-7.2795815,-197.96249
4333000000,-7.2364502,-197.73415
4334000000,-7.2216902,-197.96696
4335000000,-7.2136312,-197.8049
4336000000,-7.2623963,-197.67854
4337000000,-7.246654,-197.97473
4338000000,-7.2544522,-198.02065
4339000000,-7.260211,-197.87851
4340000000,-7.2141652,-197.8634
4341000000,-7.2558532,-198.0062
4342000000,-7.2226911,-197.99525
4343000000,-7.2440882,-198.04974
4344000000,-7.2585006,-198.01291
4345000000,-7.2762418,-198.01997
4346000000,-7.2260551,-198.01418
4347000000,-7.2412224,-198.21175
4348000000,-7.2388873,-198.23528
4349000000,-7.2113328,-198.20149
4350000000,-7.250598,-198.06201
4351000000,-7.2415547,-198.13626
4352000000,-7.2415886,-198.27496
4353000000,-7.2331924,-198.08771
4354000000,-7.232511,-198.3044
4355000000,-7.2487855,-198.24837
4356000000,-7.231575,-198.56483
4357000000,-7.2298083,-198.44075
4358000000,-7.2544718,-198.34637
4359000000,-7.2391024,-198.43962
4360000000,-7.2231312,-198.27522
4361000000,-7.2039771,-198.58307
4362000000,-7.2259336,-198.34079
4363000000,-7.2147498,-198.34985
4364000000,-7.2333431,-198.50316
4365000000,-7.2213149,-198.38533
4366000000,-7.2055945,-198.59654
4367000000,-7.2041512,-198.57903
4368000000,-7.2174039,-198.54564
4369000000,-7.221209,-198.80081
4370000000,-7.2045183,-198.79524
4371000000,-7.2191744,-198.8196
4372000000,-7.2533407,-198.88525
4373000000,-7.2248878,-198.81433
4374000000,-7.2229857,-198.56564
4375000000,-7.2173438,-198.84061
4376000000,-7.2131009,-198.78854
4377000000,-7.2099133,-198.85826
4378000000,-7.1960411,-199.00397
4379000000,-7.2057662,-198.89517
4380000000,-7.1874046,-199.01291
4381000000,-7.2033987,-199.10481
4382000000,-7.1982059,-198.96271
4383000000,-7.1985111,-199.12236
4384000000,-7.209805,-199.03906
4385000000,-7.1915736,-199.06232
4386000000,-7.2185774,-198.98022
4387000000,-7.1956711,-199.17055
4388000000,-7.1992445,-199.09151
4389000000,-7.2001843,-199.20189
4390000000,-7.1815772,-199.2195
4391000000,-7.1778069,-199.26321
4392000000,-7.2006721,-199.1544
4393000000,-7.1794419,-199.18811
4394000000,-7.1937852,-199.29756
4395000000,-7.2059407,-199.1983
4396000000,-7.2021914,-199.29547
4397000000,-7.1711965,-199.36502
4398000000,-7.1853166,-199.30534
4399000000,-7.1774893,-199.30069
4400000000,-7.2058063,-199.42894
4401000000,-7.1760883,-199.47092
4402000000,-7.1635146,-199.41849
4403000000,-7.1758814,-199.5157
4404000000,-7.1791253,-199.38542
4405000000,-7.1890702,-199.42674
4406000000,-7.1758695,-199.67421
4407000000,-7.1646199,-199.6122
4408000000,-7.1652241,-199.82272
4409000000,-7.1540241,-199.66502
4410000000,-7.1775889,-199.6778
4411000000,-7.1773787,-199.71613
4412000000,-7.1989875,-199.89201
4413000000,-7.1628404,-199.90141
4414000000,-7.1406684,-199.97682
4415000000,-7.1633277,-199.74562
4416000000,-7.1805935,-199.59018
4417000000,-7.1718326,-199.88853
4418000000,-7.173111,-199.94081
4419000000,-7.1413155,-199.92464
4420000000,-7.1559052,-200.31448
4421000000,-7.1552696,-200.00838
4422000000,-7.1447225,-200.00714
4423000000,-7.1547284,-199.85229
4424000000,-7.1501884,-199.9604
4425000000,-7.1534181,-200.18901
4426000000,-7.1449466,-200.16055
4427000000,-7.1401281,-200.21896
4428000000,-7.1471367,-200.15044
4429000000,-7.1548495,-200.27184
4430000000,-7.1341925,-200.36397
4431000000,-7.1635289,-200.21713
4432000000,-7.1678829,-200.22841
4433000000,-7.1010385,-200.26051
4434000000,-7.131577,-200.30649
4435000000,-7.1341505,-200.20695
4436000000,-7.1398883,-200.29395
4437000000,-7.1256814,-200.45273
4438000000,-7.1156683,-200.4838
4439000000,-7.1349769,-200.43896
4440000000,-7.1139641,-200.45454
4441000000,-7.1223807,-200.59363
4442000000,-7.1514797,-200.49838
4443000000,-7.1443348,-200.64235
4444000000,-7.104197,-200.52084
4445000000,-7.0960517,-200.65448
4446000000,-7.1348834,-200.67152
4447000000,-7.1150112,-200.66109
4448000000,-7.1312556,-200.67891
4449000000,-7.1101036,-200.74944
4450000000,-7.1084876,-200.9147
4451000000,-7.0929976,-200.76414
4452000000,-7.1213851,-200.75261
4453000000,-7.0987549,-200.95389
4454000000,-7.1128545,-200.81725
4455000000,-7.1041117,-200.88763
4456000000,-7.0919299,-200.86957
4457000000,-7.0907674,-200.87442
4458000000,-7.1141648,-200.95587
4459000000,-7.1075411,-201.04382
4460000000,-7.0821633,-200.8829
4461000000,-7.0836058,-200.89304
4462000000,-7.1032958,-201.1489
4463000000,-7.0737748,-201.20261
4464000000,-7.0838165,-201.10243
4465000000,-7.0865512,-201.05363
4466000000,-7.0850348,-201.25404
4467000000,-7.1048641,-201.26811
4468000000,-7.096137,-201.27962
4469000000,-7.0666771,-201.18774
4470000000,-7.1030488,-201.28061
4471000000,-7.0943499,-201.33057
4472000000,-7.072361,-201.50844
4473000000,-7.0647092,-201.48929
4474000000,-7.0510983,-201.49922
4475000000,-7.0678835,-201.45415
4476000000,-7.0701814,-201.46207
4477000000,-7.0660591,-201.53531
4478000000,-7.0742865,-201.53435
4479000000,-7.0804515,-201.45193
4480000000,-7.0569477,-201.60773
4481000000,-7.053463,-201.58739
4482000000,-7.0638514,-201.60887
4483000000,-7.0625544,-201.43542
4484000000,-7.0526347,-201.55363
4485000000,-7.0876694,-201.68729
4486000000,-7.034862,-201.8365
4487000000,-7.0425344,-201.59933
4488000000,-7.0688128,-201.93492
4489000000,-7.0293102,-201.85716
4490000000,-7.0274034,-201.81454
4491000000,-7.0340862,-201.82974
4492000000,-7.0042281,-202.0051
4493000000,-7.0368514,-202.23517
4494000000,-7.0427585,-202.02881
4495000000,-7.0308452,-201.8808
4496000000,-7.0269732,-202.12164
4497000000,-7.0127907,-202.13503
4498000000,-7.0098505,-202.06514
4499000000,-7.0537543,-202.10652
4500000000,-7.0480604,-202.15559
4501000000,-7.0296841,-202.25688
4502000000,-7.0163541,-202.07007
4503000000,-7.0275145,-202.15874
4504000000,-7.0286117,-202.40337
4505000000,-7.0219522,-202.14972
4506000000,-7.003057,-202.42902
4507000000,-7.0540061,-202.36282
4508000000,-7.0263228,-202.38098
4509000000,-6.9927025,-202.54025
4510000000,-6.9851441,-202.33827
4511000000,-6.9945984,-202.49596
4512000000,-7.0019112,-202.63036
4513000000,-7.0106077,-202.621
4514000000,-6.9831181,-202.77124
4515000000,-7.0009089,-202.63425
4516000000,-6.9869137,-202.83684
4517000000,-6.9753189,-202.65985
4518000000,-6.9805369,-202.75955
4519000000,-6.9835458,-202.78987
4520000000,-6.9967752,-202.68799
4521000000,-7.0056272,-202.77359
4522000000,-6.968524,-202.69942
4523000000,-6.9635129,-202.81493
4524000000,-6.9827876,-202.94627
4525000000,-6.9964995,-202.78816
4526000000,-7.0052266,-202.90012
4527000000,-6.98838,-202.97002
4528000000,-6.9863267,-202.96667
4529000000,-6.9606748,-202.9319
4530000000,-6.9508572,-203.05573
4531000000,-7.0047131,-202.98712
4532000000,-6.9857807,-202.9631
4533000000,-6.9509315,-203.09668
4534000000,-6.9647403,-203.25175
4535000000,-6.9583549,-203.3055
4536000000,-6.9653239,-203.35353
4537000000,-6.9866157,-203.34384
4538000000,-6.9538035,-203.37894
4539000000,-6.969501,-203.22256
4540000000,-6.9483657,-203.45366
4541000000,-6.9397559,-203.37891
4542000000,-6.9550519,-203.32513
4543000000,-6.9237661,-203.42166
4544000000,-6.9403892,-203.56966
4545000000,-6.9170809,-203.42354
4546000000,-6.9335351,-203.74739
4547000000,-6.9094777,-203.62985
4548000000,-6.9144459,-203.54124
4549000000,-6.9357018,-203.65179
4550000000,-6.8931222,-203.62712
4551000000,-6.9181781,-203.72932
4552000000,-6.9218111,-203.73866
4553000000,-6.9142461,-203.82387
4554000000,-6.9177155,-203.92503
4555000000,-6.9088902,-203.80969
4556000000,-6.8972163,-203.81908
4557000000,-6.9057508,-203.76717
4558000000,-6.8951387,-203.79105
4559000000,-6.9051347,-203.99965
4560000000,-6.8915486,-203.91415
4561000000,-6.8926563,-204.02505
4562000000,-6.9119954,-204.02617
4563000000,-6.9202757,-204.02386
4564000000,-6.8978519,-203.9706
4565000000,-6.8932581,-204.00668
4566000000,-6.9043641,-204.20018
4567000000,-6.8714027,-204.15536
4568000000,-6.87006,-204.33894
4569000000,-6.8954673,-204.2597
4570000000,-6.8810143,-204.22656
4571000000,-6.8763566,-204.25546
4572000000,-6.8762646,-204.17311
4573000000,-6.8882203,-204.45148
4574000000,-6.8596282,-204.34062
4575000000,-6.9124289,-204.43886
4576000000,-6.8623681,-204.37625
4577000000,-6.8322153,-204.3699
4578000000,-6.8542871,-204.41693
4579000000,-6.8585548,-204.62158
4580000000,-6.8696771,-204.69385
4581000000,-6.8576593,-204.5665
4582000000,-6.858521,-204.81354
4583000000,-6.8528452,-204.7932
4584000000,-6.8297687,-204.74164
4585000000,-6.8695092,-204.68314
4586000000,-6.8564124,-204.96735
4587000000,-6.8539786,-204.81303
4588000000,-6.8399239,-204.84647
4589000000,-6.8177881,-204.83234
4590000000,-6.8330979,-204.85063
4591000000,-6.8468957,-205.04144
4592000000,-6.8217463,-204.8862
4593000000,-6.8246517,-205.14441
4594000000,-6.8151546,-205.01782
4595000000,-6.8246217,-204.88145
4596000000,-6.8173356,-205.18623
4597000000,-6.8428516,-205.25883
4598000000,-6.7839265,-205.06047
4599000000,-6.8128567,-205.16675
4600000000,-6.8185101,-205.23026
4601000000,-6.8078461,-205.22357
4602000000,-6.8217812,-205.43222
4603000000,-6.8027129,-205.33203
4604000000,-6.832397,-205.40291
4605000000,-6.7848802,-205.36391
4606000000,-6.8094859,-205.55136
4607000000,-6.7816424,-205.30508
4608000000,-6.8046288,-205.50528
4609000000,-6.7861843,-205.49539
4610000000,-6.7865911,-205.66
4611000000,-6.7768054,-205.58313
4612000000,-6.7855697,-205.60133
4613000000,-6.7924881,-205.89284
4614000000,-6.7837863,-205.63179
4615000000,-6.7758956,-205.72012
4616000000,-6.7649636,-205.54277
4617000000,-6.7878389,-205.69272
4618000000,-6.77671,-205.77522
4619000000,-6.7374406,-205.86339
4620000000,-6.7753901,-206.00575
4621000000,-6.7639771,-205.9455
4622000000,-6.7733216,-206.15236
4623000000,-6.7673407,-205.81534
4624000000,-6.7684059,-206.10912
4625000000,-6.7655616,-206.04082
4626000000,-6.7711115,-206.06941
4627000000,-6.7616372,-206.1517
4628000000,-6.7551265,-206.14244
4629000000,-6.744669,-206.20158
4630000000,-6.7413807,-206.3756
4631000000,-6.7628045,-206.25493
4632000000,-6.7162037,-206.43631
4633000000,-6.7405162,-206.38474
4634000000,-6.7171073,-206.29268
4635000000,-6.7254586,-206.49741
4636000000,-6.7176347,-206.42021
4637000000,-6.715333,-206.46832
4638000000,-6.7486382,-206.61118
4639000000,-6.7138104,-206.52306
4640000000,-6.7103434,-206.6649
4641000000,-6.7028575,-206.55716
4642000000,-6.7017102,-206.67104
4643000000,-6.7152162,-206.84642
4644000000,-6.6925936,-206.81924
4645000000,-6.6946421,-206.68721
4646000000,-6.7156024,-206.78278
4647000000,-6.7279649,-206.78188
4648000000,-6.6631365,-206.97142
4649000000,-6.6859078,-206.73833
4650000000,-6.6889124,-207.05377
4651000000,-6.6854277,-206.89572
4652000000,-6.7088881,-207.12308
4653000000,-6.6974611,-207.16916
4654000000,-6.6860585,-206.96959
4655000000,-6.6650343,-207.18852
4656000000,-6.6819916,-207.38078
4657000000,-6.712039,-207.20886
4658000000,-6.6924081,-207.14986
4659000000,-6.6744905,-207.30779
4660000000,-6.6680717,-207.24649
4661000000,-6.6561999,-207.39081
4662000000,-6.6668196,-207.52927
4663000000,-6.6590447,-207.37004
4664000000,-6.6644835,-207.48808
4665000000,-6.6294236,-207.50917
4666000000,-6.6480751,-207.57718
4667000000,-6.6450567,-207.63057
4668000000,-6.656631,-207.51093
4669000000,-6.6616397,-207.59418
4670000000,-6.656662,-207.50487
4671000000,-6.6681991,-207.70161
4672000000,-6.6782455,-207.84354
4673000000,-6.6187243,-207.83354
4674000000,-6.6255322,-207.8653
4675000000,-6.6303887,-207.82132
4676000000,-6.6519442,-208.0484
4677000000,-6.6318278,-207.93401
4678000000,-6.6187367,-207.89951
4679000000,-6.6207428,-207.95305
4680000000,-6.6220279,-208.13564
4681000000,-6.6048617,-208.05453
4682000000,-6.6193237,-208.30038
4683000000,-6.6061373,-208.03899
4684000000,-6.5815439,-208.10674
4685000000,-6.591907,-208.2048
4686000000,-6.5925903,-208.41411
4687000000,-6.5963154,-208.21538
4688000000,-6.6217489,-208.23991
4689000000,-6.6054821,-208.33511
4690000000,-6.6074429,-208.41162
4691000000,-6.6403537,-208.43163
4692000000,-6.5915112,-208.60641
4693000000,-6.6058354,-208.57983
4694000000,-6.5940471,-208.54199
4695000000,-6.5857477,-208.42007
4696000000,-6.6057048,-208.76144
4697000000,-6.615128,-208.69629
4698000000,-6.5799189,-208.52058
4699000000,-6.5642052,-208.67108
4700000000,-6.6004529,-208.80527
4701000000,-6.5549746,-208.7762
4702000000,-6.5751877,-208.8018
4703000000,-6.5757532,-208.79796
4704000000,-6.5755625,-209.00183
4705000000,-6.5711679,-208.97049
4706000000,-6.5816045,-209.04399
4707000000,-6.5590358,-209.04672
4708000000,-6.5579791,-209.05174
4709000000,-6.5452676,-209.06467
4710000000,-6.5401306,-209.20378
4711000000,-6.5295086,-209.04277
4712000000,-6.5539932,-209.36501
4713000000,-6.5633488,-209.25632
4714000000,-6.5486403,-209.24142
4715000000,-6.5601139,-209.407
4716000000,-6.5248122,-209.34158
4717000000,-6.5220904,-209.34688
4718000000,-6.511621,-209.51915
4719000000,-6.521594,-209.46297
4720000000,-6.5493765,-209.56001
4721000000,-6.5149231,-209.53346
4722000000,-6.5419803,-209.53531
4723000000,-6.5088868,-209.73579
4724000000,-6.5124145,-209.53415
4725000000,-6.4800205,-209.81544
4726000000,-6.5143824,-209.72884
4727000000,-6.5257735,-209.87955
4728000000,-6.5131288,-209.80687
4729000000,-6.4874029,-209.84283
4730000000,-6.4999366,-209.97194
4731000000,-6.4941921,-210.10704
4732000000,-6.5000467,-209.92444
4733000000,-6.5040178,-209.98827
4734000000,-6.472147,-210.06804
4735000000,-6.4869089,-210.07526
4736000000,-6.4950275,-210.07852
4737000000,-6.4924121,-210.13013
4738000000,-6.4687552,-210.12885
4739000000,-6.4631329,-210.06476
4740000000,-6.466939,-210.22279
4741000000,-6.472795,-210.29716
4742000000,-6.450036,-210.24533
4743000000,-6.4634695,-210.44125
4744000000,-6.4589553,-210.33789
4745000000,-6.4510002,-210.3849
4746000000,-6.4616261,-210.52759
4747000000,-6.4329147,-210.52251
4748000000,-6.4246626,-210.51155
4749000000,-6.4348578,-210.56644
4750000000,-6.4525299,-210.66901
4751000000,-6.4647827,-210.51483
4752000000,-6.4259224,-210.76021
4753000000,-6.4104629,-210.92169
4754000000,-6.4175878,-210.82242
4755000000,-6.4366736,-210.806
4756000000,-6.412653,-210.96552
4757000000,-6.3885751,-210.82834
4758000000,-6.4386945,-210.92114
4759000000,-6.3993797,-210.97987
4760000000,-6.3691897,-210.85779
4761000000,-6.4037371,-211.05754
4762000000,-6.4082971,-211.08205
4763000000,-6.3863263,-211.12747
4764000000,-6.3985782,-211.26859
4765000000,-6.3828726,-211.39114
4766000000,-6.4052677,-211.49297
4767000000,-6.3974476,-211.37173
4768000000,-6.3824716,-211.53178
4769000000,-6.3769407,-211.41763
4770000000,-6.3786778,-211.41336
4771000000,-6.3811078,-211.52765
4772000000,-6.3725348,-211.61005
4773000000,-6.3892837,-211.48842
4774000000,-6.3883653,-211.64836
4775000000,-6.354722,-211.63925
4776000000,-6.3765602,-211.75038
4777000000,-6.3691516,-211.76044
4778000000,-6.3558636,-211.70447
4779000000,-6.3575673,-211.90457
4780000000,-6.3324137,-212.06546
4781000000,-6.3505974,-211.93344
4782000000,-6.358007,-211.84897
4783000000,-6.3383775,-212.18684
4784000000,-6.3243899,-212.21439
4785000000,-6.3259754,-212.16623
4786000000,-6.3292894,-212.14737
4787000000,-6.3220129,-212.22588
4788000000,-6.3256907,-212.17508
4789000000,-6.3525715,-212.34348
4790000000,-6.3269787,-212.35956
4791000000,-6.3493934,-212.31381
4792000000,-6.3187737,-212.27617
4793000000,-6.3145046,-212.46017
4794000000,-6.3115578,-212.48743
4795000000,-6.3098717,-212.45778
4796000000,-6.3255324,-212.58792
4797000000,-6.2876844,-212.61612
4798000000,-6.2812982,-212.51715
4799000000,-6.3056459,-212.7155
4800000000,-6.3065348,-212.76515
4801000000,-6.2949457,-212.72815
4802000000,-6.3048234,-212.79277
4803000000,-6.2832956,-212.92564
4804000000,-6.2683907,-212.90848
4805000000,-6.2714677,-212.93106
4806000000,-6.2805343,-213.04689
4807000000,-6.266181,-213.02359
4808000000,-6.2673049,-213.00507
4809000000,-6.2693186,-213.03935
4810000000,-6.2814956,-213.10577
4811000000,-6.2642674,-213.26749
4812000000,-6.238482,-213.28238
4813000000,-6.2508721,-213.33176
4814000000,-6.2549291,-213.4245
4815000000,-6.2461891,-213.29518
4816000000,-6.2483459,-213.35501
4817000000,-6.2558169,-213.55534
4818000000,-6.2722821,-213.42397
4819000000,-6.2587204,-213.71509
4820000000,-6.2357798,-213.64568
4821000000,-6.2217817,-213.85356
4822000000,-6.241971,-213.83116
4823000000,-6.2135611,-213.7516
4824000000,-6.2354255,-213.82335
4825000000,-6.2382727,-213.8228
4826000000,-6.2400556,-213.87502
4827000000,-6.2155824,-213.93875
4828000000,-6.2155375,-214.15245
4829000000,-6.2100759,-214.26178
4830000000,-6.2058711,-213.99309
4831000000,-6.2096038,-214.22479
4832000000,-6.200603,-214.13208
4833000000,-6.2172461,-214.17955
4834000000,-6.2045493,-214.30057
4835000000,-6.1770282,-214.29344
4836000000,-6.2236385,-214.48665
4837000000,-6.1988468,-214.16096
4838000000,-6.179286,-214.38081
4839000000,-6.2011218,-214.48906
4840000000,-6.2018795,-214.52814
4841000000,-6.1762643,-214.70299
4842000000,-6.1739044,-214.6319
4843000000,-6.1950626,-214.73099
4844000000,-6.1571779,-214.66069
4845000000,-6.1856928,-214.77542
4846000000,-6.1700249,-214.88885
4847000000,-6.1874671,-214.9194
4848000000,-6.1668472,-214.94583
4849000000,-6.1501284,-215.00423
4850000000,-6.162468,-214.86336
4851000000,-6.1531529,-215.17282
4852000000,-6.1678896,-215.06451
4853000000,-6.1597691,-215.23192
4854000000,-6.1327105,-215.09531
4855000000,-6.1364093,-215.2446
4856000000,-6.1533818,-215.49574
4857000000,-6.1551533,-215.30931
4858000000,-6.1403894,-215.47603
4859000000,-6.1379046,-215.5481
4860000000,-6.1366057,-215.23494
4861000000,-6.1349788,-215.63925
4862000000,-6.1150055,-215.81927
4863000000,-6.1265821,-215.55904
4864000000,-6.13907,-215.45805
4865000000,-6.1427579,-215.70068
4866000000,-6.1322646,-215.82005
4867000000,-6.1207352,-215.85056
4868000000,-6.1231298,-215.69907
4869000000,-6.1084547,-215.95891
4870000000,-6.1383929,-215.9045
4871000000,-6.1266665,-215.99127
4872000000,-6.1209221,-216.01343
4873000000,-6.1151843,-216.14713
4874000000,-6.1235523,-216.1073
4875000000,-6.123919,-216.09247
4876000000,-6.0946798,-216.08913
4877000000,-6.0855532,-216.45204
4878000000,-6.0947943,-216.30246
4879000000,-6.0871124,-216.35083
4880000000,-6.0901175,-216.31616
4881000000,-6.0917645,-216.55304
4882000000,-6.1132307,-216.42467
4883000000,-6.0735168,-216.58415
4884000000,-6.0781794,-216.76463
4885000000,-6.0971527,-216.54019
4886000000,-6.0826306,-216.76097
4887000000,-6.0896993,-216.85916
4888000000,-6.0894852,-216.92097
4889000000,-6.0879836,-216.94325
4890000000,-6.0727663,-216.89384
4891000000,-6.0919557,-216.79433
4892000000,-6.0748973,-216.99713
4893000000,-6.0525136,-217.01392
4894000000,-6.0864944,-217.13869
4895000000,-6.0693293,-217.05075
4896000000,-6.0684624,-217.22337
4897000000,-6.0808992,-217.26642
4898000000,-6.061626,-217.16441
4899000000,-6.0691347,-217.28192
4900000000,-6.0809278,-217.44226
4901000000,-6.1024642,-217.68465
4902000000,-6.0635986,-217.57869
4903000000,-6.0353837,-217.70833
4904000000,-6.0624356,-217.50046
4905000000,-6.0737786,-217.51932
4906000000,-6.0385995,-217.6261
4907000000,-6.0361104,-217.86722
4908000000,-6.0515847,-217.5873
4909000000,-6.059155,-217.96954
4910000000,-6.0610695,-217.96875
4911000000,-6.0389647,-218.01624
4912000000,-6.0512657,-218.0257
4913000000,-6.0612836,-218.25165
4914000000,-6.06042,-218.20584
4915000000,-6.0613937,-218.21625
4916000000,-6.0753117,-218.32953
4917000000,-6.0633206,-218.31625
4918000000,-6.0411549,-218.23508
4919000000,-6.0328221,-218.3159
4920000000,-6.0338879,-218.35638
4921000000,-6.0684552,-218.46036
4922000000,-6.0151916,-218.41255
4923000000,-6.0505404,-218.61395
4924000000,-6.0234251,-218.51263
4925000000,-6.0376606,-218.59119
4926000000,-6.0292158,-218.74646
4927000000,-6.0250144,-218.69547
4928000000,-6.0408831,-218.58711
4929000000,-6.0308361,-218.77374
4930000000,-6.0394969,-218.86993
4931000000,-6.026247,-218.89436
4932000000,-6.0069551,-218.95483
4933000000,-6.0261765,-218.92108
4934000000,-6.0291777,-218.83014
4935000000,-6.0117998,-219.0556
4936000000,-6.0152926,-219.10587
4937000000,-6.0056772,-218.98361
4938000000,-6.0095191,-219.23705
4939000000,-6.0382943,-219.14128
4940000000,-6.0093403,-219.37766
4941000000,-6.0151443,-219.35509
4942000000,-6.0310221,-219.42372
4943000000,-6.0115509,-219.2514
4944000000,-5.9866972,-219.24857
4945000000,-6.0005417,-219.44855
4946000000,-6.0105844,-219.55583
4947000000,-6.0153637,-219.65399
4948000000,-6.0039268,-219.66182
4949000000,-5.9899654,-219.55212
4950000000,-6.0126748,-219.64116
4951000000,-6.0221262,-219.73691
4952000000,-6.0189462,-219.65251
4953000000,-5.9958668,-219.61227
4954000000,-5.9797254,-219.65088
4955000000,-6.0028601,-219.8293
4956000000,-5.9713078,-219.87331
4957000000,-5.9728498,-220.07335
4958000000,-5.9664292,-220.03297
4959000000,-5.986836,-220.1096
4960000000,-5.9784522,-220.05711
4961000000,-5.9696116,-220.14157
4962000000,-5.9866142,-220.15677
4963000000,-5.9780307,-220.01546
4964000000,-5.9653611,-220.22977
4965000000,-5.9658732,-220.29836
4966000000,-5.9646969,-220.32164
4967000000,-5.9663887,-220.22067
4968000000,-5.9923062,-220.49597
4969000000,-5.9431176,-220.32657
4970000000,-5.9579411,-220.46904
4971000000,-5.9625731,-220.39336
4972000000,-5.9458838,-220.55923
4973000000,-5.9458132,-220.62642
4974000000,-5.9481835,-220.60104
4975000000,-5.9610529,-220.63873
4976000000,-5.9241962,-220.68288
4977000000,-5.9544954,-220.86987
4978000000,-5.9164429,-220.74484
4979000000,-5.965126,-220.7765
4980000000,-5.9488692,-220.88048
4981000000,-5.9313893,-220.9837
4982000000,-5.893702,-220.90965
4983000000,-5.9188204,-221.02882
4984000000,-5.9240112,-221.11687
4985000000,-5.9205246,-221.2402
4986000000,-5.8871384,-221.25282
4987000000,-5.923738,-221.25851
4988000000,-5.9214358,-221.2944
4989000000,-5.9069653,-221.43469
4990000000,-5.9174638,-221.4653
4991000000,-5.9398651,-221.40858
4992000000,-5.9145665,-221.63428
4993000000,-5.9021807,-221.61343
4994000000,-5.9086375,-221.48549
4995000000,-5.8920789,-221.50864
4996000000,-5.8915849,-221.67679
4997000000,-5.8992138,-221.55557
4998000000,-5.8969407,-221.64207
4999000000,-5.8954949,-221.82005
5000000000,-5.8720298,-221.69363
END

