!CSV A.01.01
!Agilent Technologies,E8362C,MY49020225,A.09.42.22
!Agilent E8362C: A.09.42.22
!Date: Tuesday, March 08, 2016 15:13:41
!Source: Standard

BEGIN CH1_DATA
Freq(Hz),S11 Log Mag(dB),S11 Phase(°)
1000000000,-4.614512,159.49834
1001000000,-4.5901875,159.58943
1002000000,-4.6066856,159.4899
1003000000,-4.6007037,159.47668
1004000000,-4.5750957,159.23212
1005000000,-4.6249261,159.23717
1006000000,-4.5945663,159.19098
1007000000,-4.5825977,159.36203
1008000000,-4.5776834,159.16959
1009000000,-4.56671,159.44681
1010000000,-4.5545769,159.20197
1011000000,-4.5942726,158.75233
1012000000,-4.6324048,159.23241
1013000000,-4.5593719,158.89354
1014000000,-4.5816574,159.02153
1015000000,-4.5750289,159.09708
1016000000,-4.56457,158.77708
1017000000,-4.5385566,158.92502
1018000000,-4.6014433,158.71951
1019000000,-4.5701275,158.74667
1020000000,-4.5579457,158.91098
1021000000,-4.5674791,158.68886
1022000000,-4.5425611,158.73338
1023000000,-4.5753794,158.82469
1024000000,-4.580317,158.71954
1025000000,-4.5643725,158.60751
1026000000,-4.5775862,158.58681
1027000000,-4.5656662,158.51466
1028000000,-4.5726047,158.50755
1029000000,-4.5687456,158.61491
1030000000,-4.5522537,158.20409
1031000000,-4.5296984,158.46765
1032000000,-4.6004405,158.30161
1033000000,-4.5617504,158.19276
1034000000,-4.5534163,158.40933
1035000000,-4.5373354,158.23793
1036000000,-4.5340538,158.33423
1037000000,-4.5380049,157.90854
1038000000,-4.5555763,158.30913
1039000000,-4.5620785,158.13698
1040000000,-4.5450807,158.23761
1041000000,-4.5700989,158.28169
1042000000,-4.5732613,158.07721
1043000000,-4.5273199,158.21049
1044000000,-4.5159349,157.78394
1045000000,-4.552422,158.02544
1046000000,-4.5101089,157.91377
1047000000,-4.540103,158.1442
1048000000,-4.5503888,157.86093
1049000000,-4.5217261,157.84352
1050000000,-4.5331206,157.98112
1051000000,-4.5371494,157.64886
1052000000,-4.5094051,157.77139
1053000000,-4.5403481,157.34311
1054000000,-4.5462389,157.59271
1055000000,-4.5513797,157.77121
1056000000,-4.5482154,157.75565
1057000000,-4.4929852,157.55742
1058000000,-4.5688152,157.21214
1059000000,-4.5394878,157.41769
1060000000,-4.5147433,157.42494
1061000000,-4.5243773,157.33144
1062000000,-4.5277214,157.39989
1063000000,-4.5105524,157.22987
1064000000,-4.5093288,157.35309
1065000000,-4.5064154,157.26031
1066000000,-4.5107965,156.85817
1067000000,-4.5229292,156.99042
1068000000,-4.5060163,157.00229
1069000000,-4.5145683,157.01216
1070000000,-4.4954553,157.07558
1071000000,-4.5386057,157.14226
1072000000,-4.5021214,157.01506
1073000000,-4.5217199,157.17419
1074000000,-4.4831233,157.03046
1075000000,-4.5101986,156.95061
1076000000,-4.5128226,157.10544
1077000000,-4.491919,156.83615
1078000000,-4.4991465,156.77428
1079000000,-4.5084662,156.66035
1080000000,-4.4873466,156.7527
1081000000,-4.476644,156.71416
1082000000,-4.4835997,156.48067
1083000000,-4.4792895,156.561
1084000000,-4.4655361,156.55983
1085000000,-4.4697385,156.4384
1086000000,-4.5140719,156.42944
1087000000,-4.463069,156.51958
1088000000,-4.476223,156.56789
1089000000,-4.4934025,156.35416
1090000000,-4.5085421,156.53296
1091000000,-4.4738531,156.18196
1092000000,-4.4951763,156.27422
1093000000,-4.4608631,156.07263
1094000000,-4.4684019,156.02034
1095000000,-4.4809222,156.11574
1096000000,-4.4925332,156.08875
1097000000,-4.4648976,156.04204
1098000000,-4.4633927,156.16359
1099000000,-4.5142894,156.20886
1100000000,-4.4929104,156.03691
1101000000,-4.4733644,155.70651
1102000000,-4.4997134,155.76514
1103000000,-4.4779768,155.86372
1104000000,-4.4777741,155.68741
1105000000,-4.4889927,155.66902
1106000000,-4.4783125,155.70946
1107000000,-4.4866796,155.77859
1108000000,-4.4667072,155.45195
1109000000,-4.4373984,155.66513
1110000000,-4.4494019,155.86266
1111000000,-4.4733706,155.78065
1112000000,-4.4947438,155.57385
1113000000,-4.4794068,155.55745
1114000000,-4.4599161,155.22816
1115000000,-4.4354081,155.44038
1116000000,-4.4801984,155.40215
1117000000,-4.4478192,155.36272
1118000000,-4.4700441,155.36432
1119000000,-4.4534702,155.23347
1120000000,-4.4745574,155.28937
1121000000,-4.4613919,155.06735
1122000000,-4.4635987,155.10603
1123000000,-4.4665098,155.23601
1124000000,-4.4287701,155.11177
1125000000,-4.4726887,154.94899
1126000000,-4.4440742,154.80731
1127000000,-4.4555521,154.99605
1128000000,-4.4637852,155.01582
1129000000,-4.4610472,154.79875
1130000000,-4.4606142,154.58537
1131000000,-4.4294543,154.76546
1132000000,-4.4405937,154.86575
1133000000,-4.4793258,154.47231
1134000000,-4.4338565,154.81476
1135000000,-4.4569364,154.53949
1136000000,-4.4559045,154.75749
1137000000,-4.466918,154.65021
1138000000,-4.4703178,154.31607
1139000000,-4.4582176,154.49789
1140000000,-4.4681172,154.23766
1141000000,-4.4577188,154.483
1142000000,-4.474401,154.07068
1143000000,-4.455986,154.24832
1144000000,-4.4992552,154.258
1145000000,-4.4529676,154.04826
1146000000,-4.4491949,154.4534
1147000000,-4.4177179,154.07481
1148000000,-4.465786,153.95407
1149000000,-4.4756932,154.06651
1150000000,-4.4657698,153.89551
1151000000,-4.425293,154.09331
1152000000,-4.4325066,153.84221
1153000000,-4.4529114,153.92892
1154000000,-4.4221182,153.86929
1155000000,-4.4438019,153.90732
1156000000,-4.4288702,153.82549
1157000000,-4.4351149,153.8132
1158000000,-4.4215837,153.78549
1159000000,-4.4541845,153.86162
1160000000,-4.4142642,153.69554
1161000000,-4.459733,153.81271
1162000000,-4.4258227,153.71954
1163000000,-4.4491191,153.62982
1164000000,-4.4258933,153.60741
1165000000,-4.4289913,153.50418
1166000000,-4.4213605,153.45834
1167000000,-4.424912,153.60931
1168000000,-4.4292741,153.59779
1169000000,-4.4495249,153.15323
1170000000,-4.4024439,153.41937
1171000000,-4.4260454,153.33543
1172000000,-4.4366136,153.20595
1173000000,-4.430841,153.16319
1174000000,-4.4295254,153.10172
1175000000,-4.4148879,153.11946
1176000000,-4.4215617,153.11353
1177000000,-4.4654918,152.93179
1178000000,-4.42942,152.9942
1179000000,-4.4229512,153.07315
1180000000,-4.4500675,152.91379
1181000000,-4.442379,152.96132
1182000000,-4.4428902,152.70439
1183000000,-4.4062018,152.78061
1184000000,-4.4475398,152.61096
1185000000,-4.4373803,152.74326
1186000000,-4.4328895,152.67204
1187000000,-4.4155006,152.58521
1188000000,-4.3970337,152.42345
1189000000,-4.4266438,152.483
1190000000,-4.4143896,152.54742
1191000000,-4.3926234,152.61234
1192000000,-4.4206691,152.34973
1193000000,-4.4425435,152.40211
1194000000,-4.4139595,152.44615
1195000000,-4.4269714,152.32277
1196000000,-4.3772388,152.39565
1197000000,-4.4208884,152.11078
1198000000,-4.4342618,152.2009
1199000000,-4.4296904,152.07518
1200000000,-4.4036865,152.01889
1201000000,-4.418694,152.14174
1202000000,-4.4071646,152.09631
1203000000,-4.4364481,152.12772
1204000000,-4.4371839,152.07619
1205000000,-4.4299269,151.91153
1206000000,-4.4331737,152.17728
1207000000,-4.4054923,152.2307
1208000000,-4.4143448,151.7939
1209000000,-4.4102621,151.94104
1210000000,-4.4037876,151.77132
1211000000,-4.4194484,151.88869
1212000000,-4.4131603,151.67302
1213000000,-4.4347301,151.70285
1214000000,-4.4246011,151.44032
1215000000,-4.4077764,151.51985
1216000000,-4.3863482,151.68591
1217000000,-4.4132981,151.4726
1218000000,-4.4099073,151.42384
1219000000,-4.3851123,151.21999
1220000000,-4.4354157,151.4165
1221000000,-4.4278464,151.25075
1222000000,-4.3882022,151.33069
1223000000,-4.4205718,151.13916
1224000000,-4.4045577,151.16974
1225000000,-4.4155202,151.06775
1226000000,-4.413794,150.93098
1227000000,-4.4480686,150.87654
1228000000,-4.4384022,150.81752
1229000000,-4.4111576,151.01343
1230000000,-4.4073553,150.78438
1231000000,-4.4202418,150.65544
1232000000,-4.432744,151.03854
1233000000,-4.3927627,150.77403
1234000000,-4.4329066,150.73946
1235000000,-4.3928905,150.569
1236000000,-4.3744717,150.59897
1237000000,-4.4058585,150.68504
1238000000,-4.3998322,150.61548
1239000000,-4.4099445,150.63542
1240000000,-4.3888717,150.46695
1241000000,-4.4003119,150.742
1242000000,-4.373199,150.49829
1243000000,-4.4146771,150.54883
1244000000,-4.4086943,150.31381
1245000000,-4.4187031,150.25018
1246000000,-4.3977561,150.10551
1247000000,-4.4023132,150.20096
1248000000,-4.3992572,150.28255
1249000000,-4.3979683,150.26942
1250000000,-4.4283438,150.26073
1251000000,-4.4083943,150.06299
1252000000,-4.3817482,149.71761
1253000000,-4.4188666,150.14067
1254000000,-4.408215,150.09023
1255000000,-4.40241,149.92653
1256000000,-4.3969979,149.85254
1257000000,-4.389843,149.70862
1258000000,-4.3991766,149.7072
1259000000,-4.4115381,149.91763
1260000000,-4.4235234,149.7061
1261000000,-4.39855,149.79582
1262000000,-4.4141054,149.46227
1263000000,-4.4125147,149.22232
1264000000,-4.4108524,149.74425
1265000000,-4.3925362,149.6246
1266000000,-4.4542742,149.50192
1267000000,-4.3989391,149.47037
1268000000,-4.412333,149.29425
1269000000,-4.4135637,149.1992
1270000000,-4.4201007,149.18904
1271000000,-4.4311767,149.2942
1272000000,-4.3985162,149.10736
1273000000,-4.4306078,149.27345
1274000000,-4.4217529,148.99319
1275000000,-4.3779178,148.90193
1276000000,-4.4133067,149.13248
1277000000,-4.3894482,148.8969
1278000000,-4.4232817,148.76997
1279000000,-4.4121614,149.02275
1280000000,-4.4216728,148.83632
1281000000,-4.4292026,148.77635
1282000000,-4.4440398,148.79694
1283000000,-4.395895,148.4455
1284000000,-4.3961444,148.63113
1285000000,-4.4011927,148.45415
1286000000,-4.4265442,148.71242
1287000000,-4.4461718,148.605
1288000000,-4.3962407,148.30096
1289000000,-4.4413071,148.46674
1290000000,-4.4181142,148.29198
1291000000,-4.4077926,148.39946
1292000000,-4.4171348,148.21057
1293000000,-4.4099636,148.39919
1294000000,-4.4014506,148.42854
1295000000,-4.4136896,148.25836
1296000000,-4.3954206,148.15543
1297000000,-4.4338908,148.24007
1298000000,-4.4208112,147.92839
1299000000,-4.4516439,148.18037
1300000000,-4.4405789,148.06853
1301000000,-4.4371719,147.7538
1302000000,-4.4425087,147.75467
1303000000,-4.3866563,147.83014
1304000000,-4.441258,147.94916
1305000000,-4.4430666,147.65033
1306000000,-4.404511,147.79878
1307000000,-4.4449286,147.61105
1308000000,-4.4198112,147.64442
1309000000,-4.4334164,147.56017
1310000000,-4.422296,147.38489
1311000000,-4.4324999,147.52385
1312000000,-4.4215717,147.26254
1313000000,-4.4133415,147.30249
1314000000,-4.4429832,147.21219
1315000000,-4.4274502,147.00685
1316000000,-4.4539723,147.3266
1317000000,-4.399035,147.31201
1318000000,-4.4214845,147.09926
1319000000,-4.4479766,147.04857
1320000000,-4.4074502,147.11021
1321000000,-4.4289632,147.18748
1322000000,-4.4216261,146.98694
1323000000,-4.4514737,146.85085
1324000000,-4.4334245,146.96925
1325000000,-4.4291997,146.9402
1326000000,-4.4131169,147.06401
1327000000,-4.4418221,146.85558
1328000000,-4.4477568,146.69978
1329000000,-4.4308858,146.5629
1330000000,-4.4049764,146.71152
1331000000,-4.4431629,146.65894
1332000000,-4.4050021,146.7233
1333000000,-4.4425411,146.56339
1334000000,-4.4320049,146.3817
1335000000,-4.4455996,146.56111
1336000000,-4.4161959,146.37872
1337000000,-4.4239788,146.23273
1338000000,-4.4262791,146.30762
1339000000,-4.4410963,146.29909
1340000000,-4.4707594,146.2706
1341000000,-4.4520054,146.22476
1342000000,-4.4197111,146.11884
1343000000,-4.492558,145.79132
1344000000,-4.4486895,145.91945
1345000000,-4.4639659,145.94624
1346000000,-4.470418,145.85693
1347000000,-4.4631734,145.61479
1348000000,-4.4255686,145.77402
1349000000,-4.4506021,145.66705
1350000000,-4.4298921,145.80864
1351000000,-4.4236288,145.72447
1352000000,-4.4296722,145.52525
1353000000,-4.4385104,145.37366
1354000000,-4.4392257,145.52109
1355000000,-4.4769807,145.5444
1356000000,-4.4333801,145.54865
1357000000,-4.4621921,145.46251
1358000000,-4.4579973,145.33504
1359000000,-4.4577127,145.11954
1360000000,-4.4215751,145.26445
1361000000,-4.4512639,145.29218
1362000000,-4.4465442,145.0491
1363000000,-4.4472594,145.20128
1364000000,-4.4596586,145.05576
1365000000,-4.4602156,145.03813
1366000000,-4.4696541,145.10919
1367000000,-4.439899,145.18941
1368000000,-4.474112,145.07709
1369000000,-4.4778605,144.81526
1370000000,-4.4614334,144.84955
1371000000,-4.4733586,144.78482
1372000000,-4.47681,144.57301
1373000000,-4.4434919,144.63327
1374000000,-4.4595094,144.73613
1375000000,-4.4799852,144.60391
1376000000,-4.4703059,144.51057
1377000000,-4.4725995,144.29007
1378000000,-4.4760847,144.58665
1379000000,-4.4932332,144.48862
1380000000,-4.4829874,144.43207
1381000000,-4.496542,144.36433
1382000000,-4.4969268,144.05672
1383000000,-4.4761591,144.20741
1384000000,-4.500865,144.40823
1385000000,-4.5142841,144.11887
1386000000,-4.4822659,144.07701
1387000000,-4.5092711,144.16113
1388000000,-4.4915442,143.95044
1389000000,-4.5113449,143.74559
1390000000,-4.4831033,143.806
1391000000,-4.4921761,143.7381
1392000000,-4.4777794,143.91728
1393000000,-4.4856906,143.92374
1394000000,-4.4944553,143.39893
1395000000,-4.4828033,143.54361
1396000000,-4.4628005,143.58249
1397000000,-4.4966688,143.60793
1398000000,-4.482717,143.50418
1399000000,-4.5014238,143.53917
1400000000,-4.5104017,143.46548
1401000000,-4.509552,143.27068
1402000000,-4.4701867,143.29564
1403000000,-4.4897947,143.14323
1404000000,-4.5294013,143.37653
1405000000,-4.507339,143.08878
1406000000,-4.5021257,142.97252
1407000000,-4.5230002,143.153
1408000000,-4.5162215,143.22038
1409000000,-4.5146723,143.14078
1410000000,-4.5163426,142.94371
1411000000,-4.5230737,142.94281
1412000000,-4.5039587,142.85777
1413000000,-4.5027781,142.8708
1414000000,-4.5019474,142.95883
1415000000,-4.5314088,142.79118
1416000000,-4.5166492,142.54663
1417000000,-4.5125136,142.78508
1418000000,-4.5089769,142.62912
1419000000,-4.5116606,142.63382
1420000000,-4.5500402,142.51385
1421000000,-4.5137548,142.45995
1422000000,-4.5224152,142.49277
1423000000,-4.5189519,142.33852
1424000000,-4.546422,142.24269
1425000000,-4.50739,142.12927
1426000000,-4.4864626,142.09563
1427000000,-4.5536232,142.2605
1428000000,-4.5544949,141.88309
1429000000,-4.5318513,141.88618
1430000000,-4.5486259,142.07538
1431000000,-4.5074067,141.83299
1432000000,-4.507853,141.90338
1433000000,-4.5766068,141.76355
1434000000,-4.5352311,141.61319
1435000000,-4.5568151,141.66267
1436000000,-4.5511661,141.69829
1437000000,-4.5629516,141.70071
1438000000,-4.536912,141.60938
1439000000,-4.558567,141.46635
1440000000,-4.5606475,141.51842
1441000000,-4.564539,141.49973
1442000000,-4.5802698,141.42589
1443000000,-4.5521154,141.24638
1444000000,-4.582478,141.41023
1445000000,-4.5667219,141.18575
1446000000,-4.5634756,141.23717
1447000000,-4.5549431,141.13171
1448000000,-4.5439558,141.26273
1449000000,-4.6000085,141.11768
1450000000,-4.5553699,141.04118
1451000000,-4.562624,140.84509
1452000000,-4.5624356,140.87283
1453000000,-4.578054,140.71465
1454000000,-4.579576,140.95927
1455000000,-4.5763121,140.76765
1456000000,-4.5606251,140.69002
1457000000,-4.6327033,140.85445
1458000000,-4.6117902,140.55681
1459000000,-4.5822563,140.58287
1460000000,-4.5850372,140.65845
1461000000,-4.5873051,140.30899
1462000000,-4.5962138,140.35384
1463000000,-4.5942187,140.15683
1464000000,-4.5975695,140.22339
1465000000,-4.6114593,140.21112
1466000000,-4.6008172,139.96786
1467000000,-4.5949535,140.20694
1468000000,-4.5931211,140.13098
1469000000,-4.5956106,140.05568
1470000000,-4.6299486,139.9252
1471000000,-4.5956688,139.89198
1472000000,-4.6221676,139.96422
1473000000,-4.6233754,139.82416
1474000000,-4.626359,139.58365
1475000000,-4.6407285,139.51958
1476000000,-4.6068015,139.76323
1477000000,-4.6207795,139.72084
1478000000,-4.6227927,139.66847
1479000000,-4.6338944,139.71774
1480000000,-4.5943184,139.49236
1481000000,-4.6117716,139.26263
1482000000,-4.6225634,139.34702
1483000000,-4.6126251,139.47641
1484000000,-4.6288896,139.20961
1485000000,-4.6372819,139.34888
1486000000,-4.6355023,139.19054
1487000000,-4.6585045,139.07578
1488000000,-4.6544552,139.22435
1489000000,-4.6318026,139.08165
1490000000,-4.6305885,138.94696
1491000000,-4.6524439,138.88109
1492000000,-4.6797128,138.86769
1493000000,-4.6426597,139.10822
1494000000,-4.6835904,139.01939
1495000000,-4.6668916,138.78874
1496000000,-4.6604691,138.39439
1497000000,-4.705039,138.6264
1498000000,-4.6693244,138.48972
1499000000,-4.6765518,138.61456
1500000000,-4.6664982,138.2303
1501000000,-4.6942739,138.25356
1502000000,-4.6938548,138.35634
1503000000,-4.6663294,138.4357
1504000000,-4.7117615,138.0304
1505000000,-4.702002,138.1647
1506000000,-4.7136831,138.03178
1507000000,-4.6894116,138.09167
1508000000,-4.6732254,137.99556
1509000000,-4.6972671,137.92259
1510000000,-4.7055421,137.95042
1511000000,-4.683754,137.84578
1512000000,-4.7108922,137.854
1513000000,-4.703444,137.92311
1514000000,-4.6915193,137.76369
1515000000,-4.7159128,137.56827
1516000000,-4.7054248,137.41368
1517000000,-4.7538996,137.46318
1518000000,-4.7304463,137.65404
1519000000,-4.7378712,137.57971
1520000000,-4.7422938,137.41716
1521000000,-4.7421341,137.29248
1522000000,-4.7246032,137.26775
1523000000,-4.7321763,137.40814
1524000000,-4.7577162,137.04953
1525000000,-4.7520256,137.26453
1526000000,-4.7480302,137.13029
1527000000,-4.7348852,136.94786
1528000000,-4.7335854,136.991
1529000000,-4.7633853,137.10217
1530000000,-4.784091,136.88872
1531000000,-4.762578,136.83583
1532000000,-4.7613091,136.77274
1533000000,-4.7735529,136.86977
1534000000,-4.7982526,136.74699
1535000000,-4.7729893,136.65727
1536000000,-4.7508512,136.50954
1537000000,-4.7979984,136.55309
1538000000,-4.7855058,136.44615
1539000000,-4.7956882,136.45091
1540000000,-4.7867808,136.45844
1541000000,-4.7741332,136.33856
1542000000,-4.7912054,136.16164
1543000000,-4.8218164,136.21461
1544000000,-4.7806268,136.23662
1545000000,-4.816186,135.96588
1546000000,-4.773788,136.10545
1547000000,-4.8622894,135.75923
1548000000,-4.7957592,136.04791
1549000000,-4.8133764,135.78252
1550000000,-4.8275728,135.61761
1551000000,-4.8171859,135.80978
1552000000,-4.8289046,135.65459
1553000000,-4.8208594,135.41872
1554000000,-4.8052416,135.74323
1555000000,-4.8200798,135.54512
1556000000,-4.8252673,135.7332
1557000000,-4.8417859,135.32556
1558000000,-4.8383803,135.25163
1559000000,-4.8411527,135.33315
1560000000,-4.8549228,135.18507
1561000000,-4.8256578,135.14229
1562000000,-4.8623872,134.82893
1563000000,-4.887404,135.11438
1564000000,-4.8412805,135.0126
1565000000,-4.8706694,135.07233
1566000000,-4.853641,134.924
1567000000,-4.8915787,134.84193
1568000000,-4.898416,134.99252
1569000000,-4.8846564,134.688
1570000000,-4.8883877,134.64072
1571000000,-4.8817682,134.8532
1572000000,-4.8684974,134.64946
1573000000,-4.8768172,134.4061
1574000000,-4.9041662,134.53989
1575000000,-4.8834949,134.42526
1576000000,-4.8528047,134.32903
1577000000,-4.8912163,134.20238
1578000000,-4.9171038,134.13356
1579000000,-4.9261374,134.14189
1580000000,-4.9259038,134.20193
1581000000,-4.9105692,134.15826
1582000000,-4.9321642,134.08508
1583000000,-4.9305162,133.95644
1584000000,-4.9288912,133.62035
1585000000,-4.913857,133.8611
1586000000,-4.9190793,133.84378
1587000000,-4.9072766,133.78946
1588000000,-4.9533505,133.6028
1589000000,-4.9167686,133.55875
1590000000,-4.9436526,133.57553
1591000000,-4.9626913,133.43419
1592000000,-4.9657736,133.48369
1593000000,-4.9520936,133.29971
1594000000,-4.9923348,133.33531
1595000000,-4.9461598,133.24529
1596000000,-4.9775591,133.10214
1597000000,-4.9569888,133.24001
1598000000,-4.9601798,132.98553
1599000000,-4.9486604,132.99771
1600000000,-4.9771981,133.13518
1601000000,-4.9619274,132.8848
1602000000,-5.0105443,132.76086
1603000000,-4.9898543,132.77411
1604000000,-4.9698057,132.57747
1605000000,-5.0136352,132.9595
1606000000,-5.0272522,132.60951
1607000000,-4.9923463,132.49423
1608000000,-5.0260353,132.51384
1609000000,-4.9737506,132.40724
1610000000,-4.984777,132.3754
1611000000,-5.0415192,132.3676
1612000000,-5.0382247,132.23941
1613000000,-5.0089021,132.34618
1614000000,-5.0503268,132.31355
1615000000,-5.0510526,132.19511
1616000000,-5.0393567,132.0027
1617000000,-5.0274806,132.09753
1618000000,-5.0497103,131.9037
1619000000,-5.0518603,131.88594
1620000000,-5.0528274,131.59216
1621000000,-5.0612359,131.87044
1622000000,-5.0468798,131.72389
1623000000,-5.0564575,131.42986
1624000000,-5.0626988,131.46547
1625000000,-5.095531,131.55139
1626000000,-5.1041331,131.42798
1627000000,-5.0841732,131.41891
1628000000,-5.0912132,131.27571
1629000000,-5.1070757,131.20628
1630000000,-5.0757933,131.08173
1631000000,-5.0905156,131.26817
1632000000,-5.0875421,131.33832
1633000000,-5.0892253,131.11668
1634000000,-5.1147871,130.70584
1635000000,-5.1308308,130.9776
1636000000,-5.1127486,130.90706
1637000000,-5.1019769,130.89447
1638000000,-5.1335697,130.70009
1639000000,-5.1242318,130.62338
1640000000,-5.1473312,130.66005
1641000000,-5.1372709,130.63374
1642000000,-5.1472201,130.29282
1643000000,-5.1626296,130.57364
1644000000,-5.1461453,130.27232
1645000000,-5.1806474,130.26781
1646000000,-5.1910558,130.22536
1647000000,-5.1555152,130.22446
1648000000,-5.1646295,130.29367
1649000000,-5.1990089,130.24741
1650000000,-5.1901627,130.02022
1651000000,-5.1732488,129.99211
1652000000,-5.2064881,129.75702
1653000000,-5.2041802,129.83607
1654000000,-5.2098255,129.73734
1655000000,-5.2128768,129.61208
1656000000,-5.1802597,129.79364
1657000000,-5.2208977,129.51361
1658000000,-5.2326288,129.5824
1659000000,-5.2161698,129.54543
1660000000,-5.2363367,129.24428
1661000000,-5.2493343,129.27652
1662000000,-5.2294626,129.1545
1663000000,-5.2553349,129.38678
1664000000,-5.2580328,129.20033
1665000000,-5.2654724,129.00015
1666000000,-5.2680373,129.14198
1667000000,-5.2408972,129.10786
1668000000,-5.3032937,128.90088
1669000000,-5.2899652,128.8876
1670000000,-5.2825618,128.64661
1671000000,-5.2727833,128.71208
1672000000,-5.2885838,128.68373
1673000000,-5.3212061,128.59322
1674000000,-5.3437638,128.48434
1675000000,-5.3012605,128.35806
1676000000,-5.3237562,128.39612
1677000000,-5.3173089,128.20468
1678000000,-5.3239102,128.40012
1679000000,-5.344182,128.14374
1680000000,-5.3330421,128.09315
1681000000,-5.3240156,128.18742
1682000000,-5.3463492,128.12811
1683000000,-5.3769431,128.05748
1684000000,-5.3399692,127.84888
1685000000,-5.3885007,128.07349
1686000000,-5.3829718,127.73006
1687000000,-5.3947773,127.5425
1688000000,-5.3908138,127.87725
1689000000,-5.3931975,127.51239
1690000000,-5.3943009,127.40108
1691000000,-5.3933988,127.48909
1692000000,-5.4007096,127.23342
1693000000,-5.4472113,127.27444
1694000000,-5.4498181,127.43148
1695000000,-5.4515886,127.25513
1696000000,-5.430933,127.06585
1697000000,-5.4613771,127.00753
1698000000,-5.4421744,127.06149
1699000000,-5.4151587,126.85601
1700000000,-5.4728808,126.82782
1701000000,-5.4631619,126.72023
1702000000,-5.4772911,126.72644
1703000000,-5.4903178,126.81316
1704000000,-5.4818406,126.54207
1705000000,-5.4854984,126.58717
1706000000,-5.4859347,126.74904
1707000000,-5.4978061,126.27432
1708000000,-5.4810333,126.35037
1709000000,-5.5270119,126.50944
1710000000,-5.5037446,126.33174
1711000000,-5.516633,126.18971
1712000000,-5.5076523,126.24712
1713000000,-5.5178714,126.03519
1714000000,-5.536375,125.90451
1715000000,-5.5704079,125.88363
1716000000,-5.583375,125.91251
1717000000,-5.5766258,125.75948
1718000000,-5.5728149,125.75172
1719000000,-5.5422211,125.45958
1720000000,-5.581183,125.6665
1721000000,-5.5496678,125.3698
1722000000,-5.5901232,125.40038
1723000000,-5.5987921,125.46713
1724000000,-5.620491,125.51621
1725000000,-5.6108027,125.17961
1726000000,-5.6162705,125.24713
1727000000,-5.6038156,125.13733
1728000000,-5.6617212,125.2479
1729000000,-5.6273746,125.14861
1730000000,-5.6264286,124.81499
1731000000,-5.6478138,124.92899
1732000000,-5.6635189,124.96632
1733000000,-5.6861148,124.73805
1734000000,-5.6952643,124.661
1735000000,-5.6796679,124.5481
1736000000,-5.6656203,124.49882
1737000000,-5.7077613,124.44957
1738000000,-5.698915,124.29036
1739000000,-5.6762786,124.52934
1740000000,-5.7168012,124.3205
1741000000,-5.7249851,124.33702
1742000000,-5.7283916,124.28813
1743000000,-5.7333159,124.07111
1744000000,-5.7450986,124.19528
1745000000,-5.7366304,123.9297
1746000000,-5.7699351,123.91306
1747000000,-5.7484741,123.71001
1748000000,-5.7715268,123.92313
1749000000,-5.7959514,123.80337
1750000000,-5.7726021,123.56693
1751000000,-5.7932172,123.59995
1752000000,-5.7965159,123.43253
1753000000,-5.7809319,123.48867
1754000000,-5.8219123,123.49031
1755000000,-5.7768488,123.08514
1756000000,-5.8304,123.4315
1757000000,-5.8242717,123.30024
1758000000,-5.8257742,123.03923
1759000000,-5.8417583,122.96704
1760000000,-5.8584075,122.95747
1761000000,-5.8467474,122.92545
1762000000,-5.8551407,122.62336
1763000000,-5.8856659,122.86229
1764000000,-5.8831916,122.59721
1765000000,-5.8898597,122.6375
1766000000,-5.9388518,122.57735
1767000000,-5.9096928,122.58422
1768000000,-5.893343,122.33279
1769000000,-5.9358282,122.37533
1770000000,-5.8903685,122.25668
1771000000,-5.9436054,122.0918
1772000000,-5.9315257,122.13319
1773000000,-5.933672,122.17296
1774000000,-5.9768467,121.97516
1775000000,-5.9287329,122.03948
1776000000,-5.9551239,121.74294
1777000000,-5.9874167,121.66906
1778000000,-5.9669847,121.65864
1779000000,-6.0096879,121.72445
1780000000,-6.0048137,121.79478
1781000000,-6.0311408,121.753
1782000000,-6.0302358,121.43147
1783000000,-6.0288243,121.33554
1784000000,-6.003408,121.11341
1785000000,-6.0262079,121.43088
1786000000,-6.0415187,121.28294
1787000000,-6.0487733,121.24007
1788000000,-6.0733647,121.15743
1789000000,-6.0350075,121.01258
1790000000,-6.0855265,120.87468
1791000000,-6.0674796,120.78161
1792000000,-6.0860348,120.73503
1793000000,-6.1183534,120.70119
1794000000,-6.1218829,120.7218
1795000000,-6.1330056,120.38281
1796000000,-6.1176329,120.45738
1797000000,-6.1196523,120.35784
1798000000,-6.1569643,120.31575
1799000000,-6.1370258,120.31243
1800000000,-6.1327233,120.10806
1801000000,-6.1607866,120.19969
1802000000,-6.1725035,120.18725
1803000000,-6.205111,119.96613
1804000000,-6.1843357,119.86327
1805000000,-6.2316837,119.68732
1806000000,-6.2332411,119.65218
1807000000,-6.2118297,119.73705
1808000000,-6.2338986,119.69703
1809000000,-6.2469902,119.45394
1810000000,-6.2730746,119.57174
1811000000,-6.2529874,119.39227
1812000000,-6.2408381,119.36553
1813000000,-6.2789531,119.34476
1814000000,-6.2683468,119.24371
1815000000,-6.2568054,119.20658
1816000000,-6.299015,119.1553
1817000000,-6.3156114,118.94243
1818000000,-6.3111806,118.93253
1819000000,-6.3302674,118.89964
1820000000,-6.3534193,118.58542
1821000000,-6.3369217,118.96133
1822000000,-6.3551211,118.67099
1823000000,-6.3881502,118.67869
1824000000,-6.3685112,118.54012
1825000000,-6.3872643,118.35457
1826000000,-6.3813262,118.56676
1827000000,-6.3899069,118.28027
1828000000,-6.401361,118.32904
1829000000,-6.4296789,118.11359
1830000000,-6.4572668,118.15276
1831000000,-6.4497623,117.91158
1832000000,-6.4613328,118.10256
1833000000,-6.4648213,117.91411
1834000000,-6.4669366,117.67458
1835000000,-6.4716954,117.60157
1836000000,-6.4527345,117.96568
1837000000,-6.4944553,117.46419
1838000000,-6.4750547,117.45773
1839000000,-6.49614,117.33388
1840000000,-6.5249324,117.44492
1841000000,-6.5248656,117.2741
1842000000,-6.5302505,117.29424
1843000000,-6.5505366,117.31291
1844000000,-6.5547957,117.01413
1845000000,-6.558445,117.14544
1846000000,-6.5739565,116.88854
1847000000,-6.6035542,116.86644
1848000000,-6.5905209,116.81432
1849000000,-6.5995283,116.83651
1850000000,-6.6167092,116.80845
1851000000,-6.6230273,116.7552
1852000000,-6.6666498,116.72666
1853000000,-6.6465831,116.4558
1854000000,-6.6871643,116.50993
1855000000,-6.634481,116.32211
1856000000,-6.6992216,116.17018
1857000000,-6.7109256,116.23889
1858000000,-6.6875992,116.06165
1859000000,-6.729166,116.11336
1860000000,-6.7194695,115.77557
1861000000,-6.7596769,115.77319
1862000000,-6.7347178,115.87734
1863000000,-6.7659874,115.77911
1864000000,-6.7717185,115.94826
1865000000,-6.779912,115.69005
1866000000,-6.799181,115.57489
1867000000,-6.7785001,115.48899
1868000000,-6.8056884,115.48349
1869000000,-6.8595228,115.37174
1870000000,-6.8591194,115.38726
1871000000,-6.8852196,115.30376
1872000000,-6.8719668,115.21465
1873000000,-6.8665719,115.0878
1874000000,-6.8715267,115.08033
1875000000,-6.8745074,115.03797
1876000000,-6.9172673,114.64534
1877000000,-6.9270892,114.78574
1878000000,-6.9294357,115.01057
1879000000,-6.9705224,114.65092
1880000000,-6.9095645,114.34641
1881000000,-6.9774065,114.61895
1882000000,-6.9487038,114.41786
1883000000,-6.9393415,114.3504
1884000000,-7.0213156,114.30298
1885000000,-6.9979162,114.20206
1886000000,-7.0140815,113.92433
1887000000,-7.0351782,113.96609
1888000000,-7.0382991,114.11495
1889000000,-7.0581241,113.80106
1890000000,-7.0914602,113.71103
1891000000,-7.0492992,113.93623
1892000000,-7.087018,113.66363
1893000000,-7.111166,113.48409
1894000000,-7.122004,113.45853
1895000000,-7.1509981,113.48653
1896000000,-7.1212616,113.45145
1897000000,-7.1366191,113.48552
1898000000,-7.1752009,113.2798
1899000000,-7.1814947,113.07164
1900000000,-7.2047706,113.19625
1901000000,-7.2039137,113.11549
1902000000,-7.1977825,113.0965
1903000000,-7.1849661,112.76372
1904000000,-7.235405,112.85065
1905000000,-7.2765284,112.84328
1906000000,-7.2200279,112.64962
1907000000,-7.2717681,112.75325
1908000000,-7.2676272,112.4789
1909000000,-7.2958789,112.47049
1910000000,-7.3336129,112.2764
1911000000,-7.3179173,112.35538
1912000000,-7.3080349,112.14034
1913000000,-7.3217435,112.13948
1914000000,-7.3423424,112.03631
1915000000,-7.3442669,112.12492
1916000000,-7.377399,112.20339
1917000000,-7.3953371,111.84319
1918000000,-7.39045,111.68987
1919000000,-7.4135261,111.84595
1920000000,-7.4257007,111.82185
1921000000,-7.4620867,111.68324
1922000000,-7.4513106,111.3899
1923000000,-7.4793959,111.40045
1924000000,-7.4829817,111.42561
1925000000,-7.4896307,111.11754
1926000000,-7.5150251,111.2394
1927000000,-7.5138216,110.96399
1928000000,-7.548337,111.25908
1929000000,-7.5274253,111.06479
1930000000,-7.587851,111.08166
1931000000,-7.5791507,110.94876
1932000000,-7.6017618,110.86682
1933000000,-7.5962329,110.49215
1934000000,-7.6168251,110.68501
1935000000,-7.6476693,110.60383
1936000000,-7.6572943,110.35108
1937000000,-7.6636562,110.37481
1938000000,-7.7130923,110.38148
1939000000,-7.6955652,110.07022
1940000000,-7.7197366,110.15063
1941000000,-7.7111015,110.12084
1942000000,-7.7374601,109.91197
1943000000,-7.7370262,110.01437
1944000000,-7.7894845,109.76078
1945000000,-7.7345557,109.72739
1946000000,-7.7717881,109.60147
1947000000,-7.8109632,109.65118
1948000000,-7.8337522,109.42128
1949000000,-7.8206787,109.50441
1950000000,-7.8410039,109.53612
1951000000,-7.8316407,109.17387
1952000000,-7.8800974,109.1898
1953000000,-7.9101939,108.90755
1954000000,-7.8954339,109.19833
1955000000,-7.9030075,108.94032
1956000000,-7.9669094,108.86916
1957000000,-7.9387364,108.83271
1958000000,-7.9470534,108.59491
1959000000,-8.0012474,108.5583
1960000000,-8.013835,108.74746
1961000000,-8.0118885,108.45309
1962000000,-8.0121756,108.41215
1963000000,-8.0561838,108.49783
1964000000,-8.0319824,108.25297
1965000000,-8.0544977,108.2597
1966000000,-8.0830994,108.10074
1967000000,-8.0662947,108.11264
1968000000,-8.095727,107.90203
1969000000,-8.1126318,108.0568
1970000000,-8.1400194,107.62594
1971000000,-8.1425409,107.87157
1972000000,-8.2172537,107.69265
1973000000,-8.2031784,107.742
1974000000,-8.1996126,107.40901
1975000000,-8.1795225,107.5829
1976000000,-8.2324238,107.28989
1977000000,-8.2239761,107.26278
1978000000,-8.2145166,107.42016
1979000000,-8.3107443,107.24105
1980000000,-8.2863026,107.2033
1981000000,-8.3158207,107.07024
1982000000,-8.3673706,106.96728
1983000000,-8.3567314,106.88019
1984000000,-8.3624907,107.01675
1985000000,-8.3902378,107.00874
1986000000,-8.4093437,106.70418
1987000000,-8.3876829,106.7822
1988000000,-8.4351349,106.6088
1989000000,-8.4781876,106.55987
1990000000,-8.4780769,106.49074
1991000000,-8.4927654,106.35144
1992000000,-8.4897919,106.38663
1993000000,-8.549016,106.00752
1994000000,-8.541749,106.06344
1995000000,-8.564497,105.88818
1996000000,-8.5708199,106.0658
1997000000,-8.5927191,106.04337
1998000000,-8.5857534,105.8246
1999000000,-8.6257877,105.70006
2000000000,-8.6283932,105.73297
2001000000,-8.6671495,105.66204
2002000000,-8.7025633,105.60616
2003000000,-8.7045908,105.53366
2004000000,-8.7020388,105.48492
2005000000,-8.7337942,105.2622
2006000000,-8.7735329,105.37611
2007000000,-8.7590818,105.33603
2008000000,-8.7945299,105.04398
2009000000,-8.8012638,105.15111
2010000000,-8.8146896,104.99786
2011000000,-8.8043652,105.15987
2012000000,-8.8893929,105.01006
2013000000,-8.910531,104.87805
2014000000,-8.8922024,104.69113
2015000000,-8.9092274,104.5593
2016000000,-8.9671669,104.44636
2017000000,-8.9557314,104.28516
2018000000,-8.9581337,104.26781
2019000000,-8.9747667,104.40431
2020000000,-8.981802,104.17255
2021000000,-9.06359,104.18679
2022000000,-9.0238752,103.97208
2023000000,-9.0651512,103.83758
2024000000,-9.0580282,103.91272
2025000000,-9.1148767,103.65292
2026000000,-9.1527777,104.05727
2027000000,-9.15767,103.71894
2028000000,-9.2155619,103.71828
2029000000,-9.1647396,103.74405
2030000000,-9.2003365,103.47365
2031000000,-9.2132635,103.57111
2032000000,-9.2313175,103.16654
2033000000,-9.2417707,103.41007
2034000000,-9.3267937,103.32932
2035000000,-9.2778358,103.05957
2036000000,-9.3147631,103.06723
2037000000,-9.3552895,102.68149
2038000000,-9.3522873,102.93946
2039000000,-9.4032688,102.93555
2040000000,-9.4192781,102.76897
2041000000,-9.4148893,102.85878
2042000000,-9.3984003,102.85912
2043000000,-9.5097713,102.6392
2044000000,-9.4840832,102.52736
2045000000,-9.5125608,102.52514
2046000000,-9.4910879,102.30993
2047000000,-9.5624342,102.33607
2048000000,-9.5518217,102.51701
2049000000,-9.5876951,102.20124
2050000000,-9.6089125,101.91598
2051000000,-9.6215086,102.04321
2052000000,-9.6224718,102.0603
2053000000,-9.6341391,102.02199
2054000000,-9.6750107,101.97064
2055000000,-9.7131443,101.9251
2056000000,-9.7315989,101.79031
2057000000,-9.7638931,101.48195
2058000000,-9.7600079,101.59744
2059000000,-9.7951441,101.23617
2060000000,-9.7953005,101.30833
2061000000,-9.8114386,101.62574
2062000000,-9.8602333,101.32121
2063000000,-9.8941298,101.50779
2064000000,-9.8969994,101.01365
2065000000,-9.9291019,101.02242
2066000000,-9.9578371,101.09941
2067000000,-9.9743166,100.88351
2068000000,-9.9982729,101.02074
2069000000,-10.003369,101.10098
2070000000,-10.038771,101.1237
2071000000,-10.095997,100.79741
2072000000,-10.104638,100.6489
2073000000,-10.13274,100.85774
2074000000,-10.123761,100.72302
2075000000,-10.15645,100.59834
2076000000,-10.211246,100.23271
2077000000,-10.223567,100.27417
2078000000,-10.220052,100.44804
2079000000,-10.252422,100.19164
2080000000,-10.263989,100.24801
2081000000,-10.298018,100.3364
2082000000,-10.289516,100.23315
2083000000,-10.344362,99.932388
2084000000,-10.3767,99.839928
2085000000,-10.376483,100.02885
2086000000,-10.391542,99.831535
2087000000,-10.432619,99.472191
2088000000,-10.471429,99.567924
2089000000,-10.478964,99.668884
2090000000,-10.497824,99.707764
2091000000,-10.521574,99.480186
2092000000,-10.589014,99.498055
2093000000,-10.620188,99.52417
2094000000,-10.653927,99.454247
2095000000,-10.628647,99.078766
2096000000,-10.664716,99.287582
2097000000,-10.683776,99.367104
2098000000,-10.680871,99.449982
2099000000,-10.737115,99.179024
2100000000,-10.741519,98.773003
2101000000,-10.735697,98.866493
2102000000,-10.816915,98.959389
2103000000,-10.823798,98.420128
2104000000,-10.83685,98.680412
2105000000,-10.890448,98.673637
2106000000,-10.905965,98.714226
2107000000,-10.951464,98.476517
2108000000,-10.959966,98.713821
2109000000,-10.989262,98.142426
2110000000,-11.007627,98.587723
2111000000,-11.035721,98.200912
2112000000,-11.052032,98.23732
2113000000,-11.101379,98.176399
2114000000,-11.119732,97.925186
2115000000,-11.146997,97.700157
2116000000,-11.179736,97.894745
2117000000,-11.174824,97.853386
2118000000,-11.21643,97.68454
2119000000,-11.223874,97.611015
2120000000,-11.272478,97.856934
2121000000,-11.276269,97.554405
2122000000,-11.298396,97.584007
2123000000,-11.323379,97.659943
2124000000,-11.341906,97.481468
2125000000,-11.423471,97.361305
2126000000,-11.40679,97.170464
2127000000,-11.453142,97.455917
2128000000,-11.486286,97.175934
2129000000,-11.497125,97.21994
2130000000,-11.52072,97.171463
2131000000,-11.558891,97.02668
2132000000,-11.602446,96.984886
2133000000,-11.59697,97.021507
2134000000,-11.634029,96.893654
2135000000,-11.682522,96.804611
2136000000,-11.69839,96.765762
2137000000,-11.725822,96.844299
2138000000,-11.73589,96.847275
2139000000,-11.775026,96.606979
2140000000,-11.807898,96.560699
2141000000,-11.82884,96.799477
2142000000,-11.882716,96.648689
2143000000,-11.894327,96.511047
2144000000,-11.922338,96.328552
2145000000,-11.964581,96.245453
2146000000,-11.953677,96.345543
2147000000,-12.029944,96.372871
2148000000,-12.059091,96.103157
2149000000,-12.059015,96.108833
2150000000,-12.09417,96.286201
2151000000,-12.096034,96.135101
2152000000,-12.126325,96.18251
2153000000,-12.173098,96.039169
2154000000,-12.155529,95.902596
2155000000,-12.237201,95.59684
2156000000,-12.248424,95.923744
2157000000,-12.281725,95.790649
2158000000,-12.283398,95.615089
2159000000,-12.352432,95.732529
2160000000,-12.357207,95.357048
2161000000,-12.396945,95.391571
2162000000,-12.399998,95.408531
2163000000,-12.486453,95.322655
2164000000,-12.496327,95.421204
2165000000,-12.520605,95.439926
2166000000,-12.564225,95.267174
2167000000,-12.555014,95.285164
2168000000,-12.601509,95.441612
2169000000,-12.674323,95.176529
2170000000,-12.660849,95.43428
2171000000,-12.687339,95.205086
2172000000,-12.734797,94.986183
2173000000,-12.797718,94.922073
2174000000,-12.785716,95.054443
2175000000,-12.833194,94.861046
2176000000,-12.887498,94.803352
2177000000,-12.90327,95.039818
2178000000,-12.913216,94.803406
2179000000,-12.933686,94.691284
2180000000,-12.970238,94.612038
2181000000,-13.016826,94.947517
2182000000,-13.00007,94.736046
2183000000,-13.06016,94.514198
2184000000,-13.091118,94.581276
2185000000,-13.140341,94.589455
2186000000,-13.179643,94.304916
2187000000,-13.202518,94.319344
2188000000,-13.216064,94.446083
2189000000,-13.273415,94.372742
2190000000,-13.283567,94.361893
2191000000,-13.319066,94.32711
2192000000,-13.37333,94.196152
2193000000,-13.386292,94.057106
2194000000,-13.447518,94.097862
2195000000,-13.441959,94.370941
2196000000,-13.49293,93.868591
2197000000,-13.491588,93.989647
2198000000,-13.542377,94.062569
2199000000,-13.553349,94.084724
2200000000,-13.621364,93.825249
2201000000,-13.63437,93.632874
2202000000,-13.698253,93.875938
2203000000,-13.696052,93.561882
2204000000,-13.741215,93.724503
2205000000,-13.767042,93.736382
2206000000,-13.809648,93.755058
2207000000,-13.849973,93.731796
2208000000,-13.870914,93.614075
2209000000,-13.903143,93.502068
2210000000,-13.952808,93.804237
2211000000,-13.967859,93.651672
2212000000,-14.037502,93.461433
2213000000,-14.058474,93.5709
2214000000,-14.0865,93.443626
2215000000,-14.14721,93.460457
2216000000,-14.15175,93.398804
2217000000,-14.205925,93.463104
2218000000,-14.210161,93.554451
2219000000,-14.255367,93.315788
2220000000,-14.322302,93.344116
2221000000,-14.356299,93.202385
2222000000,-14.364373,93.223679
2223000000,-14.386797,93.422318
2224000000,-14.45321,93.400116
2225000000,-14.467607,93.051125
2226000000,-14.529787,93.257454
2227000000,-14.540011,93.164124
2228000000,-14.550118,93.302109
2229000000,-14.59486,93.188347
2230000000,-14.617963,92.900078
2231000000,-14.653104,92.839264
2232000000,-14.715795,92.837051
2233000000,-14.756651,92.918152
2234000000,-14.804288,93.006081
2235000000,-14.820328,92.978195
2236000000,-14.868274,92.661621
2237000000,-14.919851,92.919708
2238000000,-14.915012,92.996002
2239000000,-15.009351,92.774811
2240000000,-15.012139,92.850067
2241000000,-15.046155,92.527161
2242000000,-15.073532,92.911446
2243000000,-15.127192,92.680153
2244000000,-15.147276,92.853912
2245000000,-15.20568,92.529015
2246000000,-15.270315,92.6073
2247000000,-15.262581,92.5765
2248000000,-15.329756,92.603676
2249000000,-15.338951,92.52108
2250000000,-15.399895,92.62915
2251000000,-15.412886,92.671349
2252000000,-15.451004,92.538887
2253000000,-15.484519,92.488762
2254000000,-15.535635,92.625343
2255000000,-15.60168,92.327217
2256000000,-15.627692,92.470757
2257000000,-15.668617,92.584953
2258000000,-15.699309,92.400719
2259000000,-15.765947,92.489807
2260000000,-15.808831,92.207108
2261000000,-15.832657,92.422386
2262000000,-15.888888,92.365654
2263000000,-15.874519,92.390236
2264000000,-15.957309,92.12429
2265000000,-15.978075,92.407394
2266000000,-16.038612,92.363792
2267000000,-16.092289,92.215248
2268000000,-16.150965,92.170708
2269000000,-16.18471,92.620872
2270000000,-16.196354,92.331001
2271000000,-16.251135,92.383934
2272000000,-16.299215,92.406372
2273000000,-16.361364,92.317665
2274000000,-16.368443,92.198509
2275000000,-16.444763,92.330482
2276000000,-16.515427,92.325211
2277000000,-16.500458,92.13414
2278000000,-16.574602,92.308212
2279000000,-16.621815,92.184006
2280000000,-16.668423,92.189522
2281000000,-16.710913,92.122307
2282000000,-16.745451,92.49691
2283000000,-16.783327,92.275589
2284000000,-16.81385,91.939423
2285000000,-16.904001,92.076103
2286000000,-16.923191,91.885773
2287000000,-16.958265,92.200951
2288000000,-17.031731,92.441048
2289000000,-17.075047,92.014183
2290000000,-17.137232,92.070694
2291000000,-17.165154,92.133583
2292000000,-17.201193,92.408249
2293000000,-17.262995,92.128212
2294000000,-17.287226,91.986145
2295000000,-17.383207,92.232101
2296000000,-17.410841,92.246414
2297000000,-17.469553,92.103523
2298000000,-17.508345,92.167328
2299000000,-17.540445,92.157814
2300000000,-17.613489,92.228355
2301000000,-17.649876,92.162186
2302000000,-17.688242,92.269928
2303000000,-17.750237,92.170174
2304000000,-17.83709,92.188225
2305000000,-17.848793,92.132889
2306000000,-17.871309,92.13121
2307000000,-17.955997,92.372734
2308000000,-18.001133,92.067238
2309000000,-18.034571,92.137856
2310000000,-18.094151,92.500572
2311000000,-18.076509,92.169945
2312000000,-18.23443,92.132088
2313000000,-18.238482,92.287056
2314000000,-18.286507,92.367516
2315000000,-18.329399,92.483696
2316000000,-18.38533,92.310181
2317000000,-18.466471,92.710136
2318000000,-18.464333,92.39624
2319000000,-18.553196,92.499962
2320000000,-18.611225,92.452728
2321000000,-18.665323,92.50029
2322000000,-18.699303,92.443398
2323000000,-18.768684,92.858772
2324000000,-18.830753,92.48542
2325000000,-18.891153,92.700043
2326000000,-18.996593,92.93602
2327000000,-18.994333,92.663124
2328000000,-19.059896,92.702667
2329000000,-19.10433,92.477852
2330000000,-19.178923,92.845932
2331000000,-19.228374,92.840935
2332000000,-19.281067,92.940971
2333000000,-19.332832,92.939018
2334000000,-19.4032,92.960075
2335000000,-19.471737,93.088593
2336000000,-19.519876,92.989265
2337000000,-19.623051,93.191093
2338000000,-19.686588,93.249542
2339000000,-19.695868,92.90789
2340000000,-19.727917,93.201591
2341000000,-19.896259,93.48201
2342000000,-19.877657,93.278893
2343000000,-19.953646,93.214981
2344000000,-19.973234,93.336441
2345000000,-20.159519,93.571945
2346000000,-20.154634,93.68119
2347000000,-20.207703,93.636154
2348000000,-20.273386,93.634369
2349000000,-20.322113,93.751068
2350000000,-20.378714,93.710411
2351000000,-20.453829,93.789063
2352000000,-20.497494,94.04673
2353000000,-20.610416,94.222778
2354000000,-20.673967,94.026947
2355000000,-20.706091,94.471848
2356000000,-20.794569,94.050529
2357000000,-20.914442,94.458519
2358000000,-20.890074,94.386902
2359000000,-20.968794,94.660683
2360000000,-21.062445,94.863419
2361000000,-21.070196,94.741997
2362000000,-21.245548,95.039047
2363000000,-21.274391,94.766121
2364000000,-21.34091,95.289345
2365000000,-21.435026,94.98661
2366000000,-21.468441,95.086258
2367000000,-21.531538,95.301353
2368000000,-21.607426,95.808716
2369000000,-21.682653,95.706787
2370000000,-21.745022,96.019463
2371000000,-21.796177,95.477043
2372000000,-21.928703,95.79409
2373000000,-21.908962,96.006783
2374000000,-22.043221,95.710999
2375000000,-22.107029,96.033669
2376000000,-22.218052,96.146233
2377000000,-22.28109,96.871895
2378000000,-22.321882,96.612434
2379000000,-22.384617,96.854149
2380000000,-22.509439,96.689163
2381000000,-22.590452,97.264786
2382000000,-22.64032,96.838554
2383000000,-22.683519,97.302742
2384000000,-22.816334,97.543877
2385000000,-22.897812,97.496239
2386000000,-22.920111,97.823006
2387000000,-23.018808,97.958618
2388000000,-23.172104,98.215408
2389000000,-23.24395,97.998001
2390000000,-23.224033,97.787674
2391000000,-23.414711,98.363358
2392000000,-23.436844,99.303383
2393000000,-23.606359,99.164505
2394000000,-23.669012,98.50602
2395000000,-23.773424,99.357277
2396000000,-23.853048,99.212341
2397000000,-23.883797,99.517273
2398000000,-24.018274,100.34108
2399000000,-24.007179,100.20719
2400000000,-24.169128,100.43427
2401000000,-24.247328,100.41663
2402000000,-24.313448,100.8189
2403000000,-24.387999,100.67862
2404000000,-24.556419,101.12171
2405000000,-24.62344,101.47393
2406000000,-24.753536,101.93188
2407000000,-24.755377,102.07742
2408000000,-24.865604,102.45044
2409000000,-25.046843,102.61316
2410000000,-25.02076,102.65893
2411000000,-25.179501,102.68626
2412000000,-25.223415,103.55474
2413000000,-25.347496,103.85639
2414000000,-25.411488,103.94013
2415000000,-25.470541,104.26823
2416000000,-25.555725,104.72372
2417000000,-25.610779,104.88163
2418000000,-25.878183,105.08963
2419000000,-25.893501,105.88857
2420000000,-26.042759,106.24427
2421000000,-26.044968,106.30553
2422000000,-26.163748,106.47451
2423000000,-26.340174,106.94888
2424000000,-26.386116,108.41601
2425000000,-26.534626,107.8749
2426000000,-26.66811,108.37246
2427000000,-26.676647,108.39927
2428000000,-27.007288,109.42144
2429000000,-26.956686,109.04527
2430000000,-27.004709,110.52053
2431000000,-27.170368,110.63986
2432000000,-27.259367,111.24682
2433000000,-27.399822,111.62635
2434000000,-27.567873,111.88699
2435000000,-27.642923,112.15494
2436000000,-27.745176,112.26706
2437000000,-27.857731,114.24061
2438000000,-28.052855,114.24683
2439000000,-28.111609,115.06342
2440000000,-28.225378,115.24018
2441000000,-28.349575,116.02821
2442000000,-28.305311,116.62031
2443000000,-28.66765,117.4902
2444000000,-28.566765,118.05807
2445000000,-28.70203,117.92882
2446000000,-28.881821,119.66045
2447000000,-28.936111,120.2632
2448000000,-29.043777,121.08905
2449000000,-29.147758,121.37565
2450000000,-29.399773,121.94737
2451000000,-29.436516,123.54507
2452000000,-29.563833,124.84213
2453000000,-29.610203,125.74634
2454000000,-29.545147,125.7565
2455000000,-29.738262,125.55176
2456000000,-29.760244,128.06252
2457000000,-29.970247,129.04379
2458000000,-30.20857,128.85515
2459000000,-30.152798,129.69438
2460000000,-30.365902,131.65511
2461000000,-30.654984,131.68555
2462000000,-30.521938,132.51671
2463000000,-30.479391,134.85561
2464000000,-30.617418,136.93082
2465000000,-30.737589,136.74504
2466000000,-31.002268,137.97847
2467000000,-30.961746,138.85736
2468000000,-31.047543,139.41412
2469000000,-31.084955,142.80685
2470000000,-31.240816,142.35857
2471000000,-31.290138,144.45706
2472000000,-31.14986,145.14563
2473000000,-31.497683,146.25066
2474000000,-31.493309,147.14249
2475000000,-31.339973,148.66595
2476000000,-31.42597,149.74139
2477000000,-31.481255,150.9747
2478000000,-31.609879,152.29735
2479000000,-31.608364,152.50447
2480000000,-31.601746,154.8334
2481000000,-31.504471,156.34738
2482000000,-31.713774,157.66971
2483000000,-31.601542,158.77014
2484000000,-31.707134,159.30524
2485000000,-31.583553,160.30324
2486000000,-31.72444,162.7616
2487000000,-31.581059,165.2052
2488000000,-31.829893,165.56427
2489000000,-31.563759,165.62445
2490000000,-31.534222,167.95906
2491000000,-31.541512,168.89879
2492000000,-31.570389,171.24171
2493000000,-31.511465,172.52179
2494000000,-31.442379,173.37784
2495000000,-31.343554,175.99855
2496000000,-31.233547,176.44171
2497000000,-31.415253,177.48717
2498000000,-31.399466,178.96718
2499000000,-31.286175,180.90865
2500000000,-31.071037,182.02432
2501000000,-31.012304,182.06932
2502000000,-31.064049,182.54788
2503000000,-30.732285,184.50377
2504000000,-30.788097,186.95863
2505000000,-30.63332,187.88156
2506000000,-30.604122,189.12036
2507000000,-30.553312,189.90599
2508000000,-30.491865,189.6194
2509000000,-30.274178,191.21181
2510000000,-30.200722,192.10158
2511000000,-30.170252,193.73599
2512000000,-30.19684,195.51486
2513000000,-29.924358,194.41171
2514000000,-29.894644,195.07622
2515000000,-29.730026,196.6846
2516000000,-29.611811,197.97043
2517000000,-29.629168,199.15996
2518000000,-29.49917,200.41731
2519000000,-29.285582,200.49803
2520000000,-29.345102,201.15826
2521000000,-29.106243,201.81429
2522000000,-29.149067,202.32552
2523000000,-29.005672,204.02951
2524000000,-28.899918,204.81075
2525000000,-28.916847,205.89482
2526000000,-28.760036,206.18817
2527000000,-28.615517,206.53146
2528000000,-28.439854,207.27951
2529000000,-28.336517,207.09753
2530000000,-28.270243,208.00172
2531000000,-28.170979,207.92773
2532000000,-28.112619,208.82054
2533000000,-28.002409,209.88905
2534000000,-27.842373,210.12413
2535000000,-27.746567,210.58664
2536000000,-27.605158,211.30186
2537000000,-27.594707,211.01151
2538000000,-27.515247,212.93887
2539000000,-27.398462,213.1105
2540000000,-27.238585,213.22417
2541000000,-27.149874,213.53761
2542000000,-27.064543,214.52318
2543000000,-27.031233,214.45628
2544000000,-26.892733,215.06633
2545000000,-26.790527,214.43997
2546000000,-26.6322,216.07973
2547000000,-26.590872,215.84755
2548000000,-26.437258,216.8701
2549000000,-26.337198,215.93846
2550000000,-26.320314,217.30247
2551000000,-26.275888,216.99124
2552000000,-26.047226,217.49696
2553000000,-25.944065,218.38135
2554000000,-25.97205,218.26494
2555000000,-25.811871,217.99258
2556000000,-25.712685,219.08572
2557000000,-25.740753,218.64139
2558000000,-25.645676,218.91393
2559000000,-25.479807,219.78304
2560000000,-25.425533,219.81653
2561000000,-25.263609,220.33051
2562000000,-25.137659,220.89622
2563000000,-25.134954,220.26645
2564000000,-25.155653,220.89508
2565000000,-24.996326,221.37856
2566000000,-24.804995,221.56621
2567000000,-24.863674,221.42061
2568000000,-24.648125,221.87157
2569000000,-24.594025,223.1337
2570000000,-24.339764,222.11267
2571000000,-24.51795,222.46185
2572000000,-24.373583,222.8555
2573000000,-24.314499,222.84894
2574000000,-24.092484,223.67851
2575000000,-24.149021,223.88739
2576000000,-24.011595,223.1985
2577000000,-23.93869,223.43608
2578000000,-23.872072,223.47391
2579000000,-23.737885,224.29659
2580000000,-23.693598,223.48663
2581000000,-23.652023,224.11578
2582000000,-23.56332,224.88182
2583000000,-23.541685,225.11557
2584000000,-23.389856,225.0457
2585000000,-23.377722,225.65321
2586000000,-23.301298,225.4525
2587000000,-23.209177,225.43498
2588000000,-23.143753,225.48517
2589000000,-22.951324,225.65341
2590000000,-22.986822,226.00473
2591000000,-22.946566,226.27747
2592000000,-22.841705,226.76617
2593000000,-22.78723,226.21053
2594000000,-22.715656,226.87956
2595000000,-22.672525,226.53938
2596000000,-22.51885,226.86909
2597000000,-22.427303,226.62029
2598000000,-22.346416,226.96271
2599000000,-22.354227,226.95949
2600000000,-22.328749,227.0508
2601000000,-22.229107,227.29944
2602000000,-22.085453,227.73727
2603000000,-22.086508,227.66327
2604000000,-21.996788,227.8788
2605000000,-21.976511,227.53261
2606000000,-21.827728,227.82056
2607000000,-21.811794,227.91653
2608000000,-21.778391,227.84442
2609000000,-21.75292,228.22804
2610000000,-21.617826,227.7975
2611000000,-21.539204,228.13086
2612000000,-21.46022,228.50645
2613000000,-21.371998,228.46713
2614000000,-21.368969,228.29652
2615000000,-21.283573,228.52722
2616000000,-21.26133,228.72949
2617000000,-21.253918,228.90724
2618000000,-21.264832,228.36633
2619000000,-21.138868,228.86127
2620000000,-20.966812,228.49702
2621000000,-21.055866,228.91351
2622000000,-20.848877,228.69485
2623000000,-20.860878,229.15764
2624000000,-20.784195,228.87511
2625000000,-20.695723,228.57324
2626000000,-20.708265,229.27423
2627000000,-20.548077,229.20992
2628000000,-20.528429,228.94635
2629000000,-20.539009,229.05208
2630000000,-20.511065,229.21416
2631000000,-20.482513,229.12357
2632000000,-20.352129,229.62973
2633000000,-20.339045,229.43166
2634000000,-20.220556,229.61711
2635000000,-20.191917,229.79642
2636000000,-20.122898,229.59444
2637000000,-20.153238,229.82986
2638000000,-20.035255,229.34494
2639000000,-19.953272,229.80202
2640000000,-19.896086,230.0226
2641000000,-19.860363,229.99785
2642000000,-19.776127,230.18295
2643000000,-19.808924,230.18748
2644000000,-19.685011,229.77092
2645000000,-19.690052,230.06955
2646000000,-19.618862,229.52591
2647000000,-19.582685,230.13716
2648000000,-19.538393,229.77029
2649000000,-19.488153,229.84581
2650000000,-19.460636,230.476
2651000000,-19.428667,230.27911
2652000000,-19.381577,230.21126
2653000000,-19.299129,229.9836
2654000000,-19.257154,229.96982
2655000000,-19.191158,229.87502
2656000000,-19.157969,230.19878
2657000000,-19.141195,230.30428
2658000000,-19.046953,230.1385
2659000000,-18.993504,230.26057
2660000000,-18.983181,230.14194
2661000000,-18.989491,230.05206
2662000000,-18.924166,230.61383
2663000000,-18.851166,230.30603
2664000000,-18.866592,229.92184
2665000000,-18.750637,230.19833
2666000000,-18.710464,230.16661
2667000000,-18.673532,230.44843
2668000000,-18.618559,230.76352
2669000000,-18.616089,230.22052
2670000000,-18.544153,230.54126
2671000000,-18.526386,229.95477
2672000000,-18.495123,230.08131
2673000000,-18.406384,230.33945
2674000000,-18.453396,230.22495
2675000000,-18.365812,230.37654
2676000000,-18.357777,230.46774
2677000000,-18.291946,230.2021
2678000000,-18.260717,230.60226
2679000000,-18.200733,230.44843
2680000000,-18.10977,230.35608
2681000000,-18.114672,230.59511
2682000000,-18.032343,230.59769
2683000000,-18.061895,230.26857
2684000000,-17.939259,230.55536
2685000000,-17.896624,230.31197
2686000000,-17.924515,230.52605
2687000000,-17.845335,230.27448
2688000000,-17.81638,230.43881
2689000000,-17.821161,230.45078
2690000000,-17.740282,230.51814
2691000000,-17.666622,230.3447
2692000000,-17.649,230.28511
2693000000,-17.591976,230.19046
2694000000,-17.59639,230.54488
2695000000,-17.565922,230.20216
2696000000,-17.534945,230.43124
2697000000,-17.477278,230.13492
2698000000,-17.471214,230.15016
2699000000,-17.424757,230.26393
2700000000,-17.335238,230.01244
2701000000,-17.327682,230.48528
2702000000,-17.243288,230.32567
2703000000,-17.252758,230.13667
2704000000,-17.217703,229.96823
2705000000,-17.188013,230.02058
2706000000,-17.133196,230.11963
2707000000,-17.115711,230.12158
2708000000,-17.061436,230.14864
2709000000,-16.924128,230.23438
2710000000,-16.962151,229.98589
2711000000,-16.944481,230.27068
2712000000,-16.923517,230.18451
2713000000,-16.879116,229.92885
2714000000,-16.873068,230.1514
2715000000,-16.839952,229.89799
2716000000,-16.767595,230.16776
2717000000,-16.757362,230.06012
2718000000,-16.687941,230.28809
2719000000,-16.689722,230.0435
2720000000,-16.658283,230.20241
2721000000,-16.635637,230.37045
2722000000,-16.57123,230.06949
2723000000,-16.55471,230.60782
2724000000,-16.472931,230.52815
2725000000,-16.55011,230.00264
2726000000,-16.490171,229.42456
2727000000,-16.402006,229.99757
2728000000,-16.38435,229.79808
2729000000,-16.340313,229.8493
2730000000,-16.322515,229.40923
2731000000,-16.225992,229.4707
2732000000,-16.248327,229.7048
2733000000,-16.210978,229.84691
2734000000,-16.212433,229.67195
2735000000,-16.124004,229.69028
2736000000,-16.140299,229.7567
2737000000,-16.066385,229.18471
2738000000,-16.037046,229.87746
2739000000,-15.9614,228.95393
2740000000,-15.990855,229.29572
2741000000,-15.91798,229.29535
2742000000,-15.948122,228.86064
2743000000,-15.858489,229.14055
2744000000,-15.874903,229.28888
2745000000,-15.788196,229.48848
2746000000,-15.851031,228.99854
2747000000,-15.854591,229.52252
2748000000,-15.729168,229.67528
2749000000,-15.696055,229.38686
2750000000,-15.658023,228.88547
2751000000,-15.679797,228.78447
2752000000,-15.651436,229.03305
2753000000,-15.591449,228.8871
2754000000,-15.582353,229.32565
2755000000,-15.542269,229.40825
2756000000,-15.481923,228.88997
2757000000,-15.552749,229.23691
2758000000,-15.461593,229.1225
2759000000,-15.431268,229.30173
2760000000,-15.423852,229.01653
2761000000,-15.337281,229.21278
2762000000,-15.327532,228.64948
2763000000,-15.269898,228.77515
2764000000,-15.235628,228.87617
2765000000,-15.261701,228.82111
2766000000,-15.16405,228.90062
2767000000,-15.182262,228.72879
2768000000,-15.126853,228.97467
2769000000,-15.102874,229.0144
2770000000,-15.09086,228.68155
2771000000,-15.037643,228.80659
2772000000,-15.044589,228.61313
2773000000,-14.998149,228.57283
2774000000,-14.945623,228.73433
2775000000,-14.97926,228.97588
2776000000,-14.931317,228.59926
2777000000,-14.905463,228.28197
2778000000,-14.843387,228.75298
2779000000,-14.770374,228.4614
2780000000,-14.790369,228.44157
2781000000,-14.771801,228.10762
2782000000,-14.726383,228.44638
2783000000,-14.734437,228.27205
2784000000,-14.706179,228.14636
2785000000,-14.699761,228.39229
2786000000,-14.652739,228.08179
2787000000,-14.639289,227.86197
2788000000,-14.662387,227.74429
2789000000,-14.550928,228.20464
2790000000,-14.562774,227.99252
2791000000,-14.552227,228.05008
2792000000,-14.54025,227.78183
2793000000,-14.487389,227.8495
2794000000,-14.418149,227.80009
2795000000,-14.389236,227.72057
2796000000,-14.309612,228.06061
2797000000,-14.357586,227.95215
2798000000,-14.3413,227.76178
2799000000,-14.301167,227.95177
2800000000,-14.293009,228.06874
2801000000,-14.318354,227.67009
2802000000,-14.287625,227.87794
2803000000,-14.256404,227.76956
2804000000,-14.235695,227.38295
2805000000,-14.172917,228.03319
2806000000,-14.151845,227.87495
2807000000,-14.170355,227.29486
2808000000,-14.092305,227.85933
2809000000,-14.110084,227.62648
2810000000,-14.01772,227.27899
2811000000,-14.033211,227.42754
2812000000,-13.997896,227.28683
2813000000,-13.962475,227.14735
2814000000,-13.954538,227.29504
2815000000,-13.926372,226.98753
2816000000,-13.907823,227.0654
2817000000,-13.909156,227.17856
2818000000,-13.893864,227.16631
2819000000,-13.855441,226.99982
2820000000,-13.848577,227.10811
2821000000,-13.806118,226.92065
2822000000,-13.747152,226.75356
2823000000,-13.765791,226.80484
2824000000,-13.757649,226.75281
2825000000,-13.684622,227.08725
2826000000,-13.635571,226.66389
2827000000,-13.661701,226.82597
2828000000,-13.607243,226.65828
2829000000,-13.60616,226.75548
2830000000,-13.599893,226.79845
2831000000,-13.571435,226.53848
2832000000,-13.542697,226.28694
2833000000,-13.543465,226.49194
2834000000,-13.513115,226.33586
2835000000,-13.495826,226.40526
2836000000,-13.468721,226.37129
2837000000,-13.378381,226.51909
2838000000,-13.398436,225.93391
2839000000,-13.457483,225.93466
2840000000,-13.418901,226.15077
2841000000,-13.421356,226.1779
2842000000,-13.284291,226.24216
2843000000,-13.291276,225.59412
2844000000,-13.209081,225.86343
2845000000,-13.22104,225.79213
2846000000,-13.227112,225.9698
2847000000,-13.213456,225.80042
2848000000,-13.115799,225.59618
2849000000,-13.205896,225.7847
2850000000,-13.173042,226.11049
2851000000,-13.121409,225.6978
2852000000,-13.106782,225.51152
2853000000,-13.068288,225.44464
2854000000,-13.024426,225.65646
2855000000,-13.097311,225.45946
2856000000,-13.073597,225.48651
2857000000,-12.963491,225.4332
2858000000,-12.933257,225.18309
2859000000,-12.925537,225.0116
2860000000,-12.960235,225.42595
2861000000,-12.924997,225.20946
2862000000,-12.931451,225.20891
2863000000,-12.909824,225.0759
2864000000,-12.897487,225.51616
2865000000,-12.793519,225.0365
2866000000,-12.80947,224.97554
2867000000,-12.815456,225.01863
2868000000,-12.775161,224.4334
2869000000,-12.741668,224.55322
2870000000,-12.714685,225.01012
2871000000,-12.712946,224.72107
2872000000,-12.704412,224.99042
2873000000,-12.697747,224.86237
2874000000,-12.675844,224.63336
2875000000,-12.647919,224.84416
2876000000,-12.621762,224.67824
2877000000,-12.630748,224.65173
2878000000,-12.549394,224.38803
2879000000,-12.600736,223.92882
2880000000,-12.556856,224.02922
2881000000,-12.575505,224.31342
2882000000,-12.520063,224.21748
2883000000,-12.527136,224.00526
2884000000,-12.510315,223.95227
2885000000,-12.465096,223.64639
2886000000,-12.474527,223.81053
2887000000,-12.418127,224.35507
2888000000,-12.419665,223.78581
2889000000,-12.397389,223.87827
2890000000,-12.380708,224.02388
2891000000,-12.363886,223.62076
2892000000,-12.337043,223.84312
2893000000,-12.313419,223.53009
2894000000,-12.323931,223.87259
2895000000,-12.280456,223.49213
2896000000,-12.258896,223.3649
2897000000,-12.220329,223.57677
2898000000,-12.233728,223.18234
2899000000,-12.189666,223.36232
2900000000,-12.213525,223.06871
2901000000,-12.224106,223.46227
2902000000,-12.148723,223.29953
2903000000,-12.148329,222.98787
2904000000,-12.101556,222.73038
2905000000,-12.09236,222.91638
2906000000,-12.058233,223.05212
2907000000,-12.034079,222.89624
2908000000,-12.001928,222.81244
2909000000,-12.061176,223.02898
2910000000,-12.011082,222.61288
2911000000,-11.951103,222.27068
2912000000,-11.946218,222.40717
2913000000,-11.948785,222.31528
2914000000,-11.960355,222.70238
2915000000,-11.880836,222.64729
2916000000,-11.922299,222.45712
2917000000,-11.879079,222.37535
2918000000,-11.899672,222.28673
2919000000,-11.834402,222.07895
2920000000,-11.798912,222.3799
2921000000,-11.775059,222.01563
2922000000,-11.78931,221.9817
2923000000,-11.767054,222.32841
2924000000,-11.754448,221.99911
2925000000,-11.738947,221.90137
2926000000,-11.704884,221.7552
2927000000,-11.697901,221.65752
2928000000,-11.678515,221.66901
2929000000,-11.687847,221.69077
2930000000,-11.694628,221.84261
2931000000,-11.661167,221.7453
2932000000,-11.601041,221.74187
2933000000,-11.619975,221.70674
2934000000,-11.588284,221.59895
2935000000,-11.573447,221.32233
2936000000,-11.535551,221.31802
2937000000,-11.551878,221.06056
2938000000,-11.528358,221.27745
2939000000,-11.487642,221.14906
2940000000,-11.532475,220.71703
2941000000,-11.457193,221.11476
2942000000,-11.460397,221.24191
2943000000,-11.41195,220.89096
2944000000,-11.441957,220.84743
2945000000,-11.386801,220.27429
2946000000,-11.447224,220.59615
2947000000,-11.373383,220.54739
2948000000,-11.373816,220.4687
2949000000,-11.381164,220.2168
2950000000,-11.297597,220.91447
2951000000,-11.38097,220.58519
2952000000,-11.319871,220.61713
2953000000,-11.248512,220.45239
2954000000,-11.31801,220.6254
2955000000,-11.282454,220.24995
2956000000,-11.224908,220.26637
2957000000,-11.222731,220.17348
2958000000,-11.229834,220.68945
2959000000,-11.188963,220.39343
2960000000,-11.169271,220.20285
2961000000,-11.128963,219.94934
2962000000,-11.144118,219.5209
2963000000,-11.199216,220.00722
2964000000,-11.131832,219.90927
2965000000,-11.103042,219.55882
2966000000,-11.066508,219.70821
2967000000,-11.079081,219.60823
2968000000,-11.072393,219.71432
2969000000,-11.074835,219.68608
2970000000,-11.0578,219.61333
2971000000,-10.999893,219.08987
2972000000,-11.009883,219.40921
2973000000,-11.010096,219.40604
2974000000,-11.000243,219.23553
2975000000,-10.923493,219.05547
2976000000,-10.955849,218.86653
2977000000,-10.896418,218.98579
2978000000,-10.921486,218.73637
2979000000,-10.879744,218.9472
2980000000,-10.932006,218.94096
2981000000,-10.842782,218.82143
2982000000,-10.884851,218.81186
2983000000,-10.842839,218.86717
2984000000,-10.795484,218.59729
2985000000,-10.800217,218.36102
2986000000,-10.785342,218.2834
2987000000,-10.798633,218.47656
2988000000,-10.783495,218.55609
2989000000,-10.719279,218.24706
2990000000,-10.699636,218.37338
2991000000,-10.734697,218.09964
2992000000,-10.698678,218.38353
2993000000,-10.727502,218.22342
2994000000,-10.682323,218.03835
2995000000,-10.657665,218.04602
2996000000,-10.639982,218.10287
2997000000,-10.638344,218.2961
2998000000,-10.632493,217.67563
2999000000,-10.614774,217.90993
3000000000,-10.627954,217.91576
3001000000,-10.583147,217.6857
3002000000,-10.573989,217.72803
3003000000,-10.562459,217.62758
3004000000,-10.548351,217.50134
3005000000,-10.529238,217.42964
3006000000,-10.542027,217.41544
3007000000,-10.506845,217.22845
3008000000,-10.509808,217.28949
3009000000,-10.460645,216.99738
3010000000,-10.487978,217.1217
3011000000,-10.487359,217.0582
3012000000,-10.41384,217.10799
3013000000,-10.396667,217.10129
3014000000,-10.403513,216.74931
3015000000,-10.394773,217.07742
3016000000,-10.393277,217.16048
3017000000,-10.357254,216.90111
3018000000,-10.396205,216.71512
3019000000,-10.38315,216.82994
3020000000,-10.335697,216.73032
3021000000,-10.315919,216.60962
3022000000,-10.324058,216.40849
3023000000,-10.312786,216.34781
3024000000,-10.277717,216.16098
3025000000,-10.263233,215.96129
3026000000,-10.277719,216.0649
3027000000,-10.277613,216.39157
3028000000,-10.224554,216.49425
3029000000,-10.21981,215.99503
3030000000,-10.21279,215.96797
3031000000,-10.200769,215.87956
3032000000,-10.175191,215.71933
3033000000,-10.213499,215.9474
3034000000,-10.173422,215.75624
3035000000,-10.089297,215.74605
3036000000,-10.170184,215.80177
3037000000,-10.070355,215.44727
3038000000,-10.12585,215.6729
3039000000,-10.132154,215.64305
3040000000,-10.081371,215.39915
3041000000,-10.101192,215.24315
3042000000,-10.086726,215.69835
3043000000,-10.055781,215.24887
3044000000,-10.096326,215.06372
3045000000,-10.029089,215.13139
3046000000,-9.9994164,215.06001
3047000000,-10.035597,215.21762
3048000000,-10.025691,214.84763
3049000000,-10.017488,215.05222
3050000000,-9.9821138,214.99075
3051000000,-9.9747534,214.94432
3052000000,-10.007139,214.79524
3053000000,-9.9544344,214.748
3054000000,-9.8955536,214.58426
3055000000,-9.9881277,214.52071
3056000000,-9.939455,214.25121
3057000000,-9.8908167,214.46187
3058000000,-9.9438534,213.93404
3059000000,-9.9013748,214.13405
3060000000,-9.875102,213.95149
3061000000,-9.8517914,214.04662
3062000000,-9.8610239,214.17273
3063000000,-9.8535204,214.21979
3064000000,-9.7810783,214.1356
3065000000,-9.8014336,213.93918
3066000000,-9.8050346,213.9397
3067000000,-9.8793697,214.04469
3068000000,-9.7608376,213.9718
3069000000,-9.7639103,213.78725
3070000000,-9.7780437,213.54366
3071000000,-9.7749443,213.47658
3072000000,-9.7411766,213.50479
3073000000,-9.7070084,213.26622
3074000000,-9.6919317,213.24449
3075000000,-9.678894,213.23256
3076000000,-9.6513824,213.47894
3077000000,-9.6607294,213.4566
3078000000,-9.6806974,213.14009
3079000000,-9.6745749,213.12889
3080000000,-9.6499443,212.99132
3081000000,-9.6709318,212.79271
3082000000,-9.5878963,213.06668
3083000000,-9.6122217,212.80365
3084000000,-9.6221514,213.24443
3085000000,-9.621151,212.9119
3086000000,-9.5858364,212.78963
3087000000,-9.6023006,212.58197
3088000000,-9.6069698,212.35927
3089000000,-9.5332355,212.43231
3090000000,-9.5251446,212.52055
3091000000,-9.5797758,212.25284
3092000000,-9.5496197,212.42133
3093000000,-9.5039616,212.12674
3094000000,-9.4884434,212.3472
3095000000,-9.5256662,211.69647
3096000000,-9.507761,211.83217
3097000000,-9.4802456,211.82362
3098000000,-9.4851007,211.88336
3099000000,-9.4904385,211.85065
3100000000,-9.4727783,211.65553
3101000000,-9.4849215,211.78778
3102000000,-9.4180365,211.72789
3103000000,-9.4222002,211.48332
3104000000,-9.4025126,211.37794
3105000000,-9.4309177,211.59885
3106000000,-9.4130507,211.32423
3107000000,-9.3846416,211.491
3108000000,-9.3994875,211.23599
3109000000,-9.3422508,211.02408
3110000000,-9.3715219,210.96593
3111000000,-9.3415661,211.19994
3112000000,-9.324091,210.96228
3113000000,-9.3134317,211.09302
3114000000,-9.3066759,211.065
3115000000,-9.2850742,210.55495
3116000000,-9.2420769,210.88722
3117000000,-9.2973461,210.7581
3118000000,-9.2724333,210.54291
3119000000,-9.2893744,210.80441
3120000000,-9.2455816,210.56973
3121000000,-9.2417583,210.6727
3122000000,-9.2928114,210.34079
3123000000,-9.2367373,210.39951
3124000000,-9.2157278,210.54242
3125000000,-9.201786,210.11151
3126000000,-9.2197618,210.1479
3127000000,-9.1811409,210.09341
3128000000,-9.2007847,210.14264
3129000000,-9.1697369,209.71814
3130000000,-9.1720247,209.64027
3131000000,-9.1768341,209.49057
3132000000,-9.1321468,209.73372
3133000000,-9.1711473,209.99254
3134000000,-9.1133938,209.60619
3135000000,-9.1304026,209.96844
3136000000,-9.1194525,209.57898
3137000000,-9.1412001,209.60518
3138000000,-9.086338,209.59045
3139000000,-9.1019278,209.2581
3140000000,-9.0799246,209.467
3141000000,-9.1171312,209.17854
3142000000,-9.0526648,209.17215
3143000000,-9.0371208,209.024
3144000000,-9.0403585,209.10503
3145000000,-9.065444,208.74963
3146000000,-9.0136328,208.92633
3147000000,-9.0060587,208.96979
3148000000,-9.0499582,208.85149
3149000000,-9.0055923,208.66359
3150000000,-9.0235109,208.56909
3151000000,-8.9934273,208.61354
3152000000,-9.0000906,208.7468
3153000000,-8.9943342,208.59489
3154000000,-8.9812088,208.43851
3155000000,-8.9621534,208.3679
3156000000,-8.9640083,208.34566
3157000000,-8.939971,208.24457
3158000000,-8.9608946,208.21613
3159000000,-8.9523058,208.21979
3160000000,-8.9046774,207.85544
3161000000,-8.910923,208.32454
3162000000,-8.91605,208.05287
3163000000,-8.8669939,207.74722
3164000000,-8.8914423,207.91034
3165000000,-8.8869171,207.79738
3166000000,-8.8430548,208.06818
3167000000,-8.8759995,207.73352
3168000000,-8.8408413,207.46271
3169000000,-8.7957144,207.45714
3170000000,-8.8194656,207.50229
3171000000,-8.802659,207.72588
3172000000,-8.8433304,207.42307
3173000000,-8.8168335,207.46782
3174000000,-8.7864704,207.34685
3175000000,-8.7719069,207.12376
3176000000,-8.7957859,207.18031
3177000000,-8.769763,207.08806
3178000000,-8.7738018,207.35072
3179000000,-8.78685,206.93068
3180000000,-8.7661047,206.78839
3181000000,-8.7636433,206.7377
3182000000,-8.7458429,206.90004
3183000000,-8.7364025,206.80382
3184000000,-8.7210274,206.53757
3185000000,-8.7016068,206.6142
3186000000,-8.723938,206.63249
3187000000,-8.6963434,206.414
3188000000,-8.7142344,206.62627
3189000000,-8.6890078,206.43605
3190000000,-8.7162876,206.21278
3191000000,-8.6311617,206.30841
3192000000,-8.6536808,206.33699
3193000000,-8.6563673,206.1873
3194000000,-8.6560793,206.20769
3195000000,-8.6433992,205.95749
3196000000,-8.6186733,205.8125
3197000000,-8.6382618,205.9817
3198000000,-8.5703421,205.87892
3199000000,-8.6319227,205.74588
3200000000,-8.5755758,205.85333
3201000000,-8.5913458,205.52666
3202000000,-8.5847607,205.6759
3203000000,-8.5951509,205.50797
3204000000,-8.5996933,205.7196
3205000000,-8.6132984,205.45343
3206000000,-8.537941,205.44978
3207000000,-8.5654125,205.34174
3208000000,-8.5657692,205.08875
3209000000,-8.5193119,205.06111
3210000000,-8.5224304,205.14473
3211000000,-8.5322361,204.86618
3212000000,-8.485754,204.96161
3213000000,-8.5423393,204.79967
3214000000,-8.4663572,204.7785
3215000000,-8.5019951,204.88498
3216000000,-8.4492388,204.73837
3217000000,-8.4500866,204.56573
3218000000,-8.4320898,204.77917
3219000000,-8.4598074,204.59987
3220000000,-8.4586954,204.47154
3221000000,-8.4323626,204.6124
3222000000,-8.4325428,204.39999
3223000000,-8.4290695,204.23778
3224000000,-8.4590826,204.31053
3225000000,-8.4042606,204.35034
3226000000,-8.3786669,203.88959
3227000000,-8.3743687,204.1115
3228000000,-8.3949652,204.02649
3229000000,-8.3846035,203.8645
3230000000,-8.4149551,204.12689
3231000000,-8.3448095,204.05476
3232000000,-8.3827887,203.81277
3233000000,-8.3687658,203.89392
3234000000,-8.3441429,203.47993
3235000000,-8.3375196,203.70502
3236000000,-8.3519239,203.37267
3237000000,-8.3198767,203.69009
3238000000,-8.3047752,203.43025
3239000000,-8.3440866,203.29114
3240000000,-8.3514223,203.30811
3241000000,-8.3196907,203.0742
3242000000,-8.2866783,203.13892
3243000000,-8.2599525,202.67198
3244000000,-8.3126373,203.08536
3245000000,-8.3068104,202.88884
3246000000,-8.3086329,203.00751
3247000000,-8.270956,202.95908
3248000000,-8.2467289,202.65974
3249000000,-8.2415476,202.79968
3250000000,-8.2843504,202.53181
3251000000,-8.2270174,202.80617
3252000000,-8.2037621,202.59552
3253000000,-8.2447681,202.40587
3254000000,-8.2005653,202.48257
3255000000,-8.2442961,202.55882
3256000000,-8.2077103,202.54076
3257000000,-8.1775513,202.37962
3258000000,-8.198885,202.44571
3259000000,-8.2044592,202.15433
3260000000,-8.1581211,202.03377
3261000000,-8.1969347,201.93964
3262000000,-8.1566868,201.80019
3263000000,-8.1791649,201.99445
3264000000,-8.182929,201.92436
3265000000,-8.1260834,201.81764
3266000000,-8.1516285,201.67099
3267000000,-8.0979509,201.42549
3268000000,-8.1513767,201.59381
3269000000,-8.1123667,201.51697
3270000000,-8.1257181,201.55524
3271000000,-8.130373,201.48412
3272000000,-8.1205864,201.34903
3273000000,-8.0667696,201.53642
3274000000,-8.1088848,201.37427
3275000000,-8.0942087,201.13216
3276000000,-8.0516205,201.49069
3277000000,-8.0888433,201.14055
3278000000,-8.0961103,200.88516
3279000000,-8.0916767,200.90826
3280000000,-8.0765696,200.90652
3281000000,-8.0246973,200.82451
3282000000,-8.0236692,200.67664
3283000000,-8.0400658,200.7168
3284000000,-8.0540209,200.47275
3285000000,-8.0615873,200.68793
3286000000,-8.0197592,200.53212
3287000000,-8.0447168,200.34032
3288000000,-8.0245695,200.3904
3289000000,-8.0577755,200.26871
3290000000,-8.0701427,200.52733
3291000000,-7.9796276,200.09187
3292000000,-7.9901447,200.15717
3293000000,-7.9957085,200.07008
3294000000,-7.9806151,199.80794
3295000000,-7.9548564,200.03085
3296000000,-7.9705596,199.85152
3297000000,-7.9855957,199.88586
3298000000,-7.9454374,199.77475
3299000000,-7.9574251,199.69495
3300000000,-7.9531455,199.59534
3301000000,-7.9828544,199.68205
3302000000,-7.9388795,199.81796
3303000000,-7.8917546,199.73811
3304000000,-7.9280148,199.2748
3305000000,-7.8934793,199.32899
3306000000,-7.8886304,199.34959
3307000000,-7.9108062,199.30487
3308000000,-7.9018655,199.0677
3309000000,-7.8702669,198.90533
3310000000,-7.88343,199.0632
3311000000,-7.8786163,199.1503
3312000000,-7.8965836,199.09241
3313000000,-7.875937,198.92892
3314000000,-7.8634272,198.8017
3315000000,-7.8838968,198.9129
3316000000,-7.843112,198.96068
3317000000,-7.8544583,198.69044
3318000000,-7.8566937,198.80724
3319000000,-7.8195429,198.37718
3320000000,-7.8480983,198.86896
3321000000,-7.8339405,198.40988
3322000000,-7.8093119,198.30457
3323000000,-7.7974715,198.20407
3324000000,-7.8139429,198.31506
3325000000,-7.8122687,198.26495
3326000000,-7.8139572,197.90746
3327000000,-7.7827101,198.20799
3328000000,-7.8164096,198.07762
3329000000,-7.7812362,197.98495
3330000000,-7.7550502,198.18156
3331000000,-7.7674513,197.74709
3332000000,-7.771564,197.69751
3333000000,-7.7590404,197.72072
3334000000,-7.7750072,197.88852
3335000000,-7.7392559,197.51968
3336000000,-7.7366667,197.58215
3337000000,-7.7904773,197.49065
3338000000,-7.7721348,197.5155
3339000000,-7.7579193,197.31502
3340000000,-7.7267413,197.47272
3341000000,-7.7264318,197.3721
3342000000,-7.7392917,197.16637
3343000000,-7.6925716,196.91832
3344000000,-7.7119536,196.97443
3345000000,-7.6544914,197.05699
3346000000,-7.6590862,197.08737
3347000000,-7.7040296,196.71927
3348000000,-7.6803107,197.0538
3349000000,-7.6786842,196.86479
3350000000,-7.6620431,196.54338
3351000000,-7.6795263,196.59631
3352000000,-7.6822639,196.70224
3353000000,-7.6522384,196.78407
3354000000,-7.674952,196.61768
3355000000,-7.6748729,196.19383
3356000000,-7.6784239,196.48389
3357000000,-7.6498022,196.42584
3358000000,-7.6601529,196.32944
3359000000,-7.6169748,196.1037
3360000000,-7.6177049,196.1319
3361000000,-7.5959954,196.10448
3362000000,-7.6346693,196.10138
3363000000,-7.5820751,195.7832
3364000000,-7.6084876,195.75787
3365000000,-7.5655804,195.58788
3366000000,-7.5777044,195.87022
3367000000,-7.6001425,195.73602
3368000000,-7.5812287,195.52661
3369000000,-7.6111245,195.59496
3370000000,-7.5904264,195.27426
3371000000,-7.5482945,195.52229
3372000000,-7.5522399,195.4462
3373000000,-7.6048474,195.36145
3374000000,-7.5552735,195.37914
3375000000,-7.5453744,195.41643
3376000000,-7.5838013,195.08963
3377000000,-7.5606127,195.36815
3378000000,-7.5921178,194.98669
3379000000,-7.5337954,194.94299
3380000000,-7.5222697,194.87985
3381000000,-7.532352,194.89018
3382000000,-7.5288162,194.79356
3383000000,-7.5241179,194.79369
3384000000,-7.4960985,194.62715
3385000000,-7.4791231,194.58022
3386000000,-7.5533333,194.59726
3387000000,-7.5201783,194.64894
3388000000,-7.4947619,194.51497
3389000000,-7.442544,194.30487
3390000000,-7.4617014,194.38771
3391000000,-7.4689355,194.21739
3392000000,-7.4789262,194.24893
3393000000,-7.4481206,194.12802
3394000000,-7.4938202,194.25453
3395000000,-7.4558229,194.27591
3396000000,-7.4684978,194.18147
3397000000,-7.4681196,194.14934
3398000000,-7.4776778,194.04247
3399000000,-7.4530606,193.76494
3400000000,-7.4639373,193.86493
3401000000,-7.4669371,193.74527
3402000000,-7.426548,193.61481
3403000000,-7.413847,193.49664
3404000000,-7.4218254,193.47498
3405000000,-7.4250455,193.52016
3406000000,-7.4057112,193.68689
3407000000,-7.4279995,193.66231
3408000000,-7.3926764,193.52928
3409000000,-7.4251084,193.2614
3410000000,-7.3931909,193.19164
3411000000,-7.395823,193.12988
3412000000,-7.3860903,193.06706
3413000000,-7.3611407,192.94122
3414000000,-7.4180851,192.85808
3415000000,-7.3779764,192.99303
3416000000,-7.3784266,192.98007
3417000000,-7.3648868,192.8942
3418000000,-7.3753242,192.77614
3419000000,-7.3537073,192.63991
3420000000,-7.324656,192.59846
3421000000,-7.3357191,192.59326
3422000000,-7.3726139,192.84383
3423000000,-7.3237381,192.31007
3424000000,-7.3411713,192.5537
3425000000,-7.3404312,192.18527
3426000000,-7.3179054,192.422
3427000000,-7.3102808,192.15648
3428000000,-7.3285241,192.27718
3429000000,-7.2992926,192.00203
3430000000,-7.2963414,191.96204
3431000000,-7.2643151,191.71532
3432000000,-7.3478503,191.92035
3433000000,-7.2677193,192.05807
3434000000,-7.3018928,191.8513
3435000000,-7.3011208,191.56624
3436000000,-7.3012948,191.55197
3437000000,-7.3093219,191.82349
3438000000,-7.260952,191.48282
3439000000,-7.2563157,191.51581
3440000000,-7.2644596,191.32674
3441000000,-7.276422,191.38098
3442000000,-7.231338,191.2868
3443000000,-7.2571597,191.21146
3444000000,-7.2327533,191.02824
3445000000,-7.2297459,191.19397
3446000000,-7.2115688,191.27107
3447000000,-7.2422562,191.30121
3448000000,-7.2561884,191.21379
3449000000,-7.2588816,191.03986
3450000000,-7.2495756,190.80733
3451000000,-7.2446036,190.66927
3452000000,-7.2235146,190.89955
3453000000,-7.1736207,190.73491
3454000000,-7.2506709,190.72186
3455000000,-7.2298827,190.62523
3456000000,-7.2107739,190.69095
3457000000,-7.208858,190.60472
3458000000,-7.2192335,190.36497
3459000000,-7.2062049,190.46375
3460000000,-7.1889043,190.30954
3461000000,-7.2033191,190.25468
3462000000,-7.2150788,190.21654
3463000000,-7.1571498,190.11783
3464000000,-7.193222,190.14648
3465000000,-7.219058,190.24106
3466000000,-7.2052822,190.02754
3467000000,-7.1343398,190.15399
3468000000,-7.1959658,189.7258
3469000000,-7.1527367,189.75224
3470000000,-7.1704459,189.66458
3471000000,-7.1934938,189.79216
3472000000,-7.1345205,189.51659
3473000000,-7.1617584,189.43784
3474000000,-7.1662598,189.60443
3475000000,-7.1252661,189.47128
3476000000,-7.131423,189.54213
3477000000,-7.1281724,189.28717
3478000000,-7.1195636,189.21013
3479000000,-7.1107678,189.32605
3480000000,-7.1304626,189.26895
3481000000,-7.1187153,189.19917
3482000000,-7.0920582,188.96545
3483000000,-7.1043367,188.98718
3484000000,-7.1158094,188.87286
3485000000,-7.0978918,188.91212
3486000000,-7.0928364,188.69287
3487000000,-7.1099105,188.77538
3488000000,-7.0753322,188.80959
3489000000,-7.073216,188.8087
3490000000,-7.0875216,188.56062
3491000000,-7.0380712,188.49863
3492000000,-7.061255,188.60893
3493000000,-7.088891,188.49898
3494000000,-7.0302458,188.56775
3495000000,-7.0490727,188.32558
3496000000,-7.047564,188.39401
3497000000,-7.0459256,187.94576
3498000000,-7.0692358,188.21735
3499000000,-7.0569224,187.84532
3500000000,-7.0415411,188.14458
3501000000,-7.0577455,188.14709
3502000000,-7.044065,187.87352
3503000000,-7.0212111,187.66504
3504000000,-7.0287018,187.81442
3505000000,-7.0504088,187.61545
3506000000,-7.002665,187.79584
3507000000,-6.9907517,187.71228
3508000000,-6.9939642,187.42958
3509000000,-7.0177212,187.49107
3510000000,-6.9759092,187.35115
3511000000,-7.0180449,187.54877
3512000000,-7.0014253,187.25798
3513000000,-7.0120854,187.07785
3514000000,-7.0134516,187.21318
3515000000,-7.0075412,187.37146
3516000000,-7.009346,187.0488
3517000000,-6.9822845,187.26682
3518000000,-6.9879022,187.03629
3519000000,-6.9875526,186.90784
3520000000,-7.0039892,186.91669
3521000000,-6.936913,187.04712
3522000000,-6.962234,186.79364
3523000000,-6.9597554,186.81102
3524000000,-6.9651847,186.87872
3525000000,-6.9550295,186.62262
3526000000,-6.935935,186.58049
3527000000,-6.9380951,186.32198
3528000000,-6.963522,186.75887
3529000000,-6.9759941,186.53688
3530000000,-6.9813933,186.3786
3531000000,-6.9647861,186.3663
3532000000,-6.9424496,186.26721
3533000000,-6.9206614,186.40356
3534000000,-6.9506788,186.19789
3535000000,-6.9166913,186.11334
3536000000,-6.9285278,186.15564
3537000000,-6.9500332,185.89665
3538000000,-6.9123969,185.65611
3539000000,-6.9353395,185.89915
3540000000,-6.9120841,185.8638
3541000000,-6.8890657,185.57991
3542000000,-6.8899078,185.51865
3543000000,-6.8967834,185.77251
3544000000,-6.9134908,185.69519
3545000000,-6.8874269,185.58986
3546000000,-6.8929052,185.65521
3547000000,-6.9059386,185.32764
3548000000,-6.897275,185.48253
3549000000,-6.9029164,185.14517
3550000000,-6.8842006,185.13652
3551000000,-6.8943906,185.32779
3552000000,-6.8962994,185.21986
3553000000,-6.8799505,185.29314
3554000000,-6.8508625,184.96535
3555000000,-6.9017267,185.03703
3556000000,-6.8631935,185.01451
3557000000,-6.8427544,184.81078
3558000000,-6.8496647,184.81239
3559000000,-6.8598356,184.92412
3560000000,-6.8182597,184.78035
3561000000,-6.8471298,184.71423
3562000000,-6.7963519,184.51285
3563000000,-6.8283367,184.576
3564000000,-6.8319178,184.38385
3565000000,-6.8417335,184.31613
3566000000,-6.8252196,184.36356
3567000000,-6.8370981,184.38553
3568000000,-6.8438396,184.04282
3569000000,-6.8105483,184.04308
3570000000,-6.7956576,184.08742
3571000000,-6.806612,183.96745
3572000000,-6.7900405,184.12903
3573000000,-6.8165312,183.93878
3574000000,-6.806746,184.06819
3575000000,-6.7931437,183.92787
3576000000,-6.7976713,183.9373
3577000000,-6.7728601,183.83687
3578000000,-6.7920542,183.6989
3579000000,-6.7649775,183.42645
3580000000,-6.784812,183.80939
3581000000,-6.7653828,183.67789
3582000000,-6.7621212,183.50534
3583000000,-6.7552266,183.39232
3584000000,-6.7543726,183.44664
3585000000,-6.7766209,183.4595
3586000000,-6.7529039,183.09027
3587000000,-6.7327795,183.25258
3588000000,-6.7492714,183.11807
3589000000,-6.7407851,183.14995
3590000000,-6.7393012,182.96483
3591000000,-6.7458768,183.06967
3592000000,-6.7521286,182.78255
3593000000,-6.7275376,182.78441
3594000000,-6.7181268,182.62848
3595000000,-6.7202601,182.79889
3596000000,-6.7308373,182.68248
3597000000,-6.7292457,182.56093
3598000000,-6.7364664,182.49303
3599000000,-6.7000098,182.63077
3600000000,-6.701993,182.40292
3601000000,-6.7134027,182.43756
3602000000,-6.7162418,182.34132
3603000000,-6.720933,182.12944
3604000000,-6.6969442,182.02441
3605000000,-6.6879745,182.09473
3606000000,-6.6857414,182.1777
3607000000,-6.6752024,181.87189
3608000000,-6.6848826,182.08575
3609000000,-6.6661921,181.82785
3610000000,-6.6664877,181.81032
3611000000,-6.6774263,182.00201
3612000000,-6.6860929,181.66855
3613000000,-6.6342649,181.56131
3614000000,-6.6459002,181.59824
3615000000,-6.7054868,181.43451
3616000000,-6.6462588,181.42592
3617000000,-6.6588202,181.59064
3618000000,-6.6760597,181.26335
3619000000,-6.663394,181.41911
3620000000,-6.6453915,181.37418
3621000000,-6.6876736,181.17116
3622000000,-6.6742558,181.13387
3623000000,-6.6393676,180.99974
3624000000,-6.6822438,181.07031
3625000000,-6.6489244,180.85475
3626000000,-6.6466794,180.89456
3627000000,-6.6352782,180.70615
3628000000,-6.6475248,180.64172
3629000000,-6.6345959,180.90506
3630000000,-6.6348076,180.58141
3631000000,-6.5954809,180.53732
3632000000,-6.6087499,180.40936
3633000000,-6.5830874,180.63342
3634000000,-6.5702825,180.57765
3635000000,-6.6185055,180.20695
3636000000,-6.590693,180.22577
3637000000,-6.5947065,180.11942
3638000000,-6.5950794,180.22141
3639000000,-6.5667624,180.14777
3640000000,-6.6035805,179.98285
3641000000,-6.5865688,180.03938
3642000000,-6.6055856,180.04001
3643000000,-6.5923605,179.86192
3644000000,-6.5936089,179.98264
3645000000,-6.5842609,179.81557
3646000000,-6.5539036,179.75771
3647000000,-6.5864906,179.66536
3648000000,-6.5759144,179.75766
3649000000,-6.6070313,179.88713
3650000000,-6.5599198,179.65524
3651000000,-6.5835886,179.40512
3652000000,-6.5735288,179.37517
3653000000,-6.5585403,179.34103
3654000000,-6.5540376,179.12428
3655000000,-6.5228715,179.51303
3656000000,-6.5538297,178.99419
3657000000,-6.5421185,179.04276
3658000000,-6.5233822,179.00284
3659000000,-6.5356302,178.92383
3660000000,-6.5299778,178.77728
3661000000,-6.5307264,178.78955
3662000000,-6.5270433,178.87369
3663000000,-6.5113802,178.83003
3664000000,-6.534862,178.62796
3665000000,-6.5323505,178.94156
3666000000,-6.5167017,178.39828
3667000000,-6.5158801,178.46513
3668000000,-6.5115995,178.55925
3669000000,-6.494369,178.79515
3670000000,-6.5044112,178.40959
3671000000,-6.5209374,178.31223
3672000000,-6.4830222,178.41313
3673000000,-6.4914598,178.26396
3674000000,-6.4704194,178.16528
3675000000,-6.5111494,178.17796
3676000000,-6.4808936,178.13133
3677000000,-6.4728756,177.87001
3678000000,-6.4729204,177.8801
3679000000,-6.4788084,177.74948
3680000000,-6.4692636,177.6086
3681000000,-6.4706974,177.60893
3682000000,-6.4604902,177.64519
3683000000,-6.4550052,177.53278
3684000000,-6.467381,177.49043
3685000000,-6.4673705,177.55165
3686000000,-6.438796,177.46614
3687000000,-6.472753,177.46667
3688000000,-6.4310808,176.99469
3689000000,-6.4363441,177.09444
3690000000,-6.4666238,177.25822
3691000000,-6.4033957,177.26839
3692000000,-6.4451804,176.91339
3693000000,-6.4327488,176.9554
3694000000,-6.4386158,176.73756
3695000000,-6.3746667,176.98163
3696000000,-6.4117422,176.93343
3697000000,-6.42138,176.88686
3698000000,-6.413847,176.26991
3699000000,-6.4099774,176.63712
3700000000,-6.3673921,176.68976
3701000000,-6.3988428,176.80399
3702000000,-6.4138789,176.61241
3703000000,-6.4421463,176.24231
3704000000,-6.4122362,176.38094
3705000000,-6.4162946,176.42274
3706000000,-6.4218249,176.14532
3707000000,-6.4107938,176.27119
3708000000,-6.392354,176.10246
3709000000,-6.3980737,175.99318
3710000000,-6.3925781,176.16898
3711000000,-6.3814769,175.94264
3712000000,-6.4109507,175.89159
3713000000,-6.3739901,175.91359
3714000000,-6.3777509,175.73363
3715000000,-6.3437328,175.79201
3716000000,-6.3849301,175.59341
3717000000,-6.3539219,175.54387
3718000000,-6.3759084,175.43196
3719000000,-6.3436952,175.33247
3720000000,-6.3474636,175.43005
3721000000,-6.377141,175.39174
3722000000,-6.3442159,175.24022
3723000000,-6.3402195,175.18214
3724000000,-6.3723063,175.17621
3725000000,-6.3337216,175.10419
3726000000,-6.3195,175.03995
3727000000,-6.3330259,175.13434
3728000000,-6.3545537,174.79694
3729000000,-6.3225164,174.69682
3730000000,-6.3333793,174.782
3731000000,-6.3271122,174.81097
3732000000,-6.3206577,174.76515
3733000000,-6.329586,174.66209
3734000000,-6.3114076,174.5916
3735000000,-6.3546171,174.46791
3736000000,-6.3376484,174.35089
3737000000,-6.3128242,174.44228
3738000000,-6.3250656,174.20955
3739000000,-6.3286967,174.30428
3740000000,-6.2899365,174.27821
3741000000,-6.2899985,174.05415
3742000000,-6.3122902,174.03198
3743000000,-6.3005648,173.91608
3744000000,-6.3260555,173.88414
3745000000,-6.2807527,173.89551
3746000000,-6.2926478,174.09752
3747000000,-6.2798181,173.87315
3748000000,-6.2777724,173.73782
3749000000,-6.2946963,173.74438
3750000000,-6.2868886,173.41887
3751000000,-6.2857823,173.67372
3752000000,-6.257329,173.50479
3753000000,-6.2676249,173.37794
3754000000,-6.2412195,173.19475
3755000000,-6.2797484,173.26579
3756000000,-6.2813115,173.27322
3757000000,-6.2673154,173.11142
3758000000,-6.2633047,172.97847
3759000000,-6.2677989,173.10052
3760000000,-6.2443352,172.89558
3761000000,-6.2706547,172.70821
3762000000,-6.2743564,172.74165
3763000000,-6.2653875,172.78348
3764000000,-6.2550693,172.76453
3765000000,-6.2430477,172.76729
3766000000,-6.2372007,172.72757
3767000000,-6.2682533,172.48013
3768000000,-6.2325735,172.41638
3769000000,-6.2338357,172.47552
3770000000,-6.218524,172.56203
3771000000,-6.2698293,172.37105
3772000000,-6.2539644,172.14568
3773000000,-6.2544274,172.09312
3774000000,-6.2247782,172.08191
3775000000,-6.2290721,171.96092
3776000000,-6.2081814,171.78873
3777000000,-6.1921673,171.94472
3778000000,-6.2511845,171.84279
3779000000,-6.2040167,171.74916
3780000000,-6.1986742,171.7505
3781000000,-6.2066889,171.64958
3782000000,-6.1898632,171.75409
3783000000,-6.2329273,171.498
3784000000,-6.1830306,171.51917
3785000000,-6.2114291,171.44888
3786000000,-6.177361,171.24815
3787000000,-6.1856461,171.39027
3788000000,-6.1886859,171.13306
3789000000,-6.2077513,171.29163
3790000000,-6.1887116,171.27711
3791000000,-6.1911364,171.24007
3792000000,-6.1825123,171.15971
3793000000,-6.1767869,170.96057
3794000000,-6.2011499,170.94455
3795000000,-6.1580195,170.95799
3796000000,-6.171032,170.60422
3797000000,-6.1559963,170.77867
3798000000,-6.1714778,170.73868
3799000000,-6.1772652,170.61269
3800000000,-6.1634898,170.56322
3801000000,-6.1433024,170.63
3802000000,-6.1585517,170.6031
3803000000,-6.1594882,170.16878
3804000000,-6.1832414,170.29111
3805000000,-6.1684699,170.05017
3806000000,-6.1324024,170.0923
3807000000,-6.1439672,170.26678
3808000000,-6.1390605,170.30135
3809000000,-6.1321344,169.9693
3810000000,-6.1285982,170.04822
3811000000,-6.136694,169.89566
3812000000,-6.0982919,169.97394
3813000000,-6.1170835,169.88838
3814000000,-6.0969992,169.83298
3815000000,-6.1431098,169.82742
3816000000,-6.1022973,169.66089
3817000000,-6.1457882,169.57213
3818000000,-6.1285977,169.59462
3819000000,-6.1077447,169.55946
3820000000,-6.0965085,169.57857
3821000000,-6.095696,169.10294
3822000000,-6.0876584,169.02307
3823000000,-6.1287947,169.17392
3824000000,-6.0967941,169.24007
3825000000,-6.0868616,169.30806
3826000000,-6.1390977,168.79651
3827000000,-6.1034713,169.09938
3828000000,-6.1254311,168.7612
3829000000,-6.101624,168.89693
3830000000,-6.0955639,168.91023
3831000000,-6.1029859,168.79665
3832000000,-6.0885797,168.64328
3833000000,-6.0648499,168.57269
3834000000,-6.0737629,168.52583
3835000000,-6.1051846,168.58716
3836000000,-6.0764565,168.47757
3837000000,-6.0874882,168.58272
3838000000,-6.0752206,168.61075
3839000000,-6.0837183,168.25638
3840000000,-6.055037,168.04955
3841000000,-6.093812,168.23726
3842000000,-6.0844479,168.08603
3843000000,-6.0647578,167.9781
3844000000,-6.0873513,168.22597
3845000000,-6.0845909,167.8654
3846000000,-6.0683379,167.98059
3847000000,-6.039938,167.84558
3848000000,-6.0722103,167.82352
3849000000,-6.0641489,167.74055
3850000000,-6.0379963,167.67964
3851000000,-6.0431709,167.62614
3852000000,-6.0463161,167.25862
3853000000,-6.078413,167.70193
3854000000,-6.0212059,167.5714
3855000000,-6.0305514,167.58502
3856000000,-6.0352936,167.16385
3857000000,-6.0319228,167.12999
3858000000,-6.0459447,167.20035
3859000000,-6.0010695,166.89868
3860000000,-6.0326657,167.15628
3861000000,-6.005168,166.74171
3862000000,-6.0434928,166.70013
3863000000,-6.0559044,167.04332
3864000000,-6.029563,166.9102
3865000000,-5.9868355,166.63788
3866000000,-6.0345812,166.41258
3867000000,-6.0057511,166.54559
3868000000,-6.00561,166.72069
3869000000,-6.0063825,166.40118
3870000000,-5.9933743,166.32489
3871000000,-6.0176425,166.39647
3872000000,-6.014473,166.3427
3873000000,-6.0174804,166.28265
3874000000,-6.0024023,166.2171
3875000000,-5.9886761,166.01286
3876000000,-5.999661,166.12933
3877000000,-5.9780717,166.18565
3878000000,-5.9940362,165.71263
3879000000,-5.9982104,165.81517
3880000000,-6.0079579,165.74399
3881000000,-5.9841852,165.80841
3882000000,-5.9858074,165.76378
3883000000,-5.9799533,165.71957
3884000000,-5.9958029,165.38103
3885000000,-6.0022545,165.61462
3886000000,-5.9455633,165.58575
3887000000,-5.9764748,165.44197
3888000000,-5.9600472,165.51852
3889000000,-5.9661217,165.27557
3890000000,-5.9192967,165.30318
3891000000,-5.9676147,165.1481
3892000000,-5.9702797,165.17159
3893000000,-5.9609494,165.10344
3894000000,-5.9659553,165.1749
3895000000,-5.9705358,164.81979
3896000000,-5.9328475,164.94875
3897000000,-5.9608755,164.81055
3898000000,-5.9456491,164.60645
3899000000,-5.941421,164.77234
3900000000,-5.9480844,164.85265
3901000000,-5.94064,164.54222
3902000000,-5.9628453,164.54747
3903000000,-5.9330125,164.29897
3904000000,-5.9144425,164.53705
3905000000,-5.9228716,164.379
3906000000,-5.9254775,164.36464
3907000000,-5.9417267,164.20839
3908000000,-5.9197803,164.3257
3909000000,-5.9115691,164.27534
3910000000,-5.9230471,164.39485
3911000000,-5.9178796,163.89134
3912000000,-5.9676967,163.67468
3913000000,-5.9335275,163.99164
3914000000,-5.9131684,163.8427
3915000000,-5.927598,163.80647
3916000000,-5.9432445,163.74796
3917000000,-5.9001698,163.50917
3918000000,-5.8883495,163.4597
3919000000,-5.9243135,163.54576
3920000000,-5.9192581,163.75809
3921000000,-5.8995476,163.38078
3922000000,-5.8812461,163.43286
3923000000,-5.8878808,163.07846
3924000000,-5.9190574,163.19138
3925000000,-5.8777485,163.26781
3926000000,-5.8728557,163.10966
3927000000,-5.8907804,163.04469
3928000000,-5.8979282,163.14018
3929000000,-5.8746119,163.00496
3930000000,-5.9248734,162.75766
3931000000,-5.8485293,162.89424
3932000000,-5.888648,162.68024
3933000000,-5.8677297,162.67287
3934000000,-5.9083705,162.73451
3935000000,-5.8673644,162.54558
3936000000,-5.8882341,162.63217
3937000000,-5.866221,162.32855
3938000000,-5.8362708,162.34099
3939000000,-5.8771415,162.35338
3940000000,-5.8657198,162.21291
3941000000,-5.8701158,162.29333
3942000000,-5.859375,162.22426
3943000000,-5.8764048,162.08102
3944000000,-5.858139,162.1667
3945000000,-5.8602829,162.10419
3946000000,-5.8610148,161.9599
3947000000,-5.8370538,161.94594
3948000000,-5.8580608,161.61847
3949000000,-5.8549647,161.6987
3950000000,-5.8495569,161.60072
3951000000,-5.840498,161.68729
3952000000,-5.8314581,161.63051
3953000000,-5.8374853,161.39011
3954000000,-5.8606596,161.37173
3955000000,-5.8468642,161.26692
3956000000,-5.8423991,161.60889
3957000000,-5.8372178,161.14056
3958000000,-5.8016443,161.24672
3959000000,-5.8226533,161.093
3960000000,-5.8452344,161.24397
3961000000,-5.8182335,160.98958
3962000000,-5.8210425,160.85963
3963000000,-5.8027062,160.97234
3964000000,-5.8185821,160.67067
3965000000,-5.8330007,160.63626
3966000000,-5.7907228,160.69366
3967000000,-5.8050385,160.71654
3968000000,-5.8118091,160.59575
3969000000,-5.8044872,160.47252
3970000000,-5.7772136,160.66237
3971000000,-5.7984982,160.41699
3972000000,-5.8023496,160.35368
3973000000,-5.8101764,160.15846
3974000000,-5.8123312,160.22386
3975000000,-5.807683,160.13412
3976000000,-5.8113861,160.21834
3977000000,-5.7916894,159.97713
3978000000,-5.8274374,159.98792
3979000000,-5.776792,159.90407
3980000000,-5.7808518,159.80475
3981000000,-5.8147802,159.69846
3982000000,-5.7834945,159.82321
3983000000,-5.7689981,159.6201
3984000000,-5.7942286,159.66139
3985000000,-5.7562051,159.5242
3986000000,-5.7400432,159.61461
3987000000,-5.762568,159.19662
3988000000,-5.7565598,159.502
3989000000,-5.7742515,159.31918
3990000000,-5.7879634,159.2178
3991000000,-5.79708,159.18477
3992000000,-5.7573848,159.01964
3993000000,-5.7804351,159.02811
3994000000,-5.7462277,158.95306
3995000000,-5.731688,159.00278
3996000000,-5.7631421,158.69722
3997000000,-5.7602677,158.9521
3998000000,-5.7703204,158.6938
3999000000,-5.7406411,158.68727
4000000000,-5.7603149,158.72289
4001000000,-5.7406402,158.56702
4002000000,-5.770565,158.48215
4003000000,-5.7323055,158.63823
4004000000,-5.7590699,158.56348
4005000000,-5.7404528,158.48436
4006000000,-5.7462764,158.34938
4007000000,-5.7509303,158.02808
4008000000,-5.7229495,158.26953
4009000000,-5.7370772,158.20026
4010000000,-5.7096834,158.07631
4011000000,-5.7388906,157.94525
4012000000,-5.7269497,157.75603
4013000000,-5.7471433,157.89888
4014000000,-5.7365408,157.79332
4015000000,-5.7381229,157.78235
4016000000,-5.7088928,157.72874
4017000000,-5.7465992,157.67569
4018000000,-5.7321501,157.39784
4019000000,-5.686121,157.50696
4020000000,-5.7162747,157.56628
4021000000,-5.7010541,157.24501
4022000000,-5.700882,157.28429
4023000000,-5.6780095,157.12383
4024000000,-5.7275481,157.13974
4025000000,-5.688436,157.37051
4026000000,-5.6568542,157.0959
4027000000,-5.6881838,157.01045
4028000000,-5.6920738,156.89386
4029000000,-5.665998,156.91054
4030000000,-5.7036066,156.81601
4031000000,-5.7071567,156.51587
4032000000,-5.6833138,156.65862
4033000000,-5.7120538,156.65753
4034000000,-5.7211499,156.58858
4035000000,-5.6941314,156.67847
4036000000,-5.704555,156.41309
4037000000,-5.7221751,156.36905
4038000000,-5.6806765,156.32446
4039000000,-5.6786566,156.08627
4040000000,-5.6608191,156.09868
4041000000,-5.6889148,156.0058
4042000000,-5.6601262,156.09332
4043000000,-5.6712604,155.80505
4044000000,-5.6791096,155.72945
4045000000,-5.6746769,155.87534
4046000000,-5.7109208,155.97284
4047000000,-5.6924791,155.8441
4048000000,-5.646956,155.71049
4049000000,-5.6518598,155.64066
4050000000,-5.666688,155.61862
4051000000,-5.6829944,155.4574
4052000000,-5.6845236,155.19304
4053000000,-5.6487155,155.457
4054000000,-5.6539435,155.36128
4055000000,-5.6574368,155.17723
4056000000,-5.6314964,155.24199
4057000000,-5.6517496,155.11566
4058000000,-5.6346722,155.13176
4059000000,-5.6486344,154.9402
4060000000,-5.6612821,155.08713
4061000000,-5.6650891,154.85968
4062000000,-5.6413879,154.84436
4063000000,-5.6529446,154.82387
4064000000,-5.6488657,154.76077
4065000000,-5.6771531,154.7453
4066000000,-5.6436725,154.49921
4067000000,-5.636858,154.58942
4068000000,-5.6345468,154.48083
4069000000,-5.6525321,154.34059
4070000000,-5.6498237,154.38391
4071000000,-5.6305637,154.31364
4072000000,-5.6537142,154.31279
4073000000,-5.6171117,154.25195
4074000000,-5.6569185,154.04318
4075000000,-5.6281857,154.04449
4076000000,-5.6453023,153.89418
4077000000,-5.6320024,153.9583
4078000000,-5.6311574,153.81876
4079000000,-5.6117759,153.95279
4080000000,-5.6476464,153.72195
4081000000,-5.6162467,153.66924
4082000000,-5.6438942,153.65208
4083000000,-5.6464262,153.68462
4084000000,-5.6357331,153.41302
4085000000,-5.6423993,153.36365
4086000000,-5.646143,153.17229
4087000000,-5.6193342,153.35063
4088000000,-5.6465287,153.07329
4089000000,-5.6534204,153.39182
4090000000,-5.6287241,153.17526
4091000000,-5.6168056,153.08934
4092000000,-5.6319685,153.11902
4093000000,-5.6648378,153.08734
4094000000,-5.6138124,153.10606
4095000000,-5.6145158,152.90785
4096000000,-5.6222687,152.79243
4097000000,-5.6539927,152.62303
4098000000,-5.6364989,152.81137
4099000000,-5.6279922,152.51495
4100000000,-5.6070805,152.50786
4101000000,-5.6270776,152.43839
4102000000,-5.6266651,152.43236
4103000000,-5.6007833,152.29953
4104000000,-5.6426907,152.61148
4105000000,-5.6278749,152.22142
4106000000,-5.6174192,152.08456
4107000000,-5.6373386,152.2545
4108000000,-5.5940528,152.05305
4109000000,-5.6278453,151.96928
4110000000,-5.6071992,152.17805
4111000000,-5.6072311,151.78786
4112000000,-5.6010499,151.99008
4113000000,-5.6287909,151.61676
4114000000,-5.5995593,151.69818
4115000000,-5.6022606,151.7298
4116000000,-5.5947752,151.56343
4117000000,-5.6126418,151.55391
4118000000,-5.602284,151.6451
4119000000,-5.6048112,151.57657
4120000000,-5.5845113,151.29239
4121000000,-5.5739584,151.10066
4122000000,-5.5826154,151.21248
4123000000,-5.5848079,151.15244
4124000000,-5.5979838,151.06053
4125000000,-5.5884886,151.31204
4126000000,-5.5820861,150.97449
4127000000,-5.5859222,150.88705
4128000000,-5.5930672,150.84981
4129000000,-5.5631413,150.76112
4130000000,-5.5804048,150.77444
4131000000,-5.5680156,150.6819
4132000000,-5.5912547,150.55229
4133000000,-5.5726051,150.49492
4134000000,-5.6118979,150.41032
4135000000,-5.5801888,150.35352
4136000000,-5.5687203,150.46991
4137000000,-5.5668855,150.25148
4138000000,-5.5803599,150.30966
4139000000,-5.578485,150.17918
4140000000,-5.5695968,150.12923
4141000000,-5.5514374,150.19337
4142000000,-5.5652113,150.08565
4143000000,-5.5838571,149.80827
4144000000,-5.5874128,149.94998
4145000000,-5.5751147,149.90656
4146000000,-5.5368519,149.90778
4147000000,-5.5576005,149.70453
4148000000,-5.5391006,149.5583
4149000000,-5.5566044,149.91048
4150000000,-5.558898,149.61974
4151000000,-5.5675945,149.77245
4152000000,-5.5581722,149.47386
4153000000,-5.548142,149.56862
4154000000,-5.5595775,149.46269
4155000000,-5.5672565,149.24057
4156000000,-5.552392,149.29686
4157000000,-5.5554876,149.16081
4158000000,-5.585402,149.26465
4159000000,-5.5473499,149.31186
4160000000,-5.5312524,149.04724
4161000000,-5.5549045,148.97182
4162000000,-5.5748572,149.03383
4163000000,-5.5632305,148.79973
4164000000,-5.5727048,148.89731
4165000000,-5.5317178,148.74341
4166000000,-5.5627384,148.65364
4167000000,-5.5422087,148.54231
4168000000,-5.5473943,148.44807
4169000000,-5.5517645,148.53784
4170000000,-5.5387225,148.32599
4171000000,-5.5493727,148.58665
4172000000,-5.5330276,148.38434
4173000000,-5.5391922,148.32097
4174000000,-5.5227075,148.1855
4175000000,-5.5334115,148.43929
4176000000,-5.5490446,148.03023
4177000000,-5.5458851,147.97118
4178000000,-5.5580463,148.05037
4179000000,-5.5453115,147.99834
4180000000,-5.5375814,147.938
4181000000,-5.5173111,147.76018
4182000000,-5.5329852,147.85069
4183000000,-5.5405526,147.53442
4184000000,-5.521595,147.67917
4185000000,-5.5291038,147.56343
4186000000,-5.5290642,147.7305
4187000000,-5.5415969,147.53189
4188000000,-5.5412865,147.33817
4189000000,-5.503849,147.29715
4190000000,-5.5581069,147.04964
4191000000,-5.5202632,147.17957
4192000000,-5.5130048,147.33458
4193000000,-5.5464926,147.12947
4194000000,-5.5364347,147.0809
4195000000,-5.5100865,147.04414
4196000000,-5.4886394,146.83131
4197000000,-5.514329,146.966
4198000000,-5.5437722,146.97099
4199000000,-5.4777684,146.73201
4200000000,-5.5061412,147.00632
4201000000,-5.5096779,146.66469
4202000000,-5.5193148,146.51517
4203000000,-5.5121269,146.69186
4204000000,-5.5316615,146.56419
4205000000,-5.495554,146.43143
4206000000,-5.5253639,146.44881
4207000000,-5.5119996,146.29486
4208000000,-5.5279713,146.37437
4209000000,-5.511764,146.24055
4210000000,-5.4901423,146.04091
4211000000,-5.5353608,146.26427
4212000000,-5.4814734,146.09053
4213000000,-5.479991,145.99496
4214000000,-5.5219135,145.91631
4215000000,-5.4986587,145.82825
4216000000,-5.5076952,145.87865
4217000000,-5.514513,145.78285
4218000000,-5.4935665,145.58905
4219000000,-5.4765906,145.61041
4220000000,-5.4930506,145.76091
4221000000,-5.4759946,145.56172
4222000000,-5.4940858,145.49078
4223000000,-5.4792252,145.27142
4224000000,-5.4674411,145.45714
4225000000,-5.4963241,145.22783
4226000000,-5.4755354,145.22044
4227000000,-5.5228734,145.21774
4228000000,-5.4836535,145.17918
4229000000,-5.4714103,145.03868
4230000000,-5.4834528,145.06108
4231000000,-5.4636087,145.09804
4232000000,-5.4924703,144.8804
4233000000,-5.4710369,144.88499
4234000000,-5.492403,144.82552
4235000000,-5.4633899,144.61191
4236000000,-5.4394555,144.86787
4237000000,-5.4265761,144.69676
4238000000,-5.4373016,144.57387
4239000000,-5.4556265,144.57851
4240000000,-5.4506989,144.48816
4241000000,-5.4299097,144.53743
4242000000,-5.4920535,144.2285
4243000000,-5.4533906,144.35106
4244000000,-5.4220924,144.27988
4245000000,-5.4791384,144.13477
4246000000,-5.444283,144.19614
4247000000,-5.4688272,144.04276
4248000000,-5.4556637,144.00659
4249000000,-5.4492078,143.93201
4250000000,-5.4335485,143.87949
4251000000,-5.4431758,143.76611
4252000000,-5.4691305,143.78596
4253000000,-5.4392762,143.83827
4254000000,-5.4408326,143.4875
4255000000,-5.4692211,143.50847
4256000000,-5.4266486,143.50368
4257000000,-5.4494653,143.51227
4258000000,-5.4377565,143.50543
4259000000,-5.436111,143.2289
4260000000,-5.4360924,143.1761
4261000000,-5.4531093,143.42249
4262000000,-5.4478216,143.32489
4263000000,-5.4321384,143.13652
4264000000,-5.4249887,143.07552
4265000000,-5.4294109,142.84752
4266000000,-5.4355617,142.9324
4267000000,-5.4206166,142.93654
4268000000,-5.4048996,142.74837
4269000000,-5.4244246,142.82503
4270000000,-5.4595528,142.99289
4271000000,-5.439918,142.70233
4272000000,-5.4406581,142.61052
4273000000,-5.4377618,142.53893
4274000000,-5.4133043,142.69116
4275000000,-5.4024153,142.33771
4276000000,-5.4242225,142.32001
4277000000,-5.4162664,142.38806
4278000000,-5.4135723,142.29948
4279000000,-5.4418321,142.24431
4280000000,-5.4149213,142.04593
4281000000,-5.4082122,142.37947
4282000000,-5.4111056,142.07413
4283000000,-5.4037461,142.05647
4284000000,-5.395339,141.74004
4285000000,-5.4018474,141.71356
4286000000,-5.3950477,141.95459
4287000000,-5.4362807,141.70111
4288000000,-5.413528,141.65332
4289000000,-5.4234657,141.61691
4290000000,-5.399404,141.60974
4291000000,-5.3984442,141.57556
4292000000,-5.385488,141.50476
4293000000,-5.4091816,141.34821
4294000000,-5.4120765,141.45357
4295000000,-5.4006453,141.28339
4296000000,-5.3899312,141.26643
4297000000,-5.4214725,141.14197
4298000000,-5.3946695,141.04852
4299000000,-5.4052525,140.9677
4300000000,-5.4029756,140.96951
4301000000,-5.4122186,140.93872
4302000000,-5.4094896,140.85757
4303000000,-5.4072738,140.89142
4304000000,-5.4036999,140.77913
4305000000,-5.4091954,140.65495
4306000000,-5.4082565,140.70413
4307000000,-5.4064527,140.64963
4308000000,-5.4134469,140.54102
4309000000,-5.4111938,140.18965
4310000000,-5.4072404,140.48442
4311000000,-5.4114985,140.22211
4312000000,-5.4164577,140.25191
4313000000,-5.4227986,140.36243
4314000000,-5.41961,140.21593
4315000000,-5.427073,140.15616
4316000000,-5.4131312,140.0287
4317000000,-5.4186826,140.1194
4318000000,-5.4329696,139.84711
4319000000,-5.4259953,140.2226
4320000000,-5.3999381,139.79065
4321000000,-5.4171991,139.89771
4322000000,-5.3991418,139.7236
4323000000,-5.3979659,139.72778
4324000000,-5.4019461,139.67128
4325000000,-5.39922,139.70055
4326000000,-5.4266348,139.36429
4327000000,-5.4396167,139.44586
4328000000,-5.4502263,139.40991
4329000000,-5.3978076,139.32559
4330000000,-5.38977,139.38548
4331000000,-5.3994246,139.32401
4332000000,-5.4221721,139.06645
4333000000,-5.3967638,139.25037
4334000000,-5.4215207,139.27525
4335000000,-5.4054236,138.99223
4336000000,-5.3998671,139.0798
4337000000,-5.4141121,138.99609
4338000000,-5.4144979,138.79887
4339000000,-5.4220066,138.7417
4340000000,-5.4020805,138.83508
4341000000,-5.410212,138.68181
4342000000,-5.4054446,138.69429
4343000000,-5.4070415,138.47281
4344000000,-5.4293413,138.52269
4345000000,-5.4141784,138.54202
4346000000,-5.4269724,138.26317
4347000000,-5.3834372,138.47906
4348000000,-5.4160185,138.25424
4349000000,-5.4256105,138.30154
4350000000,-5.3985896,138.27254
4351000000,-5.4232016,138.17023
4352000000,-5.4105482,138.03551
4353000000,-5.4438972,138.13791
4354000000,-5.4264698,137.94611
4355000000,-5.420681,137.94148
4356000000,-5.4163432,137.79092
4357000000,-5.4224916,137.77304
4358000000,-5.4054537,137.64922
4359000000,-5.4197001,137.66359
4360000000,-5.3988142,137.69823
4361000000,-5.3876095,137.48219
4362000000,-5.3911271,137.75229
4363000000,-5.4189115,137.3316
4364000000,-5.4163923,137.43916
4365000000,-5.418756,137.47346
4366000000,-5.4153318,137.51935
4367000000,-5.4306426,137.36099
4368000000,-5.421402,137.27734
4369000000,-5.3989801,137.33916
4370000000,-5.4172406,137.09152
4371000000,-5.41854,136.90996
4372000000,-5.4387679,137.06831
4373000000,-5.4442062,136.90622
4374000000,-5.3944793,136.90182
4375000000,-5.4320545,136.82372
4376000000,-5.3960953,136.82637
4377000000,-5.4211888,136.85036
4378000000,-5.4068284,136.67789
4379000000,-5.4214363,136.86891
4380000000,-5.4422932,136.6886
4381000000,-5.4156418,136.47409
4382000000,-5.4241133,136.68861
4383000000,-5.4327116,136.45547
4384000000,-5.4094639,136.4052
4385000000,-5.4039917,136.50078
4386000000,-5.4402318,136.3815
4387000000,-5.4148364,136.4321
4388000000,-5.4199386,136.18513
4389000000,-5.395134,136.00916
4390000000,-5.4084234,136.26096
4391000000,-5.4482679,136.14334
4392000000,-5.4465098,136.10974
4393000000,-5.4122248,136.04646
4394000000,-5.4412031,135.8709
4395000000,-5.427918,135.99303
4396000000,-5.4120369,135.9543
4397000000,-5.4116173,135.67192
4398000000,-5.4002151,135.70457
4399000000,-5.415535,135.65887
4400000000,-5.4094653,135.6174
4401000000,-5.40554,135.52594
4402000000,-5.3832479,135.61601
4403000000,-5.4107113,135.53522
4404000000,-5.4077926,135.60451
4405000000,-5.441277,135.27541
4406000000,-5.4149008,135.21056
4407000000,-5.4438939,135.24748
4408000000,-5.4284263,135.27641
4409000000,-5.4340525,135.22275
4410000000,-5.4362211,135.15549
4411000000,-5.4265819,135.15823
4412000000,-5.4289064,135.09767
4413000000,-5.4238753,135.11987
4414000000,-5.451582,134.78204
4415000000,-5.4173226,134.79817
4416000000,-5.4633489,134.6348
4417000000,-5.3925934,134.85416
4418000000,-5.4147248,134.71675
4419000000,-5.4390059,134.79279
4420000000,-5.4448509,134.68387
4421000000,-5.4125314,134.45818
4422000000,-5.4896979,134.48615
4423000000,-5.3997211,134.5009
4424000000,-5.4283385,134.38235
4425000000,-5.4231853,134.42746
4426000000,-5.4203348,134.46709
4427000000,-5.4122891,134.20399
4428000000,-5.3907852,134.40022
4429000000,-5.4150839,134.03722
4430000000,-5.4782906,134.25897
4431000000,-5.4263277,134.07004
4432000000,-5.4559107,134.17543
4433000000,-5.4539223,133.94229
4434000000,-5.4462576,134.0979
4435000000,-5.4259744,134.0672
4436000000,-5.4403009,133.97168
4437000000,-5.435461,133.96782
4438000000,-5.4090881,133.57028
4439000000,-5.4381599,133.77795
4440000000,-5.4359608,133.86328
4441000000,-5.4628282,133.57124
4442000000,-5.4585528,133.55621
4443000000,-5.4791207,133.73857
4444000000,-5.4351645,133.44667
4445000000,-5.415441,133.50333
4446000000,-5.4549375,133.27249
4447000000,-5.4243817,133.45296
4448000000,-5.4335437,133.41359
4449000000,-5.4308434,133.16205
4450000000,-5.420238,133.13281
4451000000,-5.4382205,133.18283
4452000000,-5.4349151,133.25127
4453000000,-5.4159513,133.18274
4454000000,-5.4485893,133.0611
4455000000,-5.4109216,132.93121
4456000000,-5.4295087,132.98598
4457000000,-5.4322948,132.87126
4458000000,-5.3957243,132.95454
4459000000,-5.4106255,132.76703
4460000000,-5.4239368,132.94881
4461000000,-5.3880372,132.82742
4462000000,-5.4285932,132.63623
4463000000,-5.3985953,132.85818
4464000000,-5.4244037,132.48055
4465000000,-5.4096518,132.55563
4466000000,-5.4164414,132.38669
4467000000,-5.4207258,132.32104
4468000000,-5.4145598,132.36607
4469000000,-5.3711376,132.49954
4470000000,-5.4378304,132.17699
4471000000,-5.445539,132.2531
4472000000,-5.4189258,132.14745
4473000000,-5.4149613,132.22585
4474000000,-5.421783,132.02802
4475000000,-5.420002,132.04778
4476000000,-5.4508166,132.06682
4477000000,-5.4197254,131.79222
4478000000,-5.4360542,131.94173
4479000000,-5.4237165,131.79111
4480000000,-5.4242849,131.6698
4481000000,-5.4466839,131.71382
4482000000,-5.4359965,131.77724
4483000000,-5.4281859,131.7027
4484000000,-5.4126177,131.75557
4485000000,-5.4513063,131.63184
4486000000,-5.4300156,131.51469
4487000000,-5.4385471,131.50336
4488000000,-5.4315028,131.7247
4489000000,-5.4266772,131.43044
4490000000,-5.3960347,131.65108
4491000000,-5.434236,131.26324
4492000000,-5.405755,131.28723
4493000000,-5.441411,131.26349
4494000000,-5.4332733,131.19667
4495000000,-5.4171953,131.17047
4496000000,-5.4345126,131.09267
4497000000,-5.4515362,131.04015
4498000000,-5.4472446,130.93231
4499000000,-5.4127412,130.89021
4500000000,-5.4134021,131.06551
4501000000,-5.4042311,130.93878
4502000000,-5.4189248,130.74606
4503000000,-5.4295816,130.79909
4504000000,-5.434638,130.77817
4505000000,-5.3945642,130.72488
4506000000,-5.4269838,130.51976
4507000000,-5.4250612,130.63304
4508000000,-5.4099364,130.54108
4509000000,-5.4517131,130.42441
4510000000,-5.4059281,130.37383
4511000000,-5.4432707,130.64806
4512000000,-5.3926954,130.1525
4513000000,-5.4551182,130.35681
4514000000,-5.4397721,130.31229
4515000000,-5.4112949,130.1938
4516000000,-5.4190574,130.14532
4517000000,-5.4063601,130.10594
4518000000,-5.3882151,130.12976
4519000000,-5.4080458,130.02705
4520000000,-5.4323668,130.04131
4521000000,-5.4552274,129.96741
4522000000,-5.4267116,129.81285
4523000000,-5.4253483,129.85449
4524000000,-5.4353681,129.75403
4525000000,-5.407084,129.59067
4526000000,-5.4037991,129.70905
4527000000,-5.4248753,129.46341
4528000000,-5.4008546,129.61043
4529000000,-5.4202342,129.58752
4530000000,-5.3775053,129.30513
4531000000,-5.4372611,129.53169
4532000000,-5.4495349,129.55821
4533000000,-5.4209456,129.31264
4534000000,-5.4453101,129.06329
4535000000,-5.4085464,129.28522
4536000000,-5.4215107,129.33156
4537000000,-5.4517593,129.28336
4538000000,-5.4045758,128.97627
4539000000,-5.4375143,129.12166
4540000000,-5.4618464,129.08603
4541000000,-5.4568639,128.8553
4542000000,-5.4360118,128.689
4543000000,-5.4476161,128.87378
4544000000,-5.4568462,128.84903
4545000000,-5.4169936,128.67334
4546000000,-5.4212914,128.77611
4547000000,-5.4324632,128.69289
4548000000,-5.409287,128.83453
4549000000,-5.4283767,128.6368
4550000000,-5.427011,128.79489
4551000000,-5.4152842,128.66875
4552000000,-5.4208741,128.60825
4553000000,-5.4153285,128.46431
4554000000,-5.4140372,128.42973
4555000000,-5.4079733,128.33574
4556000000,-5.439795,128.29295
4557000000,-5.4090748,128.18303
4558000000,-5.4581761,128.16602
4559000000,-5.4305415,128.38438
4560000000,-5.4134822,128.04755
4561000000,-5.4112964,127.99101
4562000000,-5.4224467,128.04611
4563000000,-5.413238,127.81964
4564000000,-5.4269342,127.77135
4565000000,-5.4380188,127.90041
4566000000,-5.4224911,127.92683
4567000000,-5.4441991,127.92334
4568000000,-5.4241643,127.77683
4569000000,-5.4424663,127.65212
4570000000,-5.4380898,127.66042
4571000000,-5.409091,127.43533
4572000000,-5.4215236,127.48223
4573000000,-5.4301348,127.58585
4574000000,-5.4127774,127.54794
4575000000,-5.4438238,127.10689
4576000000,-5.3967476,127.46427
4577000000,-5.4612145,127.33365
4578000000,-5.4190674,127.25428
4579000000,-5.4482718,127.30206
4580000000,-5.4498777,127.22432
4581000000,-5.4362607,126.9652
4582000000,-5.436367,127.0953
4583000000,-5.4308271,127.16262
4584000000,-5.4409161,126.84163
4585000000,-5.4420953,126.86467
4586000000,-5.4514489,126.92765
4587000000,-5.4084482,126.84268
4588000000,-5.4528666,127.03596
4589000000,-5.4617567,126.8685
4590000000,-5.4388208,126.74055
4591000000,-5.4505472,126.66759
4592000000,-5.4411454,126.81106
4593000000,-5.4574661,126.58096
4594000000,-5.4731917,126.6674
4595000000,-5.4424415,126.58228
4596000000,-5.433146,126.48558
4597000000,-5.4435945,126.65182
4598000000,-5.3965263,126.37103
4599000000,-5.4216719,126.46954
4600000000,-5.4535465,126.51732
4601000000,-5.4683137,126.37995
4602000000,-5.4402475,126.36942
4603000000,-5.4566288,126.11469
4604000000,-5.4512963,126.31476
4605000000,-5.469348,126.09968
4606000000,-5.4353299,126.00862
4607000000,-5.4504137,125.97769
4608000000,-5.4436965,126.25079
4609000000,-5.4203486,125.94071
4610000000,-5.4521708,125.95906
4611000000,-5.4296045,125.86383
4612000000,-5.4092989,125.74522
4613000000,-5.451961,125.67873
4614000000,-5.4251122,125.64395
4615000000,-5.4457507,125.77575
4616000000,-5.4166069,125.55131
4617000000,-5.4702048,125.40689
4618000000,-5.4839735,125.45555
4619000000,-5.4214253,125.40238
4620000000,-5.480298,125.47406
4621000000,-5.4700732,125.23664
4622000000,-5.4517779,125.38707
4623000000,-5.4432025,125.37426
4624000000,-5.4569392,125.42262
4625000000,-5.4313545,125.31274
4626000000,-5.442781,125.29803
4627000000,-5.4407487,124.96797
4628000000,-5.4971957,125.1393
4629000000,-5.469285,125.02835
4630000000,-5.4516563,124.82999
4631000000,-5.4840102,124.91592
4632000000,-5.4418526,125.00063
4633000000,-5.474062,124.94003
4634000000,-5.4113126,124.73373
4635000000,-5.4561572,124.79456
4636000000,-5.4517336,124.74902
4637000000,-5.4816985,124.48927
4638000000,-5.4518676,124.73707
4639000000,-5.4631882,124.54662
4640000000,-5.4761562,124.61034
4641000000,-5.4662008,124.54044
4642000000,-5.461729,124.36
4643000000,-5.4543023,124.46886
4644000000,-5.4944611,124.36813
4645000000,-5.50108,124.57625
4646000000,-5.4761844,124.3173
4647000000,-5.5100303,124.17796
4648000000,-5.5004225,124.33279
4649000000,-5.4919457,124.24944
4650000000,-5.4799137,124.18289
4651000000,-5.4923801,124.13089
4652000000,-5.494154,124.08052
4653000000,-5.477304,123.89105
4654000000,-5.4906349,123.82682
4655000000,-5.4615607,123.74525
4656000000,-5.5080271,123.73573
4657000000,-5.4736257,123.9035
4658000000,-5.4889703,123.97593
4659000000,-5.498312,123.68993
4660000000,-5.4946046,123.65988
4661000000,-5.4829283,123.54951
4662000000,-5.4774032,123.4707
4663000000,-5.4763241,123.64895
4664000000,-5.4750943,123.41521
4665000000,-5.4917259,123.31364
4666000000,-5.5115099,123.27924
4667000000,-5.49265,123.04852
4668000000,-5.4644046,123.36792
4669000000,-5.499681,123.29195
4670000000,-5.4997053,123.38225
4671000000,-5.4838486,123.16477
4672000000,-5.5236063,123.00466
4673000000,-5.4850903,123.19984
4674000000,-5.5000072,122.97819
4675000000,-5.5137439,123.10378
4676000000,-5.4843645,122.96779
4677000000,-5.4826512,122.93718
4678000000,-5.4974656,122.78374
4679000000,-5.4822855,122.92876
4680000000,-5.5126915,122.87544
4681000000,-5.4920688,122.61092
4682000000,-5.4931226,122.84141
4683000000,-5.5138698,122.89464
4684000000,-5.4692822,122.49063
4685000000,-5.5325742,122.45192
4686000000,-5.5170774,122.54878
4687000000,-5.4956317,122.36341
4688000000,-5.4450941,122.55482
4689000000,-5.4839873,122.37003
4690000000,-5.495657,122.55313
4691000000,-5.5060053,122.34377
4692000000,-5.5098729,122.39001
4693000000,-5.4896145,122.19075
4694000000,-5.5105171,122.35181
4695000000,-5.5179811,122.12038
4696000000,-5.507194,122.15381
4697000000,-5.5126185,122.17479
4698000000,-5.5126457,122.32646
4699000000,-5.5179977,121.91471
4700000000,-5.5163555,121.96092
4701000000,-5.4785657,122.14713
4702000000,-5.5053163,121.64787
4703000000,-5.5286775,121.90616
4704000000,-5.5032802,121.87398
4705000000,-5.5169187,121.6466
4706000000,-5.5037479,121.81616
4707000000,-5.5230436,121.58119
4708000000,-5.5266247,121.60276
4709000000,-5.5088487,121.6001
4710000000,-5.5158601,121.65342
4711000000,-5.4768944,121.49427
4712000000,-5.5132861,121.44118
4713000000,-5.5040293,121.38502
4714000000,-5.544826,121.45582
4715000000,-5.5600023,121.47374
4716000000,-5.5080709,121.41614
4717000000,-5.514235,121.27914
4718000000,-5.5083642,121.40179
4719000000,-5.5614753,121.23601
4720000000,-5.5491648,121.27907
4721000000,-5.5389009,121.20426
4722000000,-5.5345154,121.29486
4723000000,-5.5136461,121.18753
4724000000,-5.5226774,121.14162
4725000000,-5.5239601,120.98224
4726000000,-5.5587196,121.0833
4727000000,-5.5220208,120.88565
4728000000,-5.5346694,120.86412
4729000000,-5.5130486,120.70929
4730000000,-5.5623288,120.59309
4731000000,-5.5704322,120.71101
4732000000,-5.5390496,120.76218
4733000000,-5.5635977,120.85177
4734000000,-5.533473,120.56934
4735000000,-5.5349946,120.65741
4736000000,-5.5436316,120.3968
4737000000,-5.5505052,120.35767
4738000000,-5.5360904,120.41124
4739000000,-5.5665283,120.31683
4740000000,-5.5240836,120.33958
4741000000,-5.5250793,120.39016
4742000000,-5.5416083,120.47629
4743000000,-5.5676899,120.10896
4744000000,-5.5362825,120.30816
4745000000,-5.5733943,119.9785
4746000000,-5.5714021,120.2627
4747000000,-5.5578756,119.97675
4748000000,-5.5618892,120.03433
4749000000,-5.5823936,120.21305
4750000000,-5.5382638,119.89867
4751000000,-5.5481777,120.04343
4752000000,-5.5741272,120.07368
4753000000,-5.5412197,119.67974
4754000000,-5.5588117,119.96643
4755000000,-5.5747218,119.68502
4756000000,-5.5801959,120.16024
4757000000,-5.5731778,119.81865
4758000000,-5.5729733,119.83813
4759000000,-5.5741444,119.70315
4760000000,-5.5549893,119.66188
4761000000,-5.5665908,119.64747
4762000000,-5.5741329,119.57691
4763000000,-5.5897689,119.47938
4764000000,-5.5467372,119.42688
4765000000,-5.5601091,119.36088
4766000000,-5.5710974,119.47128
4767000000,-5.5887065,119.31968
4768000000,-5.5615573,119.47315
4769000000,-5.6258488,119.47127
4770000000,-5.5837603,119.22508
4771000000,-5.5816259,119.1147
4772000000,-5.593646,119.19402
4773000000,-5.5990324,119.07999
4774000000,-5.593493,119.01878
4775000000,-5.5852146,119.01083
4776000000,-5.5817499,119.0078
4777000000,-5.5952458,118.97422
4778000000,-5.6133327,118.94914
4779000000,-5.5747843,118.78567
4780000000,-5.5987668,118.76524
4781000000,-5.5914154,118.88995
4782000000,-5.5916085,118.79244
4783000000,-5.6173253,118.72688
4784000000,-5.5771794,118.3652
4785000000,-5.6003499,118.63096
4786000000,-5.6339111,118.55627
4787000000,-5.5845442,118.58079
4788000000,-5.6042171,118.41256
4789000000,-5.6172676,118.59676
4790000000,-5.6338573,118.41357
4791000000,-5.6398373,118.33102
4792000000,-5.6157975,118.46931
4793000000,-5.6030288,118.33893
4794000000,-5.5836377,118.36379
4795000000,-5.6068425,118.22693
4796000000,-5.6100097,118.17794
4797000000,-5.6096816,118.55841
4798000000,-5.6176252,118.25878
4799000000,-5.6461868,118.1196
4800000000,-5.6214442,118.00137
4801000000,-5.6412272,118.09971
4802000000,-5.6577229,118.10925
4803000000,-5.6239462,118.05724
4804000000,-5.6217618,118.05124
4805000000,-5.643609,117.5657
4806000000,-5.6469049,117.77834
4807000000,-5.6823921,117.86979
4808000000,-5.6951475,118.01987
4809000000,-5.6606164,117.52914
4810000000,-5.6412511,117.87679
4811000000,-5.6502919,117.65341
4812000000,-5.6613317,117.64083
4813000000,-5.6592784,117.78507
4814000000,-5.6777411,117.64244
4815000000,-5.6650844,117.54885
4816000000,-5.6477938,117.31454
4817000000,-5.7083497,117.23615
4818000000,-5.6952958,117.72584
4819000000,-5.6692739,117.55145
4820000000,-5.6724534,117.29339
4821000000,-5.6880116,117.15929
4822000000,-5.6698256,117.46744
4823000000,-5.6762404,117.48413
4824000000,-5.6891427,117.19442
4825000000,-5.7116709,117.28989
4826000000,-5.6720438,117.24232
4827000000,-5.6995506,116.97142
4828000000,-5.6947112,116.85936
4829000000,-5.7166672,117.00773
4830000000,-5.6994982,117.00009
4831000000,-5.7530813,116.99375
4832000000,-5.7200913,117.04778
4833000000,-5.7279062,116.77848
4834000000,-5.7324238,116.87019
4835000000,-5.6954541,116.57249
4836000000,-5.721343,116.50368
4837000000,-5.7581897,116.64164
4838000000,-5.711514,116.5881
4839000000,-5.7342243,116.59586
4840000000,-5.7585225,116.51453
4841000000,-5.7604666,116.51794
4842000000,-5.7537904,116.46451
4843000000,-5.7100048,116.48468
4844000000,-5.7215872,116.47852
4845000000,-5.7486339,116.38951
4846000000,-5.7618518,116.30344
4847000000,-5.7515078,116.2921
4848000000,-5.7422514,116.1369
4849000000,-5.7699027,116.22474
4850000000,-5.7514234,116.24795
4851000000,-5.7318511,115.99924
4852000000,-5.7589169,115.96326
4853000000,-5.751235,116.10303
4854000000,-5.7318792,116.05058
4855000000,-5.7646394,116.10329
4856000000,-5.7520733,115.87961
4857000000,-5.7646728,115.91451
4858000000,-5.7797976,115.94044
4859000000,-5.7602024,115.81679
4860000000,-5.7348247,115.95586
4861000000,-5.7800636,115.6576
4862000000,-5.7240319,115.92841
4863000000,-5.7867804,115.87641
4864000000,-5.7872224,115.80903
4865000000,-5.7848544,115.59473
4866000000,-5.7863464,115.7918
4867000000,-5.7929859,115.62543
4868000000,-5.7626939,115.45731
4869000000,-5.7936554,115.51933
4870000000,-5.778667,115.33807
4871000000,-5.8079276,115.35975
4872000000,-5.7911472,115.37082
4873000000,-5.7951074,115.31984
4874000000,-5.821022,115.69823
4875000000,-5.8133807,115.31934
4876000000,-5.8007689,115.3098
4877000000,-5.8096929,115.10246
4878000000,-5.8357997,115.1999
4879000000,-5.8456206,115.27294
4880000000,-5.8159504,115.03361
4881000000,-5.8135738,115.06718
4882000000,-5.8267107,114.93826
4883000000,-5.842298,115.19499
4884000000,-5.8077874,114.94572
4885000000,-5.8382654,114.9798
4886000000,-5.8223681,114.8196
4887000000,-5.8359561,114.92258
4888000000,-5.8611956,114.7526
4889000000,-5.8559647,114.72652
4890000000,-5.8112569,114.97224
4891000000,-5.8333354,114.60969
4892000000,-5.8737822,114.88046
4893000000,-5.8420291,114.71847
4894000000,-5.8677697,114.94486
4895000000,-5.8642182,114.78723
4896000000,-5.8588219,114.58578
4897000000,-5.8747044,114.53409
4898000000,-5.8480177,114.5369
4899000000,-5.8815308,114.48425
4900000000,-5.8659196,114.43135
4901000000,-5.8721857,114.51484
4902000000,-5.8583384,114.34669
4903000000,-5.8621688,114.61558
4904000000,-5.9074736,114.43797
4905000000,-5.8756723,114.31708
4906000000,-5.8809929,114.08055
4907000000,-5.9000149,114.13855
4908000000,-5.9287658,114.20187
4909000000,-5.8913321,114.26262
4910000000,-5.9013138,114.35867
4911000000,-5.9412875,114.01192
4912000000,-5.8868585,114.13374
4913000000,-5.9335065,113.97868
4914000000,-5.9354677,113.92039
4915000000,-5.9390674,113.97186
4916000000,-5.9422302,113.99076
4917000000,-5.9479079,113.89278
4918000000,-5.949038,113.71713
4919000000,-5.9729576,113.90783
4920000000,-6.0114613,113.98335
4921000000,-5.9657745,113.63723
4922000000,-5.9791074,113.89889
4923000000,-5.9851093,113.63786
4924000000,-5.9936872,113.89099
4925000000,-5.9676013,113.68118
4926000000,-6.0123901,113.60581
4927000000,-5.9948616,113.5438
4928000000,-6.0196648,113.69655
4929000000,-5.9838576,113.56065
4930000000,-6.0091434,113.53538
4931000000,-6.0208373,113.71102
4932000000,-6.0389752,113.44096
4933000000,-6.0122375,113.5966
4934000000,-5.9823465,113.39256
4935000000,-5.9796157,113.30352
4936000000,-6.0051899,113.5032
4937000000,-6.0034876,113.30903
4938000000,-6.0544391,113.14653
4939000000,-6.0222211,113.50037
4940000000,-6.0328674,113.19408
4941000000,-6.0558891,113.27511
4942000000,-6.0429168,113.18737
4943000000,-6.0422101,113.37281
4944000000,-6.0320015,113.37635
4945000000,-6.1107855,113.04536
4946000000,-6.0899587,113.22456
4947000000,-6.0557647,113.48746
4948000000,-6.0783591,113.09091
4949000000,-6.0895295,113.28365
4950000000,-6.0756269,113.02004
4951000000,-6.1254783,113.07275
4952000000,-6.1222873,113.2573
4953000000,-6.0948563,113.08453
4954000000,-6.1098084,113.26939
4955000000,-6.0892901,113.27716
4956000000,-6.0993991,113.30836
4957000000,-6.1199975,113.12941
4958000000,-6.132535,112.97387
4959000000,-6.1242013,112.93188
4960000000,-6.1284571,112.98576
4961000000,-6.1764746,112.81734
4962000000,-6.1487999,112.84358
4963000000,-6.132515,112.93996
4964000000,-6.1304421,112.90099
4965000000,-6.151742,112.87867
4966000000,-6.1420956,112.66827
4967000000,-6.1717749,113.23054
4968000000,-6.1873803,112.85712
4969000000,-6.1456065,112.79171
4970000000,-6.1655064,112.82738
4971000000,-6.1574225,112.69678
4972000000,-6.1706228,112.73538
4973000000,-6.2126999,112.50352
4974000000,-6.1846743,112.73585
4975000000,-6.2519422,112.9127
4976000000,-6.1881905,112.83514
4977000000,-6.2150173,112.62226
4978000000,-6.1645079,112.66163
4979000000,-6.226696,112.76824
4980000000,-6.2295799,112.73728
4981000000,-6.1631546,112.85377
4982000000,-6.1934381,112.70095
4983000000,-6.2067366,112.47803
4984000000,-6.1982222,112.50504
4985000000,-6.1995034,112.604
4986000000,-6.179328,112.52409
4987000000,-6.1967535,112.49109
4988000000,-6.2381129,112.90408
4989000000,-6.2725534,112.57043
4990000000,-6.2554693,112.34517
4991000000,-6.235261,112.61317
4992000000,-6.275445,112.43353
4993000000,-6.2592201,112.37386
4994000000,-6.2731547,112.52371
4995000000,-6.2401867,112.63565
4996000000,-6.2631617,112.40253
4997000000,-6.2665324,112.5787
4998000000,-6.2786045,112.50619
4999000000,-6.2812357,112.66981
5000000000,-6.2745309,112.36339
END

