!CSV A.01.01
!Agilent Technologies,E8362C,MY49020225,A.09.42.22
!Agilent E8362C: A.09.42.22
!Date: Tuesday, March 08, 2016 15:07:06
!Source: Standard

BEGIN CH1_DATA
Freq(Hz),S11 Log Mag(dB),S11 Phase(°)
1000000000,-4.8015685,162.43324
1001000000,-4.7803583,162.26672
1002000000,-4.797225,162.44301
1003000000,-4.7905331,162.3987
1004000000,-4.7529159,162.33076
1005000000,-4.8148274,162.38741
1006000000,-4.7985091,162.08865
1007000000,-4.7908854,162.32672
1008000000,-4.7524877,162.18642
1009000000,-4.782855,162.33224
1010000000,-4.7686934,162.24057
1011000000,-4.801734,161.85139
1012000000,-4.8184319,162.04012
1013000000,-4.7722712,161.9317
1014000000,-4.7594361,161.95251
1015000000,-4.7842827,161.91479
1016000000,-4.7529211,161.91754
1017000000,-4.7398109,161.89647
1018000000,-4.7622566,161.78314
1019000000,-4.7949572,161.66051
1020000000,-4.7741551,161.70674
1021000000,-4.7924647,161.57945
1022000000,-4.7571001,161.73273
1023000000,-4.7824807,161.67279
1024000000,-4.7666965,161.64539
1025000000,-4.7364326,161.46355
1026000000,-4.8029871,161.41678
1027000000,-4.7286696,161.4268
1028000000,-4.7726688,161.42738
1029000000,-4.7601976,161.67719
1030000000,-4.7681403,161.49396
1031000000,-4.7124114,161.22311
1032000000,-4.7901711,161.16946
1033000000,-4.7507715,161.10037
1034000000,-4.7702441,161.37341
1035000000,-4.7509656,161.20055
1036000000,-4.7559109,161.24925
1037000000,-4.7272625,161.07077
1038000000,-4.7486148,161.30675
1039000000,-4.7765698,161.20471
1040000000,-4.7116957,161.05882
1041000000,-4.7787046,161.0506
1042000000,-4.7633381,160.97646
1043000000,-4.7553163,160.98895
1044000000,-4.7365985,160.89063
1045000000,-4.7733192,160.88445
1046000000,-4.7314315,160.644
1047000000,-4.733006,160.82294
1048000000,-4.7422976,160.75684
1049000000,-4.7057252,160.69437
1050000000,-4.7135539,160.77167
1051000000,-4.7329679,160.67906
1052000000,-4.7097306,160.72957
1053000000,-4.7176619,160.38469
1054000000,-4.7223034,160.38084
1055000000,-4.7165179,160.66098
1056000000,-4.7748885,160.54329
1057000000,-4.695076,160.33252
1058000000,-4.7664223,160.18581
1059000000,-4.7384453,160.35387
1060000000,-4.7153373,160.37325
1061000000,-4.7162862,160.07527
1062000000,-4.7527847,160.17616
1063000000,-4.7136421,160.25027
1064000000,-4.707418,160.18759
1065000000,-4.6993608,160.11949
1066000000,-4.7131796,160.00356
1067000000,-4.7095413,159.85045
1068000000,-4.7105527,159.90755
1069000000,-4.6970644,159.95967
1070000000,-4.7164326,159.66327
1071000000,-4.7157679,159.94708
1072000000,-4.7052298,159.70003
1073000000,-4.7235155,159.97023
1074000000,-4.6873293,159.80569
1075000000,-4.7262821,159.71938
1076000000,-4.6916723,159.92088
1077000000,-4.6993065,159.62842
1078000000,-4.7177186,159.6353
1079000000,-4.7045979,159.48209
1080000000,-4.697001,159.43854
1081000000,-4.6758428,159.67688
1082000000,-4.7002592,159.4556
1083000000,-4.6987453,159.50723
1084000000,-4.6794763,159.36703
1085000000,-4.6708717,159.33936
1086000000,-4.6922665,159.18405
1087000000,-4.660491,159.50539
1088000000,-4.6768999,159.37231
1089000000,-4.6881728,159.11676
1090000000,-4.7045932,159.25871
1091000000,-4.6742592,159.0361
1092000000,-4.6816373,159.18159
1093000000,-4.6658473,158.89673
1094000000,-4.6781964,158.86412
1095000000,-4.6642399,159.02069
1096000000,-4.6782298,158.85449
1097000000,-4.6683726,158.77907
1098000000,-4.6780481,158.79686
1099000000,-4.6772494,158.80733
1100000000,-4.6930642,158.64444
1101000000,-4.6835632,158.61636
1102000000,-4.6768684,158.60471
1103000000,-4.6922593,158.67384
1104000000,-4.6894956,158.60672
1105000000,-4.6762805,158.56487
1106000000,-4.6703372,158.4593
1107000000,-4.6744847,158.50026
1108000000,-4.6457233,158.19279
1109000000,-4.6496425,158.14609
1110000000,-4.6579132,158.35965
1111000000,-4.65166,158.38698
1112000000,-4.6848388,158.09464
1113000000,-4.6719275,158.26413
1114000000,-4.7016873,158.15968
1115000000,-4.6307325,158.16843
1116000000,-4.6653485,158.1788
1117000000,-4.625484,158.18904
1118000000,-4.6509485,158.10211
1119000000,-4.6326623,157.67836
1120000000,-4.6442304,158.07443
1121000000,-4.6573091,157.86172
1122000000,-4.6548009,157.94737
1123000000,-4.6575432,157.71313
1124000000,-4.6180911,157.86157
1125000000,-4.6519136,157.6982
1126000000,-4.6522708,157.51981
1127000000,-4.6660094,157.64119
1128000000,-4.6681156,157.61241
1129000000,-4.6467452,157.28558
1130000000,-4.6440125,157.44591
1131000000,-4.6151133,157.44269
1132000000,-4.6513867,157.55116
1133000000,-4.6552181,157.22409
1134000000,-4.6162243,157.59851
1135000000,-4.6525917,157.21027
1136000000,-4.6507096,157.39946
1137000000,-4.6763787,157.27927
1138000000,-4.6039991,157.01575
1139000000,-4.6378059,157.12709
1140000000,-4.6483164,157.13722
1141000000,-4.6527929,157.08264
1142000000,-4.6526327,156.92648
1143000000,-4.6341262,157.09348
1144000000,-4.6491308,156.93573
1145000000,-4.6147866,156.60722
1146000000,-4.6020622,156.96701
1147000000,-4.5801744,156.72638
1148000000,-4.6462045,156.64908
1149000000,-4.6425085,156.95073
1150000000,-4.6302028,156.69452
1151000000,-4.6113644,156.73798
1152000000,-4.6415777,156.45648
1153000000,-4.6069474,156.60728
1154000000,-4.6319089,156.53236
1155000000,-4.6118221,156.30266
1156000000,-4.6048498,156.39694
1157000000,-4.5915594,156.34682
1158000000,-4.6014829,156.36873
1159000000,-4.6069946,156.2942
1160000000,-4.6156907,156.3121
1161000000,-4.5992198,156.37621
1162000000,-4.5973697,156.3307
1163000000,-4.6285439,156.1113
1164000000,-4.583684,156.22073
1165000000,-4.622313,156.06886
1166000000,-4.6037097,156.01788
1167000000,-4.6017222,156.15912
1168000000,-4.586504,155.96069
1169000000,-4.6305695,155.92012
1170000000,-4.5935111,155.9633
1171000000,-4.6182137,156.10182
1172000000,-4.5951395,155.80736
1173000000,-4.6215172,155.87584
1174000000,-4.627172,155.78836
1175000000,-4.5917945,155.41644
1176000000,-4.5783629,155.48064
1177000000,-4.6275272,155.4317
1178000000,-4.596148,155.52678
1179000000,-4.6058116,155.45528
1180000000,-4.5891061,155.40625
1181000000,-4.6169491,155.36464
1182000000,-4.5591755,155.34409
1183000000,-4.5994158,155.38654
1184000000,-4.6220908,155.22421
1185000000,-4.6131363,155.19618
1186000000,-4.6094956,155.17776
1187000000,-4.6145973,155.21481
1188000000,-4.5703835,154.88963
1189000000,-4.5875058,154.95795
1190000000,-4.5915351,154.97423
1191000000,-4.5952878,155.09554
1192000000,-4.5890031,154.84956
1193000000,-4.5976405,154.84148
1194000000,-4.57932,154.77357
1195000000,-4.6058207,154.60701
1196000000,-4.5838218,154.70911
1197000000,-4.5841942,154.55168
1198000000,-4.6018672,154.61729
1199000000,-4.6002116,154.46417
1200000000,-4.5628457,154.45119
1201000000,-4.5796785,154.4986
1202000000,-4.5850334,154.41284
1203000000,-4.606503,154.55736
1204000000,-4.5987701,154.45345
1205000000,-4.5841298,154.38313
1206000000,-4.6026373,154.37527
1207000000,-4.5980968,154.49318
1208000000,-4.5652094,154.25079
1209000000,-4.5788722,154.32011
1210000000,-4.5741787,154.13103
1211000000,-4.5764055,153.95023
1212000000,-4.5701303,153.74118
1213000000,-4.6099796,153.91634
1214000000,-4.5919819,153.82768
1215000000,-4.5712833,153.98518
1216000000,-4.5500188,153.98805
1217000000,-4.5710344,153.88771
1218000000,-4.5714765,153.77905
1219000000,-4.5327911,153.69832
1220000000,-4.5827556,153.60648
1221000000,-4.5865064,153.47704
1222000000,-4.5597248,153.55893
1223000000,-4.5667214,153.47296
1224000000,-4.5436668,153.56288
1225000000,-4.5677042,153.47339
1226000000,-4.5900927,153.31955
1227000000,-4.5864506,153.06516
1228000000,-4.575531,153.10825
1229000000,-4.6022644,153.3486
1230000000,-4.5675554,153.16948
1231000000,-4.5515351,152.84044
1232000000,-4.5780578,153.1745
1233000000,-4.5610552,152.96036
1234000000,-4.5562305,153.03981
1235000000,-4.5523968,152.68979
1236000000,-4.5662355,152.9149
1237000000,-4.577569,152.78342
1238000000,-4.5715728,152.6339
1239000000,-4.5583162,152.65358
1240000000,-4.5648398,152.58897
1241000000,-4.5490737,152.70009
1242000000,-4.5307412,152.58304
1243000000,-4.5391326,152.63751
1244000000,-4.5396876,152.47316
1245000000,-4.5517168,152.44963
1246000000,-4.5777164,152.13901
1247000000,-4.5551138,152.41867
1248000000,-4.5666714,152.23422
1249000000,-4.5768905,152.4306
1250000000,-4.572762,152.44376
1251000000,-4.5644269,152.15619
1252000000,-4.5489001,152.05072
1253000000,-4.5683298,152.13643
1254000000,-4.5577531,152.21458
1255000000,-4.5651765,152.08385
1256000000,-4.5504646,151.96762
1257000000,-4.5493217,151.83128
1258000000,-4.5765934,151.85515
1259000000,-4.5830269,151.842
1260000000,-4.5902152,151.76337
1261000000,-4.5689526,151.83234
1262000000,-4.5657759,151.69182
1263000000,-4.5652065,151.43733
1264000000,-4.5547614,151.64809
1265000000,-4.53368,151.53113
1266000000,-4.573113,151.65436
1267000000,-4.5406208,151.56206
1268000000,-4.5693111,151.53479
1269000000,-4.5812731,151.36406
1270000000,-4.5694885,151.26125
1271000000,-4.5794039,151.34457
1272000000,-4.5687766,151.22536
1273000000,-4.5612597,151.32367
1274000000,-4.599225,150.97479
1275000000,-4.5393119,150.90933
1276000000,-4.5738211,151.03969
1277000000,-4.5553231,150.86467
1278000000,-4.5921679,150.87515
1279000000,-4.5713744,150.72835
1280000000,-4.5905137,150.92455
1281000000,-4.5777974,150.767
1282000000,-4.5802312,150.70047
1283000000,-4.5616283,150.36488
1284000000,-4.5601187,150.57834
1285000000,-4.5462308,150.46361
1286000000,-4.5334511,150.79204
1287000000,-4.5653815,150.53799
1288000000,-4.5450368,150.41275
1289000000,-4.5859451,150.26616
1290000000,-4.5742526,150.25464
1291000000,-4.5923824,150.42322
1292000000,-4.5751772,150.19563
1293000000,-4.5592332,150.12239
1294000000,-4.5653667,150.22498
1295000000,-4.5485997,150.20862
1296000000,-4.5596595,150.21022
1297000000,-4.5848613,149.8334
1298000000,-4.5658207,149.72371
1299000000,-4.5651236,150.25642
1300000000,-4.5591359,149.90237
1301000000,-4.6048002,149.66447
1302000000,-4.5610805,149.69287
1303000000,-4.540854,149.79536
1304000000,-4.5623336,149.69753
1305000000,-4.5711422,149.59203
1306000000,-4.5486989,149.42793
1307000000,-4.5791774,149.53294
1308000000,-4.5762382,149.52643
1309000000,-4.5881267,149.46404
1310000000,-4.5590172,149.51691
1311000000,-4.5484767,149.2233
1312000000,-4.5833511,149.4398
1313000000,-4.5624061,149.18671
1314000000,-4.5886254,148.87532
1315000000,-4.5683489,148.94455
1316000000,-4.5904894,149.02194
1317000000,-4.5563512,149.04706
1318000000,-4.5509176,148.93796
1319000000,-4.5808148,148.93951
1320000000,-4.5336695,148.99881
1321000000,-4.5796871,148.90334
1322000000,-4.5992765,148.70959
1323000000,-4.6049747,148.65286
1324000000,-4.5579839,148.43694
1325000000,-4.5510645,148.61189
1326000000,-4.5466461,148.75235
1327000000,-4.5811787,148.56224
1328000000,-4.5838747,148.49467
1329000000,-4.5852418,148.35135
1330000000,-4.5506368,148.50168
1331000000,-4.5795188,148.34641
1332000000,-4.5585446,148.32191
1333000000,-4.5656343,148.22473
1334000000,-4.583457,148.27504
1335000000,-4.5614514,148.09419
1336000000,-4.5641146,148.04802
1337000000,-4.5555167,147.84128
1338000000,-4.5689721,148.15939
1339000000,-4.5639739,147.91212
1340000000,-4.5815344,147.80013
1341000000,-4.5405831,147.91989
1342000000,-4.5401087,147.756
1343000000,-4.5872545,147.54311
1344000000,-4.584209,147.87427
1345000000,-4.5567517,147.4442
1346000000,-4.5778241,147.56174
1347000000,-4.5744371,147.40596
1348000000,-4.5719438,147.36789
1349000000,-4.5807486,147.35701
1350000000,-4.5612526,147.44946
1351000000,-4.5872302,147.22064
1352000000,-4.5516496,147.13792
1353000000,-4.5725212,146.90247
1354000000,-4.5543327,147.09346
1355000000,-4.6089945,147.26578
1356000000,-4.5978718,146.90263
1357000000,-4.6045213,146.8649
1358000000,-4.5930285,146.95398
1359000000,-4.572062,146.68787
1360000000,-4.5439944,146.62384
1361000000,-4.57833,146.64584
1362000000,-4.5614314,146.68797
1363000000,-4.5663486,146.7234
1364000000,-4.582901,146.45064
1365000000,-4.5839128,146.62219
1366000000,-4.5940042,146.54988
1367000000,-4.5759463,146.72293
1368000000,-4.6065459,146.42015
1369000000,-4.592731,146.51796
1370000000,-4.6015573,146.25578
1371000000,-4.5929699,146.20322
1372000000,-4.5844183,146.06123
1373000000,-4.5922961,146.17931
1374000000,-4.6210155,146.11206
1375000000,-4.6160522,146.02547
1376000000,-4.5962358,146.00177
1377000000,-4.5838184,145.82565
1378000000,-4.585814,145.89268
1379000000,-4.6224327,145.81592
1380000000,-4.5832038,145.73344
1381000000,-4.5903668,145.84303
1382000000,-4.5921941,145.52153
1383000000,-4.5795302,145.54028
1384000000,-4.5910335,145.63232
1385000000,-4.6293483,145.43362
1386000000,-4.6183453,145.58813
1387000000,-4.6108556,145.31415
1388000000,-4.6112642,145.25079
1389000000,-4.6131148,145.20686
1390000000,-4.6192384,145.0359
1391000000,-4.610723,145.06792
1392000000,-4.5848246,145.09981
1393000000,-4.6024766,145.065
1394000000,-4.6021538,144.81734
1395000000,-4.6003957,144.80621
1396000000,-4.6030221,144.86739
1397000000,-4.5855637,144.82738
1398000000,-4.5856466,144.95473
1399000000,-4.6139894,144.69823
1400000000,-4.6135049,144.78197
1401000000,-4.6182904,144.48009
1402000000,-4.5940747,144.65739
1403000000,-4.5842304,144.3273
1404000000,-4.6331,144.45483
1405000000,-4.6114106,144.16998
1406000000,-4.6071625,144.21672
1407000000,-4.6370025,144.37735
1408000000,-4.6258888,144.29007
1409000000,-4.6266503,144.16734
1410000000,-4.6173153,144.11987
1411000000,-4.6369896,143.85899
1412000000,-4.6205249,143.957
1413000000,-4.6068983,143.9131
1414000000,-4.6111245,144.00455
1415000000,-4.6425362,143.91565
1416000000,-4.6399984,143.62807
1417000000,-4.6106157,143.68669
1418000000,-4.6485543,143.71625
1419000000,-4.6051345,143.57281
1420000000,-4.6404395,143.4702
1421000000,-4.642736,143.47783
1422000000,-4.641933,143.67551
1423000000,-4.6324105,143.40045
1424000000,-4.6220264,143.31001
1425000000,-4.5964413,143.17467
1426000000,-4.6236186,143.06946
1427000000,-4.6401234,143.14871
1428000000,-4.6144767,142.97813
1429000000,-4.6398945,143.03838
1430000000,-4.667676,143.01317
1431000000,-4.6251731,142.8309
1432000000,-4.6661248,142.88029
1433000000,-4.666481,142.88913
1434000000,-4.6551576,142.57884
1435000000,-4.6575398,142.52739
1436000000,-4.6624846,142.66142
1437000000,-4.6668081,142.58614
1438000000,-4.6411743,142.42973
1439000000,-4.6463242,142.21211
1440000000,-4.6547112,142.36185
1441000000,-4.6479726,142.36917
1442000000,-4.6642203,142.35471
1443000000,-4.6610632,142.1015
1444000000,-4.6684875,142.29356
1445000000,-4.6650519,142.13007
1446000000,-4.6545167,141.97884
1447000000,-4.6838918,142.03831
1448000000,-4.6556454,141.82742
1449000000,-4.6914434,141.92775
1450000000,-4.6915488,141.87186
1451000000,-4.6597543,141.50748
1452000000,-4.6527162,141.65659
1453000000,-4.6704392,141.67114
1454000000,-4.6708827,141.7574
1455000000,-4.6520958,141.36046
1456000000,-4.6565504,141.45697
1457000000,-4.7110581,141.36104
1458000000,-4.6936631,141.11031
1459000000,-4.6875658,141.30331
1460000000,-4.6714101,141.24678
1461000000,-4.6821895,141.2679
1462000000,-4.6891203,141.15797
1463000000,-4.6671104,141.01991
1464000000,-4.7166843,140.98325
1465000000,-4.7006578,140.79276
1466000000,-4.690968,140.88097
1467000000,-4.675427,140.75369
1468000000,-4.6965284,140.85408
1469000000,-4.6873183,140.79764
1470000000,-4.6983891,140.55318
1471000000,-4.6926413,140.47867
1472000000,-4.7175317,140.64847
1473000000,-4.7270794,140.39973
1474000000,-4.6979823,140.13419
1475000000,-4.711359,140.22298
1476000000,-4.7171497,140.32095
1477000000,-4.7276249,140.28551
1478000000,-4.7340789,140.22238
1479000000,-4.73947,140.05066
1480000000,-4.6933227,140.01772
1481000000,-4.7180209,139.87711
1482000000,-4.7226839,139.86237
1483000000,-4.7432637,139.9073
1484000000,-4.7305417,139.6635
1485000000,-4.728178,139.75775
1486000000,-4.7196054,139.81015
1487000000,-4.7392783,139.64642
1488000000,-4.7526426,139.69893
1489000000,-4.7245331,139.5966
1490000000,-4.6998835,139.37146
1491000000,-4.7413125,139.26886
1492000000,-4.7623782,139.28546
1493000000,-4.7237401,139.42145
1494000000,-4.7608809,139.28571
1495000000,-4.743412,139.15251
1496000000,-4.7381639,138.98267
1497000000,-4.7969422,139.21124
1498000000,-4.7571716,139.02332
1499000000,-4.7737665,138.94951
1500000000,-4.7706447,138.73532
1501000000,-4.7744765,138.67589
1502000000,-4.7841411,138.76071
1503000000,-4.8014665,138.68814
1504000000,-4.7688017,138.46021
1505000000,-4.7635732,138.43069
1506000000,-4.7871261,138.43764
1507000000,-4.7911797,138.39284
1508000000,-4.7785392,138.35207
1509000000,-4.788044,138.24434
1510000000,-4.7879734,138.2606
1511000000,-4.7810411,138.03488
1512000000,-4.7756262,138.16304
1513000000,-4.7836566,138.12149
1514000000,-4.813077,138.13564
1515000000,-4.8023376,137.89389
1516000000,-4.7877426,137.89377
1517000000,-4.8359075,137.63969
1518000000,-4.7951374,137.6897
1519000000,-4.8109818,137.80463
1520000000,-4.807972,137.75124
1521000000,-4.8222771,137.59886
1522000000,-4.8150735,137.41016
1523000000,-4.8129325,137.46001
1524000000,-4.8297472,137.40993
1525000000,-4.8273377,137.26823
1526000000,-4.8212137,137.25687
1527000000,-4.8588743,137.27994
1528000000,-4.8485928,137.17619
1529000000,-4.835793,137.13033
1530000000,-4.8474336,137.04471
1531000000,-4.8282351,137.04353
1532000000,-4.8311791,136.90739
1533000000,-4.8437405,136.97066
1534000000,-4.8377156,136.92215
1535000000,-4.8582273,136.57631
1536000000,-4.8380709,136.56221
1537000000,-4.8729906,136.612
1538000000,-4.8556042,136.55701
1539000000,-4.8659701,136.43506
1540000000,-4.8714848,136.55028
1541000000,-4.8727989,136.50781
1542000000,-4.8911948,136.09422
1543000000,-4.8787251,136.09309
1544000000,-4.8870015,136.14711
1545000000,-4.9045248,136.1151
1546000000,-4.8841877,136.26636
1547000000,-4.9120812,135.94823
1548000000,-4.8899269,136.09401
1549000000,-4.8771849,135.74301
1550000000,-4.8918905,135.72511
1551000000,-4.897583,135.63399
1552000000,-4.8913903,135.50494
1553000000,-4.9178519,135.52681
1554000000,-4.8738365,135.64136
1555000000,-4.9002271,135.58176
1556000000,-4.9046054,135.47032
1557000000,-4.935379,135.42862
1558000000,-4.9205275,135.32542
1559000000,-4.9125543,135.25281
1560000000,-4.9362416,135.16913
1561000000,-4.9024358,135.11699
1562000000,-4.9284716,134.99464
1563000000,-4.9588237,134.97987
1564000000,-4.9143643,134.81784
1565000000,-4.9440255,134.95392
1566000000,-4.9346833,134.97548
1567000000,-4.9604597,134.7662
1568000000,-4.9543881,134.75424
1569000000,-4.9449739,134.70615
1570000000,-4.957963,134.31592
1571000000,-4.9451418,134.51947
1572000000,-4.9564538,134.45091
1573000000,-4.9388766,134.40382
1574000000,-4.9611726,134.39586
1575000000,-4.9519057,134.17497
1576000000,-4.9537921,134.12285
1577000000,-4.9667573,133.89301
1578000000,-4.9952755,133.96584
1579000000,-4.9863977,133.9995
1580000000,-4.9702444,133.90437
1581000000,-4.9715362,133.94739
1582000000,-5.0001397,133.84802
1583000000,-4.97089,133.8271
1584000000,-5.0094185,133.46898
1585000000,-4.9940143,133.47179
1586000000,-5.035059,133.46849
1587000000,-4.9838576,133.36554
1588000000,-5.0266271,133.27031
1589000000,-4.9935942,133.47414
1590000000,-5.0011377,133.16429
1591000000,-5.0394521,133.14075
1592000000,-5.0195193,133.32042
1593000000,-5.0339322,133.21202
1594000000,-5.0561256,133.01534
1595000000,-5.0021787,133.04478
1596000000,-5.0299063,132.73599
1597000000,-5.0311146,132.718
1598000000,-5.0160093,132.65294
1599000000,-5.0314121,132.57985
1600000000,-5.0265522,132.64565
1601000000,-5.0455461,132.74986
1602000000,-5.0372481,132.40805
1603000000,-5.075191,132.40436
1604000000,-5.0079322,132.2072
1605000000,-5.0412416,132.4174
1606000000,-5.0861669,132.13727
1607000000,-5.0845952,132.11595
1608000000,-5.0759611,132.14169
1609000000,-5.0113454,131.94131
1610000000,-5.0739436,131.8387
1611000000,-5.1040044,131.95657
1612000000,-5.0727496,131.67599
1613000000,-5.0875421,131.86398
1614000000,-5.1049919,131.64828
1615000000,-5.0820265,131.75864
1616000000,-5.0878439,131.6402
1617000000,-5.1058455,131.75964
1618000000,-5.1156449,131.52699
1619000000,-5.1148453,131.44147
1620000000,-5.1034245,131.07916
1621000000,-5.096137,131.37927
1622000000,-5.1028123,131.14142
1623000000,-5.0887589,130.90594
1624000000,-5.0986052,130.92924
1625000000,-5.1191235,131.03433
1626000000,-5.1466236,130.937
1627000000,-5.1542578,130.97815
1628000000,-5.1401086,130.66727
1629000000,-5.1239944,130.60045
1630000000,-5.1058064,130.55701
1631000000,-5.1261158,130.5605
1632000000,-5.1362047,130.55623
1633000000,-5.1184793,130.37595
1634000000,-5.1616592,130.10217
1635000000,-5.1391063,130.24982
1636000000,-5.1387568,130.10651
1637000000,-5.122191,130.37852
1638000000,-5.1581717,130.12764
1639000000,-5.1403995,129.88641
1640000000,-5.2201676,130.04654
1641000000,-5.1770878,129.9371
1642000000,-5.1960926,129.81325
1643000000,-5.1489272,129.72989
1644000000,-5.1630807,129.5168
1645000000,-5.2090616,129.48555
1646000000,-5.2358437,129.29224
1647000000,-5.2170439,129.57465
1648000000,-5.206111,129.35628
1649000000,-5.1966882,129.39438
1650000000,-5.2093287,129.24779
1651000000,-5.2255006,129.19365
1652000000,-5.211235,128.97359
1653000000,-5.2712898,129.05515
1654000000,-5.2207198,128.88258
1655000000,-5.2451434,128.90601
1656000000,-5.2169275,128.95389
1657000000,-5.2485294,128.82501
1658000000,-5.2689099,128.70981
1659000000,-5.2228136,128.65565
1660000000,-5.2663088,128.41106
1661000000,-5.2888012,128.3936
1662000000,-5.2427125,128.30777
1663000000,-5.2879534,128.40747
1664000000,-5.2868352,128.28569
1665000000,-5.2725153,128.2377
1666000000,-5.2957506,128.3597
1667000000,-5.2998261,128.17743
1668000000,-5.2987447,127.76596
1669000000,-5.3066897,127.96175
1670000000,-5.3225689,127.77541
1671000000,-5.3085237,127.77609
1672000000,-5.3182774,127.43964
1673000000,-5.3479929,127.76971
1674000000,-5.3192854,127.49585
1675000000,-5.3192558,127.28735
1676000000,-5.3638015,127.61464
1677000000,-5.3568645,127.25305
1678000000,-5.335465,127.28972
1679000000,-5.3723865,127.2514
1680000000,-5.3697824,127.24331
1681000000,-5.3312998,127.19031
1682000000,-5.3551812,126.89347
1683000000,-5.36303,126.92023
1684000000,-5.3747582,126.96232
1685000000,-5.3836508,126.79174
1686000000,-5.4024229,126.60592
1687000000,-5.4148002,126.54395
1688000000,-5.4189401,126.7467
1689000000,-5.4231615,126.44215
1690000000,-5.4342833,126.59794
1691000000,-5.3972278,126.26552
1692000000,-5.4000111,126.18264
1693000000,-5.4367089,125.93157
1694000000,-5.4479532,126.03165
1695000000,-5.4746113,126.033
1696000000,-5.4420733,125.87637
1697000000,-5.4835992,125.76485
1698000000,-5.4549417,125.76913
1699000000,-5.4345441,125.72802
1700000000,-5.4777021,125.62256
1701000000,-5.4877329,125.38487
1702000000,-5.4838581,125.27027
1703000000,-5.4950523,125.47133
1704000000,-5.4976373,125.33391
1705000000,-5.5192418,125.29623
1706000000,-5.5021563,125.33853
1707000000,-5.5295863,125.04918
1708000000,-5.5009184,125.00214
1709000000,-5.5050998,125.15739
1710000000,-5.5512824,125.00468
1711000000,-5.536149,124.84445
1712000000,-5.5258012,124.82855
1713000000,-5.547914,124.56839
1714000000,-5.5573516,124.52783
1715000000,-5.5491266,124.50819
1716000000,-5.5672598,124.51208
1717000000,-5.5289855,124.37441
1718000000,-5.5734067,124.25345
1719000000,-5.555223,124.00322
1720000000,-5.5608168,124.11893
1721000000,-5.5676823,124.20803
1722000000,-5.599936,124.11
1723000000,-5.6163559,124.06525
1724000000,-5.6102738,123.91163
1725000000,-5.5916052,123.75175
1726000000,-5.5963817,123.70269
1727000000,-5.6345854,123.68069
1728000000,-5.6526198,123.71414
1729000000,-5.6308327,123.70502
1730000000,-5.632853,123.32766
1731000000,-5.6319547,123.60797
1732000000,-5.6450562,123.41253
1733000000,-5.6387839,123.255
1734000000,-5.6666183,123.23861
1735000000,-5.6575089,123.2158
1736000000,-5.6430864,122.95361
1737000000,-5.6764936,122.78155
1738000000,-5.7000012,122.80952
1739000000,-5.6792407,122.85187
1740000000,-5.7026744,122.76194
1741000000,-5.7230163,122.79921
1742000000,-5.7158036,122.68277
1743000000,-5.7098136,122.46977
1744000000,-5.7352123,122.36153
1745000000,-5.7092733,122.2944
1746000000,-5.7216034,122.40247
1747000000,-5.699193,122.27858
1748000000,-5.7429881,122.24284
1749000000,-5.7482033,122.17451
1750000000,-5.7343855,121.88488
1751000000,-5.7421265,121.93372
1752000000,-5.7480693,121.8478
1753000000,-5.771419,121.77599
1754000000,-5.7843881,121.61477
1755000000,-5.7725277,121.57404
1756000000,-5.7604265,121.72366
1757000000,-5.7850337,121.53799
1758000000,-5.808948,121.3065
1759000000,-5.8052859,121.35816
1760000000,-5.811192,121.24448
1761000000,-5.8184371,121.04664
1762000000,-5.8408165,121.01319
1763000000,-5.8834639,121.10211
1764000000,-5.8391566,120.88988
1765000000,-5.8685665,120.91805
1766000000,-5.8801713,120.77248
1767000000,-5.8625693,120.82581
1768000000,-5.8544726,120.69769
1769000000,-5.8539658,120.57178
1770000000,-5.8865051,120.46423
1771000000,-5.919734,120.32413
1772000000,-5.8980732,120.30104
1773000000,-5.8669381,120.28458
1774000000,-5.9296503,120.13309
1775000000,-5.8802166,120.08385
1776000000,-5.9288235,119.83358
1777000000,-5.9220152,119.78435
1778000000,-5.959888,119.71175
1779000000,-5.969389,119.90478
1780000000,-5.9900241,119.85188
1781000000,-5.9638462,119.74673
1782000000,-5.9710813,119.4715
1783000000,-5.9750996,119.42767
1784000000,-5.9508901,119.24444
1785000000,-5.9722795,119.35573
1786000000,-6.0202479,119.14925
1787000000,-6.0162616,119.12298
1788000000,-6.0205126,119.17063
1789000000,-6.0158768,118.99142
1790000000,-6.0125437,118.77602
1791000000,-6.02002,118.87901
1792000000,-6.0289793,118.60246
1793000000,-6.0575948,118.67462
1794000000,-6.0330787,118.5006
1795000000,-6.0575829,118.33057
1796000000,-6.0763884,118.19892
1797000000,-6.0789428,118.52422
1798000000,-6.0955601,118.2355
1799000000,-6.1027102,118.09558
1800000000,-6.116621,118.05933
1801000000,-6.1090827,117.83598
1802000000,-6.1006532,117.78563
1803000000,-6.1303329,117.93908
1804000000,-6.10853,117.80122
1805000000,-6.1170444,117.5349
1806000000,-6.1592321,117.50127
1807000000,-6.1491442,117.49673
1808000000,-6.1696591,117.58178
1809000000,-6.1698465,117.21889
1810000000,-6.1992893,117.36425
1811000000,-6.1786237,117.13902
1812000000,-6.1660414,117.20596
1813000000,-6.1846924,117.18516
1814000000,-6.2173696,116.93249
1815000000,-6.1808558,117.05218
1816000000,-6.2023058,116.93339
1817000000,-6.2415619,116.85742
1818000000,-6.2308507,116.6441
1819000000,-6.2747579,116.72491
1820000000,-6.2642226,116.35704
1821000000,-6.2585649,116.71354
1822000000,-6.268445,116.50202
1823000000,-6.2957726,116.41692
1824000000,-6.2891531,116.23393
1825000000,-6.2997365,116.09164
1826000000,-6.306262,116.11407
1827000000,-6.308332,115.90476
1828000000,-6.345458,115.95125
1829000000,-6.3383598,115.78036
1830000000,-6.3824835,115.81173
1831000000,-6.3396211,115.77104
1832000000,-6.3648462,115.72327
1833000000,-6.400825,115.45444
1834000000,-6.4004178,115.43498
1835000000,-6.3472872,115.20983
1836000000,-6.3785095,115.34801
1837000000,-6.3770237,115.10295
1838000000,-6.3977442,115.01755
1839000000,-6.4251161,114.8541
1840000000,-6.4351072,115.08806
1841000000,-6.438899,115.00745
1842000000,-6.4619355,114.72243
1843000000,-6.445087,114.63183
1844000000,-6.4666128,114.54467
1845000000,-6.4930367,114.67627
1846000000,-6.4584036,114.44558
1847000000,-6.4929953,114.39416
1848000000,-6.4974957,114.3316
1849000000,-6.5027952,114.19856
1850000000,-6.5190835,114.31129
1851000000,-6.4910178,114.04838
1852000000,-6.5387096,114.10277
1853000000,-6.5550513,114.06582
1854000000,-6.5353384,113.82281
1855000000,-6.5374575,113.64031
1856000000,-6.5720053,113.53357
1857000000,-6.5961781,113.60456
1858000000,-6.5729618,113.44785
1859000000,-6.62819,113.497
1860000000,-6.6042976,113.29707
1861000000,-6.6374745,113.20093
1862000000,-6.6256881,113.25323
1863000000,-6.6196704,113.23791
1864000000,-6.6473932,112.99759
1865000000,-6.6605978,113.00336
1866000000,-6.6693764,112.97308
1867000000,-6.7209959,112.72195
1868000000,-6.6817923,112.60044
1869000000,-6.7069049,112.67886
1870000000,-6.7308855,112.53642
1871000000,-6.7230678,112.44044
1872000000,-6.7255626,112.49584
1873000000,-6.7374792,112.46899
1874000000,-6.7529144,112.35661
1875000000,-6.7711496,112.3689
1876000000,-6.7477875,112.1071
1877000000,-6.775445,111.9656
1878000000,-6.7942533,111.97681
1879000000,-6.8171411,111.84148
1880000000,-6.7714529,111.65134
1881000000,-6.8362603,111.72459
1882000000,-6.8291869,111.51617
1883000000,-6.8308706,111.47361
1884000000,-6.8775454,111.23822
1885000000,-6.8842454,111.38589
1886000000,-6.8588328,110.91703
1887000000,-6.8748651,111.07546
1888000000,-6.8909779,111.12754
1889000000,-6.9088783,110.87555
1890000000,-6.9205651,110.69726
1891000000,-6.899724,110.91797
1892000000,-6.9392576,110.81277
1893000000,-6.9562187,110.80453
1894000000,-6.9824476,110.48081
1895000000,-6.9657149,110.46649
1896000000,-6.976326,110.40903
1897000000,-6.9954028,110.57498
1898000000,-7.012866,110.2439
1899000000,-7.0193,110.07085
1900000000,-7.052196,110.02001
1901000000,-7.0539608,110.03817
1902000000,-7.0647922,110.15295
1903000000,-7.0229211,109.72036
1904000000,-7.0689726,109.8174
1905000000,-7.0836916,109.65234
1906000000,-7.0619154,109.70824
1907000000,-7.1001425,109.56032
1908000000,-7.110045,109.2112
1909000000,-7.0903115,109.43443
1910000000,-7.1520181,109.22296
1911000000,-7.1434636,109.25652
1912000000,-7.1562634,109.02829
1913000000,-7.1370306,108.90417
1914000000,-7.1846581,109.03712
1915000000,-7.1995959,108.857
1916000000,-7.2174211,108.94257
1917000000,-7.1898866,108.61044
1918000000,-7.1940517,108.76297
1919000000,-7.2348781,108.54685
1920000000,-7.2506342,108.42294
1921000000,-7.2584,108.32851
1922000000,-7.2668452,108.17773
1923000000,-7.3056197,107.99299
1924000000,-7.2919259,107.99886
1925000000,-7.3339815,107.84454
1926000000,-7.3129039,107.9522
1927000000,-7.3135271,107.6705
1928000000,-7.3628359,107.77838
1929000000,-7.3404889,107.97897
1930000000,-7.4030356,107.65903
1931000000,-7.3974104,107.69732
1932000000,-7.4004893,107.48728
1933000000,-7.418601,107.22121
1934000000,-7.4424872,107.318
1935000000,-7.4246716,107.14951
1936000000,-7.4512939,106.96267
1937000000,-7.4629664,106.99611
1938000000,-7.503624,106.89281
1939000000,-7.4878888,106.75658
1940000000,-7.5233192,106.5423
1941000000,-7.5240011,106.81044
1942000000,-7.5152974,106.59785
1943000000,-7.5134449,106.64182
1944000000,-7.5467305,106.25512
1945000000,-7.5544524,106.26559
1946000000,-7.5409417,106.21015
1947000000,-7.5430589,106.14477
1948000000,-7.5899315,105.89545
1949000000,-7.6381435,105.73389
1950000000,-7.6150603,105.90173
1951000000,-7.6452808,105.61803
1952000000,-7.6513047,105.65907
1953000000,-7.6716056,105.70036
1954000000,-7.6625743,105.59407
1955000000,-7.6977825,105.35862
1956000000,-7.7362795,105.49883
1957000000,-7.7165012,105.26694
1958000000,-7.7381859,105.05972
1959000000,-7.7539248,105.06903
1960000000,-7.7601614,105.24817
1961000000,-7.771625,104.9542
1962000000,-7.7895317,104.78159
1963000000,-7.822207,104.72902
1964000000,-7.7921386,104.52866
1965000000,-7.8101516,104.62776
1966000000,-7.8655944,104.44926
1967000000,-7.8502378,104.63213
1968000000,-7.8748722,104.10368
1969000000,-7.8896999,104.31704
1970000000,-7.9151163,104.24205
1971000000,-7.9038925,104.14439
1972000000,-7.9562669,103.9623
1973000000,-7.9366655,104.01473
1974000000,-7.968565,103.79063
1975000000,-7.9435887,103.81354
1976000000,-7.9882512,103.44478
1977000000,-7.9688892,103.52975
1978000000,-7.9746361,103.49894
1979000000,-8.0192795,103.42175
1980000000,-8.0782976,103.31237
1981000000,-8.06322,103.20052
1982000000,-8.1038713,103.26217
1983000000,-8.0899687,103.23012
1984000000,-8.1014357,103.1175
1985000000,-8.1080484,103.04539
1986000000,-8.1269751,102.70821
1987000000,-8.152957,102.75713
1988000000,-8.1654282,102.6815
1989000000,-8.1979313,102.63195
1990000000,-8.211585,102.40575
1991000000,-8.2443314,102.41658
1992000000,-8.2041683,102.32148
1993000000,-8.301115,102.18279
1994000000,-8.2479544,102.45591
1995000000,-8.2520256,102.23689
1996000000,-8.2596712,102.1283
1997000000,-8.2944002,102.10018
1998000000,-8.3254452,102.08311
1999000000,-8.3263426,101.93785
2000000000,-8.3756733,101.59406
2001000000,-8.3646955,101.55567
2002000000,-8.4036217,101.49395
2003000000,-8.4383307,101.57358
2004000000,-8.4276619,101.45432
2005000000,-8.4256029,101.031
2006000000,-8.4445906,101.08995
2007000000,-8.4879475,101.17123
2008000000,-8.4739637,101.17599
2009000000,-8.4755363,100.96727
2010000000,-8.5000696,100.65379
2011000000,-8.5344229,100.91089
2012000000,-8.5806274,100.87344
2013000000,-8.5602036,100.78704
2014000000,-8.5895844,100.52775
2015000000,-8.599679,100.35652
2016000000,-8.6169548,100.25701
2017000000,-8.6492329,100.37991
2018000000,-8.6603899,100.10855
2019000000,-8.6681089,100.05521
2020000000,-8.6807337,100.14801
2021000000,-8.7517176,100.09043
2022000000,-8.7178011,99.827759
2023000000,-8.7342768,99.579033
2024000000,-8.7438574,99.472694
2025000000,-8.7732821,99.444824
2026000000,-8.7835636,99.696533
2027000000,-8.7909365,99.373634
2028000000,-8.8521643,99.371452
2029000000,-8.826889,99.278
2030000000,-8.8674717,99.157341
2031000000,-8.8936825,99.247078
2032000000,-8.9239874,98.963257
2033000000,-8.9021034,98.999886
2034000000,-8.9589005,98.989281
2035000000,-8.914238,98.854332
2036000000,-8.9245014,98.784477
2037000000,-9.0143404,98.660629
2038000000,-9.010581,98.5793
2039000000,-9.0032148,98.573669
2040000000,-9.0447865,98.413406
2041000000,-9.043664,98.245506
2042000000,-9.0836334,98.513123
2043000000,-9.1088037,98.120163
2044000000,-9.0885477,98.20639
2045000000,-9.156641,98.114838
2046000000,-9.1345606,97.875336
2047000000,-9.1720953,97.703392
2048000000,-9.1962137,97.980072
2049000000,-9.1560459,97.615196
2050000000,-9.2264194,97.522163
2051000000,-9.276619,97.403961
2052000000,-9.2753191,97.444801
2053000000,-9.2666836,97.646828
2054000000,-9.2947292,97.504219
2055000000,-9.3337421,97.216347
2056000000,-9.3496132,97.254822
2057000000,-9.3511181,96.846588
2058000000,-9.3592739,96.976974
2059000000,-9.3897219,96.742325
2060000000,-9.4231501,96.708992
2061000000,-9.466259,96.702293
2062000000,-9.4849215,96.605934
2063000000,-9.5075531,96.690262
2064000000,-9.522234,96.472
2065000000,-9.5145283,96.421974
2066000000,-9.5236712,96.378563
2067000000,-9.5621672,96.137794
2068000000,-9.5561094,96.170586
2069000000,-9.5779905,96.248009
2070000000,-9.5977697,96.239372
2071000000,-9.6368303,95.94165
2072000000,-9.6495056,96.034424
2073000000,-9.6944132,95.944221
2074000000,-9.6787777,96.114243
2075000000,-9.7224255,95.568535
2076000000,-9.7457724,95.454155
2077000000,-9.7835054,95.411804
2078000000,-9.7785845,95.451393
2079000000,-9.8114576,95.142441
2080000000,-9.8197823,95.049278
2081000000,-9.8348465,95.425865
2082000000,-9.8648434,94.98143
2083000000,-9.8858805,95.009254
2084000000,-9.8986416,95.093071
2085000000,-9.9475698,94.784904
2086000000,-9.9563856,94.781174
2087000000,-9.9620485,94.722221
2088000000,-9.9883833,94.772095
2089000000,-10.008348,94.583122
2090000000,-10.028801,94.542641
2091000000,-10.06475,94.500351
2092000000,-10.111581,94.607605
2093000000,-10.082896,94.347382
2094000000,-10.124249,94.371078
2095000000,-10.14759,94.18457
2096000000,-10.157927,93.965004
2097000000,-10.199864,94.298347
2098000000,-10.187008,94.049339
2099000000,-10.233008,93.88176
2100000000,-10.187327,93.912766
2101000000,-10.277626,93.730598
2102000000,-10.336408,93.672356
2103000000,-10.34376,93.572502
2104000000,-10.314619,93.560005
2105000000,-10.360536,93.722565
2106000000,-10.396625,93.448608
2107000000,-10.469699,93.280838
2108000000,-10.44586,93.162849
2109000000,-10.470732,92.900681
2110000000,-10.480948,93.073586
2111000000,-10.499271,92.949791
2112000000,-10.508319,92.917999
2113000000,-10.580636,92.547478
2114000000,-10.574295,92.700951
2115000000,-10.590181,92.443459
2116000000,-10.627666,92.574333
2117000000,-10.624742,92.401611
2118000000,-10.654976,92.381721
2119000000,-10.666482,92.571114
2120000000,-10.738581,92.490059
2121000000,-10.709996,92.425819
2122000000,-10.757092,92.231995
2123000000,-10.779084,92.125732
2124000000,-10.795829,92.039787
2125000000,-10.82851,91.987633
2126000000,-10.852137,91.786049
2127000000,-10.899153,91.957008
2128000000,-10.885183,91.728638
2129000000,-10.907936,91.580902
2130000000,-10.940272,91.797485
2131000000,-10.964873,91.586441
2132000000,-10.982263,91.429993
2133000000,-11.002396,91.457954
2134000000,-11.055503,91.336975
2135000000,-11.073679,91.378677
2136000000,-11.098966,91.318039
2137000000,-11.115881,91.116859
2138000000,-11.111311,91.292397
2139000000,-11.163533,91.064308
2140000000,-11.195492,91.102577
2141000000,-11.21425,91.119072
2142000000,-11.250772,90.848412
2143000000,-11.271175,90.925919
2144000000,-11.320811,90.72081
2145000000,-11.315955,90.633034
2146000000,-11.309433,90.566696
2147000000,-11.352045,90.501671
2148000000,-11.391245,90.543312
2149000000,-11.396658,90.35466
2150000000,-11.401041,90.655693
2151000000,-11.435157,90.368652
2152000000,-11.458863,90.278152
2153000000,-11.506849,89.977585
2154000000,-11.489448,90.135536
2155000000,-11.55093,89.940117
2156000000,-11.586638,90.033485
2157000000,-11.610711,89.962692
2158000000,-11.642893,89.983063
2159000000,-11.680473,89.980934
2160000000,-11.671862,89.773727
2161000000,-11.675832,89.541695
2162000000,-11.713814,89.521416
2163000000,-11.775149,89.447647
2164000000,-11.818469,89.5252
2165000000,-11.818522,89.462906
2166000000,-11.83138,89.41349
2167000000,-11.863163,89.315079
2168000000,-11.887125,89.431641
2169000000,-11.923157,89.322624
2170000000,-11.94505,89.322029
2171000000,-11.966328,89.097389
2172000000,-11.991053,88.964149
2173000000,-12.039993,88.87487
2174000000,-12.060272,89.068298
2175000000,-12.087417,88.742668
2176000000,-12.114389,88.723099
2177000000,-12.153688,88.927063
2178000000,-12.139189,88.724579
2179000000,-12.179375,88.701134
2180000000,-12.201044,88.480675
2181000000,-12.240434,88.858696
2182000000,-12.23885,88.674271
2183000000,-12.292658,88.33812
2184000000,-12.314618,88.540184
2185000000,-12.348326,88.538727
2186000000,-12.382141,88.207756
2187000000,-12.413671,88.059441
2188000000,-12.410707,88.291878
2189000000,-12.449509,88.098099
2190000000,-12.484198,88.272285
2191000000,-12.509041,88.100723
2192000000,-12.55442,87.927475
2193000000,-12.565895,87.923286
2194000000,-12.595849,87.936783
2195000000,-12.608387,87.967834
2196000000,-12.626883,87.593895
2197000000,-12.68163,87.655266
2198000000,-12.671623,87.901566
2199000000,-12.707173,87.663506
2200000000,-12.750819,87.785255
2201000000,-12.737625,87.223297
2202000000,-12.831075,87.48233
2203000000,-12.814028,87.414879
2204000000,-12.848033,87.325966
2205000000,-12.891656,87.359795
2206000000,-12.911997,87.323685
2207000000,-12.965554,87.225586
2208000000,-12.980341,87.222748
2209000000,-13.005946,87.055527
2210000000,-13.054594,87.173676
2211000000,-13.06743,86.960548
2212000000,-13.090949,86.88092
2213000000,-13.143339,87.160515
2214000000,-13.15622,86.900558
2215000000,-13.230042,86.709549
2216000000,-13.22312,86.785019
2217000000,-13.243142,86.925377
2218000000,-13.258275,86.768761
2219000000,-13.277446,86.85112
2220000000,-13.375875,86.585541
2221000000,-13.37547,86.519447
2222000000,-13.404063,86.471497
2223000000,-13.446438,86.619003
2224000000,-13.47373,86.55999
2225000000,-13.492155,86.35186
2226000000,-13.541645,86.447639
2227000000,-13.559767,86.386681
2228000000,-13.57996,86.576492
2229000000,-13.622307,86.203346
2230000000,-13.64236,86.038269
2231000000,-13.659504,86.148972
2232000000,-13.712022,85.949417
2233000000,-13.725048,86.210075
2234000000,-13.766971,86.076637
2235000000,-13.801966,86.06176
2236000000,-13.848424,85.927719
2237000000,-13.886543,86.068794
2238000000,-13.885218,85.979584
2239000000,-13.962708,85.959778
2240000000,-13.964417,85.792
2241000000,-14.007484,85.520279
2242000000,-14.02129,85.960175
2243000000,-14.05579,85.616791
2244000000,-14.069694,85.86367
2245000000,-14.094752,85.570969
2246000000,-14.163792,85.629608
2247000000,-14.190874,85.657562
2248000000,-14.220788,85.474442
2249000000,-14.214899,85.549232
2250000000,-14.281176,85.532883
2251000000,-14.292433,85.544632
2252000000,-14.290991,85.291595
2253000000,-14.365544,85.41507
2254000000,-14.384267,85.456444
2255000000,-14.432893,85.310707
2256000000,-14.466214,85.29512
2257000000,-14.50524,85.354736
2258000000,-14.525252,85.20417
2259000000,-14.593118,85.392288
2260000000,-14.625294,84.947876
2261000000,-14.630538,85.259171
2262000000,-14.697972,85.176399
2263000000,-14.703383,85.27787
2264000000,-14.773985,85.051865
2265000000,-14.779795,85.109985
2266000000,-14.809855,85.085922
2267000000,-14.823636,85.153008
2268000000,-14.871342,84.98111
2269000000,-14.924726,85.192284
2270000000,-14.920472,85.183899
2271000000,-14.996037,85.146378
2272000000,-15.021297,84.856506
2273000000,-15.070724,84.897545
2274000000,-15.059621,84.933502
2275000000,-15.134422,85.074554
2276000000,-15.203995,84.879379
2277000000,-15.186643,84.684624
2278000000,-15.248382,84.776901
2279000000,-15.276555,84.760811
2280000000,-15.333073,84.583344
2281000000,-15.323831,84.639107
2282000000,-15.39854,84.973114
2283000000,-15.393472,84.688568
2284000000,-15.43749,84.440689
2285000000,-15.506447,84.531616
2286000000,-15.505717,84.371826
2287000000,-15.543209,84.729301
2288000000,-15.60539,84.623405
2289000000,-15.648065,84.391182
2290000000,-15.684333,84.410004
2291000000,-15.704103,84.406174
2292000000,-15.75574,84.648628
2293000000,-15.77996,84.336609
2294000000,-15.825419,84.176758
2295000000,-15.87657,84.337936
2296000000,-15.913756,84.182922
2297000000,-15.978393,84.188988
2298000000,-15.994625,84.230301
2299000000,-15.989767,84.197075
2300000000,-16.062033,84.278328
2301000000,-16.126701,84.259377
2302000000,-16.140495,84.32534
2303000000,-16.180819,84.183647
2304000000,-16.248419,84.087402
2305000000,-16.247644,84.11483
2306000000,-16.283634,84.17067
2307000000,-16.333832,84.20118
2308000000,-16.363171,84.018402
2309000000,-16.385696,84.032181
2310000000,-16.446665,84.25927
2311000000,-16.451092,84.047745
2312000000,-16.55184,84.009918
2313000000,-16.579397,84.078697
2314000000,-16.566595,84.054054
2315000000,-16.627768,84.129715
2316000000,-16.674461,84.000328
2317000000,-16.722925,84.1213
2318000000,-16.730364,83.954865
2319000000,-16.813883,83.84301
2320000000,-16.825562,83.917213
2321000000,-16.871225,84.125252
2322000000,-16.90432,83.91481
2323000000,-16.995298,83.968071
2324000000,-17.011494,83.679855
2325000000,-17.064768,83.822624
2326000000,-17.118261,83.981461
2327000000,-17.13312,83.84523
2328000000,-17.209047,83.768715
2329000000,-17.216782,83.68541
2330000000,-17.305225,83.852966
2331000000,-17.3102,83.621269
2332000000,-17.392447,83.992928
2333000000,-17.448057,83.805466
2334000000,-17.47423,83.767136
2335000000,-17.52655,83.847427
2336000000,-17.572311,83.814522
2337000000,-17.622215,83.8339
2338000000,-17.698286,83.907616
2339000000,-17.694878,83.651917
2340000000,-17.719358,83.796829
2341000000,-17.853392,83.909782
2342000000,-17.846418,83.651566
2343000000,-17.902637,83.632584
2344000000,-17.906214,83.601044
2345000000,-18.038153,83.828957
2346000000,-18.038054,83.912399
2347000000,-18.079956,83.93734
2348000000,-18.161497,83.777214
2349000000,-18.170937,83.824692
2350000000,-18.23283,83.867241
2351000000,-18.298538,83.800171
2352000000,-18.306562,84.096626
2353000000,-18.387289,84.01622
2354000000,-18.442114,83.81665
2355000000,-18.458021,84.15081
2356000000,-18.523434,83.706856
2357000000,-18.622324,84.100548
2358000000,-18.610287,83.955269
2359000000,-18.666151,84.044861
2360000000,-18.730185,84.257515
2361000000,-18.732616,84.159912
2362000000,-18.85306,84.227806
2363000000,-18.886284,83.943604
2364000000,-18.934805,84.175476
2365000000,-19.004347,83.870438
2366000000,-19.014786,84.037292
2367000000,-19.061375,84.24099
2368000000,-19.107065,84.493828
2369000000,-19.189177,84.339256
2370000000,-19.242973,84.680946
2371000000,-19.262806,84.193893
2372000000,-19.345516,84.201973
2373000000,-19.360016,84.344299
2374000000,-19.429758,84.338173
2375000000,-19.464638,84.405251
2376000000,-19.54318,84.319618
2377000000,-19.611162,84.699562
2378000000,-19.628057,84.253204
2379000000,-19.656462,84.404205
2380000000,-19.77129,84.629333
2381000000,-19.812975,84.640785
2382000000,-19.851795,84.517029
2383000000,-19.908504,84.815216
2384000000,-19.947512,84.718697
2385000000,-20.077229,84.919228
2386000000,-20.072704,84.72036
2387000000,-20.152857,84.845146
2388000000,-20.238049,84.896301
2389000000,-20.266077,84.73494
2390000000,-20.300863,84.392647
2391000000,-20.407248,84.540703
2392000000,-20.438765,85.34407
2393000000,-20.502096,85.171913
2394000000,-20.546844,85.024399
2395000000,-20.675285,85.33004
2396000000,-20.73522,85.331787
2397000000,-20.726732,85.188889
2398000000,-20.843533,85.797066
2399000000,-20.839226,85.555054
2400000000,-20.950985,85.671219
2401000000,-21.042345,85.683769
2402000000,-21.018713,85.680763
2403000000,-21.079771,85.499496
2404000000,-21.197554,85.817848
2405000000,-21.265272,85.759659
2406000000,-21.366737,86.154381
2407000000,-21.347244,86.029961
2408000000,-21.4109,85.880989
2409000000,-21.536467,86.059608
2410000000,-21.570572,86.178238
2411000000,-21.658699,86.135078
2412000000,-21.667496,86.434448
2413000000,-21.763609,86.356903
2414000000,-21.806402,86.622116
2415000000,-21.867382,86.621796
2416000000,-21.92869,86.524178
2417000000,-21.978172,87.022606
2418000000,-22.13423,86.684311
2419000000,-22.162689,87.263992
2420000000,-22.269682,87.219559
2421000000,-22.267141,87.265007
2422000000,-22.33165,87.247566
2423000000,-22.435736,87.393272
2424000000,-22.523401,88.137352
2425000000,-22.590143,87.991074
2426000000,-22.667601,88.121048
2427000000,-22.697548,87.898331
2428000000,-22.88529,88.21299
2429000000,-22.888756,87.956268
2430000000,-22.931736,88.902641
2431000000,-23.044096,88.598663
2432000000,-23.122227,88.931427
2433000000,-23.180593,88.987732
2434000000,-23.255569,88.838814
2435000000,-23.280987,88.869049
2436000000,-23.391787,89.061104
2437000000,-23.496798,89.627815
2438000000,-23.677637,89.218529
2439000000,-23.702225,89.744102
2440000000,-23.683294,89.702965
2441000000,-23.853413,89.640556
2442000000,-23.883303,90.241791
2443000000,-24.05809,90.135429
2444000000,-24.073744,90.444519
2445000000,-24.144665,90.460686
2446000000,-24.259924,90.747894
2447000000,-24.277899,90.708702
2448000000,-24.441559,91.296112
2449000000,-24.450159,91.39769
2450000000,-24.653709,91.29808
2451000000,-24.690201,91.643623
2452000000,-24.803478,92.119385
2453000000,-24.865307,92.668495
2454000000,-24.871893,92.75383
2455000000,-24.972301,92.449356
2456000000,-25.170906,93.137466
2457000000,-25.174917,93.557411
2458000000,-25.306475,93.403984
2459000000,-25.32132,93.37336
2460000000,-25.465233,94.052673
2461000000,-25.576483,93.597122
2462000000,-25.684418,93.869766
2463000000,-25.7696,94.616776
2464000000,-25.865812,95.385185
2465000000,-26.003019,95.188889
2466000000,-26.07526,94.82505
2467000000,-26.142792,95.756432
2468000000,-26.225594,95.955444
2469000000,-26.425831,96.986496
2470000000,-26.426886,96.483482
2471000000,-26.61533,97.038483
2472000000,-26.579758,97.838707
2473000000,-26.766665,97.376404
2474000000,-26.855595,97.914948
2475000000,-26.913919,98.959404
2476000000,-27.027313,99.070221
2477000000,-27.102251,99.353996
2478000000,-27.186697,99.45874
2479000000,-27.339079,99.669632
2480000000,-27.409842,100.70443
2481000000,-27.486568,101.14401
2482000000,-27.622875,101.1782
2483000000,-27.72234,102.2846
2484000000,-27.732368,102.16428
2485000000,-27.873022,102.59702
2486000000,-28.009686,103.00834
2487000000,-28.207062,104.40796
2488000000,-28.350649,104.22318
2489000000,-28.316729,105.06705
2490000000,-28.457092,105.37424
2491000000,-28.53735,106.52383
2492000000,-28.760799,107.24964
2493000000,-28.86013,107.68147
2494000000,-28.821251,108.44906
2495000000,-29.075678,109.48386
2496000000,-29.086922,110.07836
2497000000,-29.383745,110.32781
2498000000,-29.370129,111.29443
2499000000,-29.545324,111.8023
2500000000,-29.565477,113.47425
2501000000,-29.715624,113.48032
2502000000,-29.796432,113.81086
2503000000,-29.86861,115.27182
2504000000,-30.071415,115.89111
2505000000,-30.062876,116.70397
2506000000,-30.266214,118.14777
2507000000,-30.445131,119.05688
2508000000,-30.370075,119.89445
2509000000,-30.589178,120.88044
2510000000,-30.620523,121.89157
2511000000,-30.639931,122.96558
2512000000,-31.145935,124.42741
2513000000,-30.78356,125.26585
2514000000,-30.863699,126.43581
2515000000,-31.03368,126.46833
2516000000,-31.187057,128.53755
2517000000,-31.33428,129.25206
2518000000,-31.522789,130.88411
2519000000,-31.377422,133.24661
2520000000,-31.66411,131.94284
2521000000,-31.540163,135.1387
2522000000,-31.56422,134.60927
2523000000,-31.684582,137.03943
2524000000,-31.89897,137.83209
2525000000,-32.063938,137.94461
2526000000,-31.933636,140.15407
2527000000,-31.814243,141.60002
2528000000,-32.1199,143.74883
2529000000,-31.814177,144.73969
2530000000,-32.11055,145.73306
2531000000,-31.914364,147.24243
2532000000,-32.023144,148.71065
2533000000,-32.109779,149.52081
2534000000,-32.011063,151.97031
2535000000,-31.940031,152.78792
2536000000,-31.923588,153.65129
2537000000,-31.867659,155.21416
2538000000,-32.144829,157.46762
2539000000,-32.172436,157.38678
2540000000,-31.95569,159.65825
2541000000,-31.854221,160.94463
2542000000,-31.871481,162.24516
2543000000,-31.902449,163.53659
2544000000,-31.745146,164.41946
2545000000,-31.641064,165.48874
2546000000,-31.535404,167.45204
2547000000,-31.600597,167.89229
2548000000,-31.532421,170.03432
2549000000,-31.362856,170.3466
2550000000,-31.331167,172.09367
2551000000,-31.443903,172.0071
2552000000,-31.192202,175.09103
2553000000,-31.086,176.36186
2554000000,-30.906275,176.57948
2555000000,-30.748726,177.7648
2556000000,-30.879652,178.70587
2557000000,-30.685078,178.79918
2558000000,-30.625784,180.2402
2559000000,-30.602999,180.4366
2560000000,-30.421421,181.57364
2561000000,-30.327299,183.25029
2562000000,-30.20673,184.94456
2563000000,-30.060524,184.5511
2564000000,-30.11647,184.36909
2565000000,-29.861376,186.49806
2566000000,-29.681309,187.41542
2567000000,-29.633888,187.83904
2568000000,-29.472126,189.4812
2569000000,-29.393272,190.30576
2570000000,-29.165983,191.77866
2571000000,-29.217796,190.85596
2572000000,-29.035051,190.86548
2573000000,-29.138716,192.20796
2574000000,-28.913599,193.91611
2575000000,-28.91214,193.68082
2576000000,-28.73374,194.10788
2577000000,-28.607473,194.45813
2578000000,-28.509436,195.96072
2579000000,-28.344486,196.64441
2580000000,-28.315664,196.18642
2581000000,-28.114491,196.86638
2582000000,-28.151962,197.41872
2583000000,-28.108875,198.7576
2584000000,-27.820927,199.62762
2585000000,-27.911392,199.60857
2586000000,-27.69836,199.58408
2587000000,-27.553923,201.20287
2588000000,-27.498566,200.28363
2589000000,-27.285418,200.88988
2590000000,-27.355885,201.64673
2591000000,-27.2733,202.61038
2592000000,-27.136318,203.0313
2593000000,-27.050629,202.2005
2594000000,-26.922026,203.05319
2595000000,-26.814289,203.76865
2596000000,-26.732273,203.77939
2597000000,-26.637709,204.32512
2598000000,-26.362026,204.83435
2599000000,-26.411409,204.87195
2600000000,-26.367081,205.20992
2601000000,-26.245504,205.71001
2602000000,-26.043509,205.97023
2603000000,-26.01844,205.70886
2604000000,-25.91304,206.90118
2605000000,-25.794863,206.85435
2606000000,-25.704138,207.04216
2607000000,-25.714342,207.08476
2608000000,-25.68788,207.74942
2609000000,-25.605118,208.09457
2610000000,-25.318323,208.49388
2611000000,-25.283623,208.02904
2612000000,-25.209351,208.4437
2613000000,-25.106733,208.90298
2614000000,-24.967955,209.52892
2615000000,-24.908657,209.3105
2616000000,-24.772295,209.7084
2617000000,-24.945557,209.92747
2618000000,-24.83432,209.23775
2619000000,-24.795155,210.17015
2620000000,-24.511784,209.9628
2621000000,-24.424103,211.01218
2622000000,-24.386776,210.63861
2623000000,-24.276836,211.26865
2624000000,-24.138391,211.28625
2625000000,-24.061785,211.12958
2626000000,-24.06155,210.85767
2627000000,-23.943153,211.82143
2628000000,-23.805521,211.5036
2629000000,-23.900999,212.19939
2630000000,-23.826368,212.29422
2631000000,-23.787159,212.15715
2632000000,-23.65538,213.15955
2633000000,-23.559048,212.63663
2634000000,-23.559895,213.1261
2635000000,-23.408623,212.83327
2636000000,-23.33007,213.49091
2637000000,-23.296585,213.89859
2638000000,-23.158312,213.66405
2639000000,-23.164433,213.43059
2640000000,-22.998857,214.08028
2641000000,-22.924709,213.99927
2642000000,-22.885393,214.20883
2643000000,-22.878759,214.51721
2644000000,-22.762968,214.23997
2645000000,-22.695076,214.51146
2646000000,-22.585564,214.18195
2647000000,-22.555368,214.66193
2648000000,-22.506313,214.23389
2649000000,-22.406607,214.84065
2650000000,-22.437769,214.68057
2651000000,-22.428764,214.87445
2652000000,-22.29604,214.6369
2653000000,-22.225023,214.93147
2654000000,-22.144962,214.45767
2655000000,-22.111254,215.08209
2656000000,-22.038008,215.51642
2657000000,-21.986202,215.22038
2658000000,-21.846634,215.12953
2659000000,-21.861944,215.70851
2660000000,-21.798897,215.31192
2661000000,-21.737816,215.34123
2662000000,-21.709743,215.99852
2663000000,-21.598242,215.74696
2664000000,-21.657806,216.20157
2665000000,-21.54059,216.00403
2666000000,-21.499699,216.22646
2667000000,-21.46022,215.57199
2668000000,-21.317154,216.70207
2669000000,-21.325624,215.88565
2670000000,-21.259985,216.50323
2671000000,-21.255728,215.96492
2672000000,-21.084166,216.31367
2673000000,-21.100161,216.70586
2674000000,-21.113667,215.83286
2675000000,-20.997923,216.15402
2676000000,-20.877491,216.18376
2677000000,-20.817698,216.30177
2678000000,-20.887838,216.77122
2679000000,-20.728207,216.31653
2680000000,-20.578045,217.16832
2681000000,-20.635925,216.79233
2682000000,-20.591921,217.10333
2683000000,-20.568735,216.44821
2684000000,-20.407785,217.11815
2685000000,-20.42424,216.88211
2686000000,-20.350716,216.75143
2687000000,-20.295261,217.09952
2688000000,-20.29991,217.02534
2689000000,-20.241161,217.2724
2690000000,-20.129829,216.9312
2691000000,-20.055931,217.40651
2692000000,-20.06098,217.02643
2693000000,-19.992058,217.13977
2694000000,-20.004992,217.47575
2695000000,-19.867136,216.84932
2696000000,-19.930908,217.45604
2697000000,-19.809523,217.02785
2698000000,-19.80267,217.33125
2699000000,-19.743992,217.16309
2700000000,-19.660059,217.28189
2701000000,-19.640236,217.69212
2702000000,-19.587296,217.52853
2703000000,-19.519833,217.54414
2704000000,-19.52322,217.46196
2705000000,-19.480076,217.37994
2706000000,-19.372501,217.62134
2707000000,-19.34885,217.57327
2708000000,-19.311758,217.4541
2709000000,-19.217932,217.60204
2710000000,-19.210957,217.38104
2711000000,-19.215353,217.42822
2712000000,-19.129635,217.64604
2713000000,-19.079544,217.57191
2714000000,-19.046598,217.80325
2715000000,-19.008821,217.65051
2716000000,-18.979458,217.52469
2717000000,-18.934874,217.61949
2718000000,-18.830126,217.55264
2719000000,-18.850449,217.66425
2720000000,-18.816698,217.64735
2721000000,-18.80022,217.94615
2722000000,-18.694574,217.85794
2723000000,-18.604418,217.70164
2724000000,-18.585087,217.98328
2725000000,-18.6122,217.88623
2726000000,-18.516592,217.54263
2727000000,-18.481722,217.83061
2728000000,-18.462931,217.64708
2729000000,-18.391619,217.42094
2730000000,-18.317154,217.42491
2731000000,-18.270212,217.99187
2732000000,-18.30674,217.52617
2733000000,-18.261967,217.61693
2734000000,-18.150518,217.59334
2735000000,-18.102707,217.2225
2736000000,-18.135868,217.5555
2737000000,-18.094126,217.63078
2738000000,-18.024778,217.4402
2739000000,-17.986044,217.25511
2740000000,-17.980486,217.59485
2741000000,-17.949308,217.79565
2742000000,-17.911882,217.60913
2743000000,-17.806454,217.45869
2744000000,-17.759878,217.34753
2745000000,-17.725595,217.57837
2746000000,-17.71142,217.17468
2747000000,-17.735662,217.57341
2748000000,-17.6416,217.8262
2749000000,-17.600815,217.78865
2750000000,-17.518528,217.21474
2751000000,-17.539288,217.27797
2752000000,-17.514277,217.47485
2753000000,-17.45804,217.72377
2754000000,-17.430395,217.51068
2755000000,-17.369295,217.77414
2756000000,-17.330715,217.22159
2757000000,-17.345758,217.75122
2758000000,-17.276501,217.50632
2759000000,-17.263071,217.57152
2760000000,-17.213593,217.55701
2761000000,-17.182339,217.54231
2762000000,-17.124731,217.39809
2763000000,-17.125555,217.14807
2764000000,-17.043392,217.4514
2765000000,-17.010101,217.21463
2766000000,-16.931669,217.285
2767000000,-16.908264,217.40147
2768000000,-16.929556,217.49799
2769000000,-16.852457,217.66075
2770000000,-16.831343,217.76036
2771000000,-16.805498,217.25069
2772000000,-16.813782,217.5155
2773000000,-16.781158,217.4594
2774000000,-16.664616,217.22087
2775000000,-16.670034,217.39256
2776000000,-16.673475,217.49355
2777000000,-16.623659,217.49008
2778000000,-16.572695,217.57372
2779000000,-16.533125,217.12239
2780000000,-16.518703,217.14569
2781000000,-16.422359,217.29533
2782000000,-16.447336,217.39621
2783000000,-16.40436,217.13654
2784000000,-16.389807,216.92889
2785000000,-16.333666,217.30925
2786000000,-16.321367,217.28986
2787000000,-16.322092,216.80228
2788000000,-16.280861,217.16061
2789000000,-16.20862,216.74565
2790000000,-16.206968,217.28789
2791000000,-16.251299,217.63618
2792000000,-16.170998,217.25597
2793000000,-16.153635,217.24173
2794000000,-16.11524,216.9073
2795000000,-16.107189,217.02562
2796000000,-16.002649,217.12038
2797000000,-15.955682,217.25102
2798000000,-15.943497,217.55405
2799000000,-15.947433,217.22031
2800000000,-15.904401,217.08386
2801000000,-15.933031,216.98891
2802000000,-15.840239,216.86658
2803000000,-15.796966,216.95934
2804000000,-15.851156,216.56532
2805000000,-15.76536,217.0117
2806000000,-15.709188,216.89032
2807000000,-15.723885,216.62186
2808000000,-15.710078,216.94765
2809000000,-15.605486,216.89078
2810000000,-15.608269,216.37207
2811000000,-15.539522,216.70819
2812000000,-15.575414,216.50497
2813000000,-15.552375,216.38399
2814000000,-15.487559,216.40808
2815000000,-15.463719,216.31589
2816000000,-15.447481,216.77847
2817000000,-15.441834,216.28668
2818000000,-15.420973,216.43423
2819000000,-15.397109,216.4014
2820000000,-15.37502,216.45999
2821000000,-15.322916,216.09807
2822000000,-15.237933,216.00873
2823000000,-15.252748,216.55013
2824000000,-15.211309,216.23293
2825000000,-15.200191,216.45729
2826000000,-15.218514,215.86528
2827000000,-15.13426,215.97507
2828000000,-15.08024,216.1646
2829000000,-15.089992,216.11191
2830000000,-15.019973,216.08655
2831000000,-15.095301,216.13101
2832000000,-14.931629,216.10722
2833000000,-14.994092,216.29593
2834000000,-14.949673,216.19836
2835000000,-14.939509,216.09572
2836000000,-14.867124,216.00586
2837000000,-14.850589,216.07039
2838000000,-14.875018,215.78113
2839000000,-14.917358,215.64124
2840000000,-14.821216,215.86743
2841000000,-14.804957,216.07236
2842000000,-14.719036,215.32439
2843000000,-14.750257,215.34291
2844000000,-14.668302,216.18759
2845000000,-14.620718,215.53674
2846000000,-14.661629,215.56682
2847000000,-14.631324,215.70959
2848000000,-14.565058,215.59445
2849000000,-14.583989,215.63042
2850000000,-14.564966,215.87874
2851000000,-14.538388,215.64105
2852000000,-14.488925,215.85417
2853000000,-14.445468,215.64296
2854000000,-14.465115,215.59103
2855000000,-14.451944,215.17097
2856000000,-14.417295,215.4604
2857000000,-14.348768,215.29666
2858000000,-14.278702,214.94109
2859000000,-14.309524,215.19312
2860000000,-14.322581,215.48534
2861000000,-14.29091,215.23885
2862000000,-14.288063,215.65541
2863000000,-14.18169,214.85899
2864000000,-14.254992,215.28476
2865000000,-14.182117,215.21869
2866000000,-14.194743,214.90474
2867000000,-14.124031,214.96884
2868000000,-14.136214,214.47356
2869000000,-14.090336,214.7135
2870000000,-14.026797,215.10529
2871000000,-14.087237,214.99028
2872000000,-14.059927,214.56807
2873000000,-13.962845,214.6321
2874000000,-13.988482,214.85545
2875000000,-14.013345,214.80405
2876000000,-13.966619,214.82704
2877000000,-13.954707,214.71078
2878000000,-13.886779,214.42723
2879000000,-13.936002,214.02942
2880000000,-13.952548,214.30403
2881000000,-13.888545,214.19597
2882000000,-13.827118,214.01395
2883000000,-13.863703,214.05164
2884000000,-13.791068,214.44702
2885000000,-13.793187,214.23004
2886000000,-13.751542,213.90694
2887000000,-13.683863,214.25212
2888000000,-13.691077,214.01244
2889000000,-13.661671,213.93243
2890000000,-13.634071,213.97861
2891000000,-13.654667,213.78485
2892000000,-13.573347,214.00159
2893000000,-13.562991,213.88892
2894000000,-13.555427,213.97095
2895000000,-13.521704,213.89467
2896000000,-13.561874,213.81808
2897000000,-13.531423,213.75082
2898000000,-13.439411,213.72177
2899000000,-13.433549,213.61774
2900000000,-13.390921,213.70689
2901000000,-13.425787,213.64781
2902000000,-13.41187,213.52933
2903000000,-13.332864,213.62234
2904000000,-13.365619,213.13286
2905000000,-13.327312,213.22105
2906000000,-13.271279,213.58478
2907000000,-13.307158,213.17494
2908000000,-13.221719,213.20386
2909000000,-13.286551,213.28194
2910000000,-13.233882,213.46542
2911000000,-13.18703,213.20583
2912000000,-13.193441,212.70619
2913000000,-13.135923,213.25822
2914000000,-13.133797,212.96786
2915000000,-13.126248,212.90355
2916000000,-13.097761,212.94431
2917000000,-13.057499,212.94072
2918000000,-13.109224,212.97762
2919000000,-13.012818,212.8488
2920000000,-12.975288,212.82796
2921000000,-13.029387,212.67036
2922000000,-13.000073,212.78606
2923000000,-12.933265,212.98395
2924000000,-12.923275,212.41853
2925000000,-12.945083,212.45494
2926000000,-12.912922,212.34705
2927000000,-12.872079,212.29398
2928000000,-12.832002,212.66321
2929000000,-12.833227,212.33937
2930000000,-12.85429,212.62669
2931000000,-12.777228,212.50548
2932000000,-12.791335,212.56725
2933000000,-12.740684,212.4283
2934000000,-12.714293,212.16008
2935000000,-12.701539,212.1174
2936000000,-12.674435,212.04277
2937000000,-12.706502,212.12154
2938000000,-12.677582,212.19531
2939000000,-12.591743,212.01567
2940000000,-12.619943,211.87292
2941000000,-12.589068,212.10208
2942000000,-12.56924,212.0256
2943000000,-12.545641,211.84583
2944000000,-12.514202,212.19926
2945000000,-12.517934,211.90399
2946000000,-12.493655,211.64497
2947000000,-12.462859,211.30148
2948000000,-12.491449,211.74738
2949000000,-12.471952,211.54651
2950000000,-12.423408,211.74132
2951000000,-12.456247,211.39757
2952000000,-12.42223,211.61711
2953000000,-12.390576,211.69196
2954000000,-12.372179,211.22707
2955000000,-12.351972,211.16196
2956000000,-12.338064,211.07448
2957000000,-12.330564,211.04169
2958000000,-12.311662,211.07391
2959000000,-12.267768,211.16409
2960000000,-12.255183,210.87604
2961000000,-12.28411,211.17421
2962000000,-12.209391,210.89494
2963000000,-12.250322,211.26895
2964000000,-12.201954,211.06325
2965000000,-12.236738,210.70157
2966000000,-12.113643,210.68123
2967000000,-12.127646,210.74237
2968000000,-12.075023,210.74954
2969000000,-12.123841,210.93248
2970000000,-12.115783,210.71339
2971000000,-12.064005,210.52829
2972000000,-12.039223,210.51164
2973000000,-12.074654,210.31462
2974000000,-12.037096,210.65601
2975000000,-12.006758,210.21194
2976000000,-11.999473,210.35883
2977000000,-11.939154,210.34706
2978000000,-11.948463,210.05682
2979000000,-11.934407,210.27635
2980000000,-11.946697,210.23296
2981000000,-11.891815,210.41821
2982000000,-11.894471,210.1965
2983000000,-11.907966,210.11455
2984000000,-11.835543,210.30011
2985000000,-11.848087,209.77211
2986000000,-11.804875,209.68925
2987000000,-11.81002,209.92107
2988000000,-11.781228,209.96555
2989000000,-11.742997,209.83076
2990000000,-11.714045,209.80106
2991000000,-11.715882,209.70929
2992000000,-11.7226,209.82883
2993000000,-11.688198,209.52501
2994000000,-11.702895,209.412
2995000000,-11.708648,209.47653
2996000000,-11.638058,209.26471
2997000000,-11.607317,209.60039
2998000000,-11.574138,209.41615
2999000000,-11.637332,209.57822
3000000000,-11.616228,209.62985
3001000000,-11.520199,209.29369
3002000000,-11.56877,209.36122
3003000000,-11.554926,209.30528
3004000000,-11.541235,209.18002
3005000000,-11.479374,209.22432
3006000000,-11.514058,209.14064
3007000000,-11.459326,208.9295
3008000000,-11.416856,209.01289
3009000000,-11.434114,208.59071
3010000000,-11.428954,208.97745
3011000000,-11.45495,208.73723
3012000000,-11.353841,208.75296
3013000000,-11.391641,208.64189
3014000000,-11.387932,208.7254
3015000000,-11.414102,208.95827
3016000000,-11.334077,208.53992
3017000000,-11.344365,208.58771
3018000000,-11.31211,208.5024
3019000000,-11.319704,208.62659
3020000000,-11.248356,208.68414
3021000000,-11.244027,208.32866
3022000000,-11.257063,208.65988
3023000000,-11.246958,208.34314
3024000000,-11.197942,207.82353
3025000000,-11.21592,208.05568
3026000000,-11.203624,208.17715
3027000000,-11.183453,208.3856
3028000000,-11.160278,208.01215
3029000000,-11.116225,207.99289
3030000000,-11.146879,208.01013
3031000000,-11.139915,207.72163
3032000000,-11.101547,207.90903
3033000000,-11.093151,207.86653
3034000000,-11.074534,207.90515
3035000000,-11.026205,208.01744
3036000000,-11.069253,207.94293
3037000000,-11.019808,207.31895
3038000000,-11.010676,207.79701
3039000000,-11.023928,207.72459
3040000000,-10.987397,207.57066
3041000000,-10.959775,207.76268
3042000000,-10.98554,207.63321
3043000000,-10.986979,207.41331
3044000000,-10.971968,207.38081
3045000000,-10.909508,207.36707
3046000000,-10.874599,207.05536
3047000000,-10.938292,207.14871
3048000000,-10.899772,206.9016
3049000000,-10.893001,207.07326
3050000000,-10.842319,207.12961
3051000000,-10.858657,206.89479
3052000000,-10.840852,206.9675
3053000000,-10.794661,207.06544
3054000000,-10.779692,207.0182
3055000000,-10.843655,206.94229
3056000000,-10.785781,206.8461
3057000000,-10.793302,206.73492
3058000000,-10.772264,206.70616
3059000000,-10.768274,206.30373
3060000000,-10.708249,206.30228
3061000000,-10.716814,206.39384
3062000000,-10.69084,206.52591
3063000000,-10.693045,206.48122
3064000000,-10.639694,206.87215
3065000000,-10.626245,206.28366
3066000000,-10.647359,206.52594
3067000000,-10.636187,206.35339
3068000000,-10.61227,206.43668
3069000000,-10.596602,206.17332
3070000000,-10.64496,206.13203
3071000000,-10.553261,206.11098
3072000000,-10.545313,206.08286
3073000000,-10.537454,205.74197
3074000000,-10.514181,205.73085
3075000000,-10.506758,206.0106
3076000000,-10.47431,206.27155
3077000000,-10.510554,206.07529
3078000000,-10.493307,206.02728
3079000000,-10.504525,205.78323
3080000000,-10.45005,205.57578
3081000000,-10.462062,205.69366
3082000000,-10.42781,205.85306
3083000000,-10.429556,205.8181
3084000000,-10.429382,205.79248
3085000000,-10.442049,205.6881
3086000000,-10.361259,205.74934
3087000000,-10.41928,205.48878
3088000000,-10.387288,205.44058
3089000000,-10.346619,205.14771
3090000000,-10.296295,205.35132
3091000000,-10.36329,205.31065
3092000000,-10.333923,205.09724
3093000000,-10.276814,205.0632
3094000000,-10.261529,205.0793
3095000000,-10.314393,204.83499
3096000000,-10.282828,205.04718
3097000000,-10.230813,204.98795
3098000000,-10.261742,204.88054
3099000000,-10.24195,205.00728
3100000000,-10.217835,204.62643
3101000000,-10.196837,204.89449
3102000000,-10.210648,204.86449
3103000000,-10.188231,204.77098
3104000000,-10.176239,204.74294
3105000000,-10.164452,204.6813
3106000000,-10.153009,204.66173
3107000000,-10.19432,204.49496
3108000000,-10.10287,204.49829
3109000000,-10.096141,204.2838
3110000000,-10.129538,204.31406
3111000000,-10.105206,204.38989
3112000000,-10.056183,204.43318
3113000000,-10.041897,204.22307
3114000000,-10.073987,204.33803
3115000000,-10.054598,204.41644
3116000000,-10.039481,204.23615
3117000000,-9.9988918,204.29483
3118000000,-10.003346,204.08202
3119000000,-10.004863,204.30406
3120000000,-9.9907589,203.93826
3121000000,-9.9880371,204.31628
3122000000,-9.9831705,204.03578
3123000000,-9.9666328,203.71782
3124000000,-9.9567032,204.03377
3125000000,-9.8846207,203.63356
3126000000,-9.9196262,203.5222
3127000000,-9.8953161,203.47342
3128000000,-9.8910685,203.86249
3129000000,-9.8567286,203.30219
3130000000,-9.8317318,203.33615
3131000000,-9.8516159,203.22368
3132000000,-9.8094416,203.73598
3133000000,-9.8523912,203.50095
3134000000,-9.8365593,203.39328
3135000000,-9.8034773,203.10588
3136000000,-9.8081541,203.48535
3137000000,-9.8109999,203.23401
3138000000,-9.7706957,203.38708
3139000000,-9.7665558,202.84105
3140000000,-9.7606344,203.15889
3141000000,-9.7424383,203.20792
3142000000,-9.7074776,203.15689
3143000000,-9.712966,202.79861
3144000000,-9.6969528,202.93103
3145000000,-9.693881,202.71956
3146000000,-9.6489725,202.81168
3147000000,-9.6684103,202.82622
3148000000,-9.6959229,203.01271
3149000000,-9.6533642,202.84023
3150000000,-9.6739883,202.66122
3151000000,-9.6189718,202.4614
3152000000,-9.638341,202.70404
3153000000,-9.6310577,202.61185
3154000000,-9.588171,202.46771
3155000000,-9.6015148,202.41127
3156000000,-9.5777502,202.52368
3157000000,-9.5681362,202.59787
3158000000,-9.5793314,202.30402
3159000000,-9.5589514,202.51181
3160000000,-9.5654879,202.1978
3161000000,-9.5273228,202.41739
3162000000,-9.5662022,202.41743
3163000000,-9.5007896,202.20686
3164000000,-9.5391159,202.35722
3165000000,-9.469882,201.94528
3166000000,-9.4624367,202.07521
3167000000,-9.4929781,202.04079
3168000000,-9.456152,202.38127
3169000000,-9.4562378,201.99586
3170000000,-9.436451,202.00227
3171000000,-9.39608,201.99921
3172000000,-9.4893684,201.96924
3173000000,-9.4023151,201.75031
3174000000,-9.4211731,201.82001
3175000000,-9.379859,201.56483
3176000000,-9.4121408,201.76524
3177000000,-9.3934326,201.34224
3178000000,-9.3576775,201.54694
3179000000,-9.3480854,201.60831
3180000000,-9.3527832,201.45555
3181000000,-9.3507338,201.32115
3182000000,-9.3299294,201.31682
3183000000,-9.3214874,201.31023
3184000000,-9.3219767,201.14758
3185000000,-9.2806749,201.2007
3186000000,-9.277874,201.2317
3187000000,-9.2576637,201.03221
3188000000,-9.240263,201.17644
3189000000,-9.2492762,201.04427
3190000000,-9.2532864,201.01857
3191000000,-9.2175665,200.95779
3192000000,-9.2512312,200.93649
3193000000,-9.2268171,200.91096
3194000000,-9.2378359,200.89833
3195000000,-9.2008705,200.80783
3196000000,-9.1925573,200.74565
3197000000,-9.1738844,200.88908
3198000000,-9.1612339,200.59534
3199000000,-9.1846848,200.85995
3200000000,-9.1113262,200.97374
3201000000,-9.1310835,200.44206
3202000000,-9.095952,200.26036
3203000000,-9.117362,200.51799
3204000000,-9.1121988,200.46841
3205000000,-9.1720896,200.64748
3206000000,-9.0838079,200.28651
3207000000,-9.0823498,200.46614
3208000000,-9.0685101,200.30202
3209000000,-9.0580282,200.1588
3210000000,-9.0188618,200.23376
3211000000,-9.0780563,199.84404
3212000000,-9.008646,199.9959
3213000000,-9.0569592,199.85835
3214000000,-9.0161839,200.20483
3215000000,-9.0307703,200.19591
3216000000,-8.9613972,199.96899
3217000000,-8.9873905,200.04268
3218000000,-8.966404,200.04265
3219000000,-8.9396477,199.8391
3220000000,-8.9575062,199.57967
3221000000,-8.9327583,199.77979
3222000000,-8.9406643,200.05844
3223000000,-8.913084,199.6028
3224000000,-8.9510584,199.59981
3225000000,-8.9120569,199.74738
3226000000,-8.8723803,199.47482
3227000000,-8.8722544,199.27036
3228000000,-8.890604,199.42159
3229000000,-8.8810854,199.3708
3230000000,-8.8654642,199.32661
3231000000,-8.8216009,199.60602
3232000000,-8.8383579,199.14629
3233000000,-8.8442564,199.49571
3234000000,-8.8188238,198.78935
3235000000,-8.8228235,199.14073
3236000000,-8.7917442,198.95068
3237000000,-8.7816267,199.01048
3238000000,-8.7735701,198.91283
3239000000,-8.7871065,198.8531
3240000000,-8.7890978,198.82602
3241000000,-8.7851324,198.75859
3242000000,-8.7283688,198.83562
3243000000,-8.7255039,198.52696
3244000000,-8.7560215,198.78983
3245000000,-8.7784863,198.50696
3246000000,-8.7583008,198.84554
3247000000,-8.6814461,198.84955
3248000000,-8.7188559,198.29893
3249000000,-8.7050533,198.65221
3250000000,-8.7067623,198.19955
3251000000,-8.6622305,198.35938
3252000000,-8.6644287,198.5643
3253000000,-8.6542397,198.20569
3254000000,-8.6491604,198.38737
3255000000,-8.6927919,198.62823
3256000000,-8.6489506,198.36334
3257000000,-8.6205988,198.11168
3258000000,-8.6039667,198.37802
3259000000,-8.6191998,198.32588
3260000000,-8.5760269,198.14975
3261000000,-8.6108608,197.95035
3262000000,-8.5766602,197.84869
3263000000,-8.5870867,198.00607
3264000000,-8.5704117,197.81076
3265000000,-8.5307522,197.8895
3266000000,-8.56322,197.7701
3267000000,-8.5456696,197.69754
3268000000,-8.5499878,197.76521
3269000000,-8.5457983,197.72115
3270000000,-8.5319223,197.75066
3271000000,-8.5313568,197.66016
3272000000,-8.4654055,197.54233
3273000000,-8.4974737,197.57935
3274000000,-8.4737024,197.60922
3275000000,-8.4986801,197.45299
3276000000,-8.4366865,197.444
3277000000,-8.5042992,197.22943
3278000000,-8.4479713,197.26041
3279000000,-8.4681864,197.21761
3280000000,-8.4690676,197.06677
3281000000,-8.4306698,197.31174
3282000000,-8.415803,197.14061
3283000000,-8.4048624,197.23328
3284000000,-8.4524307,196.91814
3285000000,-8.414053,197.08467
3286000000,-8.3792782,197.04556
3287000000,-8.418519,196.72913
3288000000,-8.3332825,196.9606
3289000000,-8.3727379,196.83965
3290000000,-8.3746471,196.91907
3291000000,-8.3262606,196.69287
3292000000,-8.3448811,196.71997
3293000000,-8.372715,196.63051
3294000000,-8.3380117,196.69656
3295000000,-8.2956276,196.84547
3296000000,-8.2971048,196.71576
3297000000,-8.3129272,196.50706
3298000000,-8.2853146,196.33492
3299000000,-8.3219137,196.26038
3300000000,-8.2612867,196.34845
3301000000,-8.2735729,196.36525
3302000000,-8.2520971,196.48645
3303000000,-8.2390423,196.49193
3304000000,-8.2392435,196.25507
3305000000,-8.226799,196.09148
3306000000,-8.1984625,196.14519
3307000000,-8.2095537,196.27837
3308000000,-8.2136202,196.00446
3309000000,-8.1825094,196.08366
3310000000,-8.1837196,195.84921
3311000000,-8.1741142,196.06871
3312000000,-8.1883955,195.96402
3313000000,-8.1888123,195.73146
3314000000,-8.1652479,195.84254
3315000000,-8.1491394,195.8541
3316000000,-8.1251345,196.02065
3317000000,-8.1635208,195.8625
3318000000,-8.1447792,195.73361
3319000000,-8.1177616,195.45293
3320000000,-8.1334286,195.90524
3321000000,-8.1223288,195.53719
3322000000,-8.121686,195.58485
3323000000,-8.0872164,195.51573
3324000000,-8.1035204,195.38136
3325000000,-8.1007795,195.28337
3326000000,-8.0822153,195.28629
3327000000,-8.0325356,195.30621
3328000000,-8.0738888,195.51895
3329000000,-8.0361557,195.31897
3330000000,-8.0029173,195.5056
3331000000,-8.0106602,195.20383
3332000000,-7.9995127,195.0687
3333000000,-8.0187292,195.07988
3334000000,-8.0170469,195.17154
3335000000,-7.9923472,194.96123
3336000000,-7.9865575,194.99474
3337000000,-7.9812355,195.11887
3338000000,-8.0051737,195.07405
3339000000,-7.9795446,195.03786
3340000000,-7.9842396,195.06766
3341000000,-7.9523754,194.93259
3342000000,-7.9218473,194.54572
3343000000,-7.9292688,194.49651
3344000000,-7.9409575,194.54047
3345000000,-7.897841,194.86511
3346000000,-7.8899417,194.79465
3347000000,-7.8990593,194.57214
3348000000,-7.9065957,194.6618
3349000000,-7.8941741,194.42125
3350000000,-7.884059,194.13445
3351000000,-7.8796716,194.41489
3352000000,-7.8890142,194.42734
3353000000,-7.8572955,194.3586
3354000000,-7.8804555,194.45627
3355000000,-7.8647871,194.31374
3356000000,-7.8864918,194.24837
3357000000,-7.8568096,194.31766
3358000000,-7.8157415,194.32507
3359000000,-7.8448696,194.13625
3360000000,-7.8260193,194.27936
3361000000,-7.7823319,193.90677
3362000000,-7.7967267,194.03557
3363000000,-7.7663484,193.60315
3364000000,-7.7931299,193.84027
3365000000,-7.7515841,193.73872
3366000000,-7.7900162,193.84433
3367000000,-7.7704177,193.80257
3368000000,-7.7458324,193.73958
3369000000,-7.7929354,193.59749
3370000000,-7.7524719,193.42821
3371000000,-7.7395115,193.66704
3372000000,-7.7310514,193.78476
3373000000,-7.766098,193.58113
3374000000,-7.7385912,193.40109
3375000000,-7.7097979,193.68562
3376000000,-7.7515707,193.2914
3377000000,-7.7455263,193.38745
3378000000,-7.7140193,193.42636
3379000000,-7.7145395,193.15205
3380000000,-7.6704812,193.29739
3381000000,-7.6792741,193.33803
3382000000,-7.6865096,193.23631
3383000000,-7.6761241,193.41905
3384000000,-7.6538615,193.1075
3385000000,-7.6258636,192.94159
3386000000,-7.6645336,193.14697
3387000000,-7.6461291,192.95799
3388000000,-7.6196609,192.92116
3389000000,-7.5823565,192.84294
3390000000,-7.5963178,193.14426
3391000000,-7.6142225,192.81981
3392000000,-7.6134191,192.88155
3393000000,-7.5643377,192.69711
3394000000,-7.5978322,192.91316
3395000000,-7.5855269,192.85704
3396000000,-7.5805721,192.70244
3397000000,-7.5758328,192.83072
3398000000,-7.5658283,192.69875
3399000000,-7.5391383,192.40109
3400000000,-7.5552917,192.42323
3401000000,-7.5238428,192.50935
3402000000,-7.5183125,192.2926
3403000000,-7.5210972,192.28378
3404000000,-7.5073056,192.2653
3405000000,-7.5162439,192.33591
3406000000,-7.4835472,192.51498
3407000000,-7.5046477,192.54062
3408000000,-7.486537,192.34085
3409000000,-7.4935989,192.09557
3410000000,-7.4614806,192.30237
3411000000,-7.4850368,191.84119
3412000000,-7.4819341,192.03143
3413000000,-7.4404125,192.08199
3414000000,-7.468811,192.01318
3415000000,-7.4382463,192.12141
3416000000,-7.4566216,192.21129
3417000000,-7.4269819,191.90565
3418000000,-7.4333787,191.89711
3419000000,-7.4244924,191.68369
3420000000,-7.3998809,191.8058
3421000000,-7.4073491,191.8429
3422000000,-7.4237661,191.91827
3423000000,-7.3814974,191.85995
3424000000,-7.3962259,191.84177
3425000000,-7.4059954,191.54028
3426000000,-7.3724914,191.78366
3427000000,-7.365346,191.558
3428000000,-7.3551722,191.56303
3429000000,-7.363029,191.58
3430000000,-7.3375916,191.33437
3431000000,-7.3268814,191.19366
3432000000,-7.3748679,191.47076
3433000000,-7.2942801,191.40262
3434000000,-7.3266249,191.2946
3435000000,-7.3039451,191.28439
3436000000,-7.3158946,191.18669
3437000000,-7.3030376,191.1424
3438000000,-7.2911668,190.94823
3439000000,-7.2917099,191.0331
3440000000,-7.289866,190.98409
3441000000,-7.2902379,191.11588
3442000000,-7.2772179,190.99138
3443000000,-7.2670903,191.01274
3444000000,-7.2565656,190.8295
3445000000,-7.245379,190.79073
3446000000,-7.2108316,190.88661
3447000000,-7.2477078,190.88367
3448000000,-7.272274,190.94466
3449000000,-7.204771,191.03448
3450000000,-7.2394228,190.66344
3451000000,-7.2362843,190.57367
3452000000,-7.1965656,190.65878
3453000000,-7.1716466,190.64366
3454000000,-7.2113199,190.48785
3455000000,-7.2106719,190.7339
3456000000,-7.2151031,190.57039
3457000000,-7.1801009,190.33586
3458000000,-7.199954,190.38354
3459000000,-7.1785975,190.40271
3460000000,-7.1432576,190.19206
3461000000,-7.1891394,190.40244
3462000000,-7.1669698,190.07076
3463000000,-7.096292,190.25656
3464000000,-7.1581602,190.15762
3465000000,-7.1763453,190.19872
3466000000,-7.1764946,190.25226
3467000000,-7.1002393,190.14688
3468000000,-7.1533852,189.82343
3469000000,-7.1050973,189.99789
3470000000,-7.1261582,190.04883
3471000000,-7.1267943,189.89514
3472000000,-7.0843182,189.83704
3473000000,-7.1030502,189.7326
3474000000,-7.0893722,189.86218
3475000000,-7.0911789,189.7989
3476000000,-7.0602665,189.84067
3477000000,-7.0426021,189.68065
3478000000,-7.043005,189.64563
3479000000,-7.0505786,189.75758
3480000000,-7.0319715,189.6895
3481000000,-7.0466032,189.54678
3482000000,-7.0308585,189.45384
3483000000,-7.0291219,189.427
3484000000,-7.0389075,189.6087
3485000000,-7.0162754,189.62617
3486000000,-6.990274,189.37077
3487000000,-7.0239172,189.30829
3488000000,-6.9806762,189.38942
3489000000,-6.9991331,189.32684
3490000000,-6.997941,189.29756
3491000000,-6.9581852,189.26073
3492000000,-6.9557924,189.39069
3493000000,-6.9872198,189.22403
3494000000,-6.9180236,189.23041
3495000000,-6.941051,189.04402
3496000000,-6.9276385,189.29216
3497000000,-6.9356613,188.86739
3498000000,-6.9509211,189.04269
3499000000,-6.9014645,188.58444
3500000000,-6.916491,189.00351
3501000000,-6.9345059,189.03551
3502000000,-6.9172506,188.76752
3503000000,-6.9117937,188.71906
3504000000,-6.8970246,188.72623
3505000000,-6.9431348,188.75455
3506000000,-6.8696461,188.72653
3507000000,-6.8777394,188.79947
3508000000,-6.8596735,188.74185
3509000000,-6.8709388,188.68678
3510000000,-6.851274,188.43251
3511000000,-6.876585,188.77724
3512000000,-6.8595371,188.56148
3513000000,-6.8732972,188.43166
3514000000,-6.8526416,188.40657
3515000000,-6.846221,188.60213
3516000000,-6.8489432,188.35681
3517000000,-6.839303,188.36496
3518000000,-6.834106,188.1154
3519000000,-6.8086901,188.15154
3520000000,-6.8266492,188.35611
3521000000,-6.7797046,188.07919
3522000000,-6.8014741,188.04735
3523000000,-6.793273,188.12788
3524000000,-6.800909,188.17482
3525000000,-6.782763,188.07497
3526000000,-6.7622337,187.95955
3527000000,-6.7688522,187.82468
3528000000,-6.7838697,188.25583
3529000000,-6.7767305,187.93187
3530000000,-6.7644663,187.95599
3531000000,-6.7548847,187.92717
3532000000,-6.7448621,187.89131
3533000000,-6.7395549,187.88963
3534000000,-6.7250938,187.80486
3535000000,-6.7302561,187.77032
3536000000,-6.7277317,187.75049
3537000000,-6.7293882,187.66391
3538000000,-6.7049694,187.36398
3539000000,-6.7391686,187.40999
3540000000,-6.7010341,187.65948
3541000000,-6.6897645,187.46342
3542000000,-6.6938467,187.49074
3543000000,-6.675827,187.49393
3544000000,-6.6842985,187.36499
3545000000,-6.6655521,187.43118
3546000000,-6.6620827,187.46747
3547000000,-6.6865721,187.22353
3548000000,-6.6872835,187.4417
3549000000,-6.6747665,187.03316
3550000000,-6.6541338,187.07278
3551000000,-6.6622233,187.20863
3552000000,-6.6498718,187.26945
3553000000,-6.6521287,187.33214
3554000000,-6.5912209,187.01801
3555000000,-6.6348157,186.93964
3556000000,-6.6521621,187.0255
3557000000,-6.5841527,186.8589
3558000000,-6.6175828,186.89439
3559000000,-6.5845089,187.011
3560000000,-6.5917473,186.91617
3561000000,-6.5715322,187.03075
3562000000,-6.5477233,186.72507
3563000000,-6.5642548,186.71071
3564000000,-6.5929027,186.46971
3565000000,-6.5917706,186.48399
3566000000,-6.5360303,186.66743
3567000000,-6.5752816,186.75479
3568000000,-6.5808473,186.58569
3569000000,-6.5733624,186.51118
3570000000,-6.5049148,186.60162
3571000000,-6.5266747,186.44833
3572000000,-6.5038524,186.53448
3573000000,-6.5077219,186.55521
3574000000,-6.5124922,186.47891
3575000000,-6.5214753,186.48169
3576000000,-6.4983549,186.60928
3577000000,-6.5029335,186.45732
3578000000,-6.5064573,186.32478
3579000000,-6.4922266,186.16374
3580000000,-6.4824576,186.31216
3581000000,-6.4704289,186.38658
3582000000,-6.4748626,186.35181
3583000000,-6.4651704,186.04958
3584000000,-6.4552383,186.19724
3585000000,-6.4625964,186.28387
3586000000,-6.4535995,186.01506
3587000000,-6.4287472,185.94533
3588000000,-6.4383216,185.99681
3589000000,-6.4147859,186.1483
3590000000,-6.417685,185.8224
3591000000,-6.4236779,185.92247
3592000000,-6.4400148,185.81754
3593000000,-6.400053,185.71649
3594000000,-6.396853,185.60931
3595000000,-6.3920636,185.81754
3596000000,-6.3962998,185.63036
3597000000,-6.4345527,185.63135
3598000000,-6.3864694,185.6881
3599000000,-6.3541765,185.69104
3600000000,-6.3757725,185.52946
3601000000,-6.359364,185.68919
3602000000,-6.3486423,185.57217
3603000000,-6.3555408,185.21617
3604000000,-6.3646789,185.43423
3605000000,-6.3463235,185.32835
3606000000,-6.3318315,185.40089
3607000000,-6.2827883,185.23909
3608000000,-6.3304811,185.41357
3609000000,-6.2849112,185.1198
3610000000,-6.3083754,185.23837
3611000000,-6.3107605,185.22394
3612000000,-6.3305717,185.07745
3613000000,-6.2625365,185.06013
3614000000,-6.2916393,184.96234
3615000000,-6.3242044,184.71657
3616000000,-6.2402081,184.9099
3617000000,-6.2651281,185.02448
3618000000,-6.2944179,184.80412
3619000000,-6.2794619,184.95918
3620000000,-6.2525349,184.79274
3621000000,-6.2981825,184.73216
3622000000,-6.2696505,184.68623
3623000000,-6.2631745,184.71167
3624000000,-6.2924962,184.65047
3625000000,-6.2398415,184.42889
3626000000,-6.2414837,184.66313
3627000000,-6.2196264,184.45338
3628000000,-6.2453108,184.45934
3629000000,-6.2288723,184.59227
3630000000,-6.2253947,184.45253
3631000000,-6.2040911,184.28378
3632000000,-6.2087336,184.36449
3633000000,-6.1919546,184.34505
3634000000,-6.1636529,184.33121
3635000000,-6.1922808,184.11694
3636000000,-6.1600094,184.2366
3637000000,-6.1866479,184.12404
3638000000,-6.1530356,184.23322
3639000000,-6.1408792,184.03764
3640000000,-6.1634631,183.96428
3641000000,-6.1421328,184.10469
3642000000,-6.1795211,184.09258
3643000000,-6.1314473,183.97772
3644000000,-6.147068,184.13208
3645000000,-6.1605716,183.97047
3646000000,-6.1216373,183.84959
3647000000,-6.1236463,183.90305
3648000000,-6.1145124,184.0495
3649000000,-6.1228704,184.01677
3650000000,-6.1076818,183.83498
3651000000,-6.146554,183.49707
3652000000,-6.1038327,183.66048
3653000000,-6.0950489,183.74564
3654000000,-6.0770998,183.58192
3655000000,-6.0654025,183.82059
3656000000,-6.0971131,183.47336
3657000000,-6.068388,183.58215
3658000000,-6.0369992,183.39153
3659000000,-6.0702977,183.37669
3660000000,-6.0356612,183.26642
3661000000,-6.0649829,183.33029
3662000000,-6.0531201,183.41991
3663000000,-6.0551562,183.33211
3664000000,-6.0553551,183.24226
3665000000,-6.0542936,183.37527
3666000000,-6.0355101,183.00514
3667000000,-6.0328603,183.24638
3668000000,-6.0021009,183.22046
3669000000,-6.0090947,183.38756
3670000000,-6.0144053,183.01015
3671000000,-6.0183973,183.06432
3672000000,-5.9962506,183.18828
3673000000,-6.0013218,183.0887
3674000000,-5.9903688,182.92799
3675000000,-6.010056,182.91788
3676000000,-5.9659433,183.07143
3677000000,-5.9649324,182.81119
3678000000,-5.941361,182.90346
3679000000,-5.9791961,182.60039
3680000000,-5.9539723,182.59576
3681000000,-5.9670296,182.61787
3682000000,-5.9408121,182.44559
3683000000,-5.9233947,182.416
3684000000,-5.9525671,182.64487
3685000000,-5.9549346,182.49622
3686000000,-5.8998847,182.40793
3687000000,-5.953537,182.42174
3688000000,-5.8866582,182.22977
3689000000,-5.9023857,182.18558
3690000000,-5.9186568,182.25638
3691000000,-5.8616967,182.35049
3692000000,-5.8970528,182.17543
3693000000,-5.9030275,182.10233
3694000000,-5.8939061,182.04842
3695000000,-5.8488083,182.22148
3696000000,-5.8859801,182.26108
3697000000,-5.8731661,182.31607
3698000000,-5.8814077,181.72368
3699000000,-5.8635936,182.04448
3700000000,-5.8355813,182.01257
3701000000,-5.8450036,182.0647
3702000000,-5.8675351,181.91995
3703000000,-5.878406,181.76521
3704000000,-5.8435349,181.76256
3705000000,-5.8490033,181.93686
3706000000,-5.870317,181.78149
3707000000,-5.839551,181.5627
3708000000,-5.8541341,181.56877
3709000000,-5.8311429,181.535
3710000000,-5.8129134,181.7415
3711000000,-5.8192334,181.56174
3712000000,-5.8295598,181.49924
3713000000,-5.8067327,181.53925
3714000000,-5.7926855,181.50534
3715000000,-5.7891979,181.49556
3716000000,-5.7948613,181.19774
3717000000,-5.7730646,181.34396
3718000000,-5.7791004,181.22543
3719000000,-5.7496634,181.21832
3720000000,-5.7469144,181.26196
3721000000,-5.7845554,181.10716
3722000000,-5.7615561,181.15585
3723000000,-5.7648935,181.14851
3724000000,-5.7757397,181.11795
3725000000,-5.7330999,181.08356
3726000000,-5.7319698,180.96364
3727000000,-5.7360611,181.06306
3728000000,-5.7447929,180.83891
3729000000,-5.7099671,180.74605
3730000000,-5.7337427,180.80644
3731000000,-5.7249961,180.74864
3732000000,-5.7074957,180.86148
3733000000,-5.732832,180.85027
3734000000,-5.7184105,180.88698
3735000000,-5.7251549,180.6411
3736000000,-5.699358,180.554
3737000000,-5.6826258,180.78667
3738000000,-5.7033772,180.4964
3739000000,-5.695673,180.58713
3740000000,-5.6527009,180.51913
3741000000,-5.6782513,180.39328
3742000000,-5.6703973,180.46979
3743000000,-5.681448,180.46568
3744000000,-5.7196589,180.1662
3745000000,-5.6481977,180.25685
3746000000,-5.6434479,180.46664
3747000000,-5.6149707,180.12062
3748000000,-5.6201215,180.20946
3749000000,-5.6522574,180.27042
3750000000,-5.6556487,180.05518
3751000000,-5.6489534,180.31108
3752000000,-5.6228261,179.96335
3753000000,-5.6345229,180.05367
3754000000,-5.59759,179.75685
3755000000,-5.6180091,179.95724
3756000000,-5.6137671,179.98108
3757000000,-5.6289415,179.8161
3758000000,-5.6112227,179.6384
3759000000,-5.5724392,179.89633
3760000000,-5.60607,179.61661
3761000000,-5.6117983,179.63318
3762000000,-5.5836411,179.68723
3763000000,-5.5979991,179.65816
3764000000,-5.5853753,179.59665
3765000000,-5.5960326,179.63078
3766000000,-5.5685468,179.63341
3767000000,-5.5937462,179.47232
3768000000,-5.5686698,179.41556
3769000000,-5.5324197,179.42429
3770000000,-5.553092,179.46968
3771000000,-5.5491133,179.21895
3772000000,-5.5481844,179.17288
3773000000,-5.5590978,179.15811
3774000000,-5.5137353,179.30003
3775000000,-5.5571146,179.01443
3776000000,-5.519937,178.82951
3777000000,-5.5113025,179.06526
3778000000,-5.5464926,179.11095
3779000000,-5.5327287,179.03709
3780000000,-5.5135579,179.00484
3781000000,-5.5046592,178.81671
3782000000,-5.4940786,179.00795
3783000000,-5.5152864,178.87611
3784000000,-5.4888926,178.81747
3785000000,-5.5194097,178.68999
3786000000,-5.4800305,178.71056
3787000000,-5.470015,178.92305
3788000000,-5.4759946,178.61911
3789000000,-5.5008087,178.62733
3790000000,-5.4858885,178.59998
3791000000,-5.4854231,178.65639
3792000000,-5.4721279,178.7746
3793000000,-5.4387741,178.45764
3794000000,-5.4690003,178.56767
3795000000,-5.4407277,178.37236
3796000000,-5.4373746,178.29176
3797000000,-5.4287734,178.3652
3798000000,-5.4400802,178.33052
3799000000,-5.4551883,178.32858
3800000000,-5.4415298,178.23665
3801000000,-5.4251199,178.25317
3802000000,-5.4284973,178.23688
3803000000,-5.4203949,178.02153
3804000000,-5.4307294,178.1931
3805000000,-5.4156084,177.83763
3806000000,-5.3910313,178.0332
3807000000,-5.3999219,178.06558
3808000000,-5.3938103,178.16034
3809000000,-5.4088545,177.9017
3810000000,-5.3733873,177.89185
3811000000,-5.386651,177.79199
3812000000,-5.3624749,177.96938
3813000000,-5.3910422,177.9868
3814000000,-5.358387,177.89136
3815000000,-5.3917584,177.90755
3816000000,-5.3446665,177.74911
3817000000,-5.3751607,177.61639
3818000000,-5.3859916,177.69066
3819000000,-5.3563581,177.68452
3820000000,-5.3511529,177.59207
3821000000,-5.3320041,177.37234
3822000000,-5.327908,177.23851
3823000000,-5.3681316,177.50793
3824000000,-5.3308797,177.58621
3825000000,-5.3249817,177.53105
3826000000,-5.3568821,177.11754
3827000000,-5.3204117,177.22133
3828000000,-5.3282518,177.10748
3829000000,-5.3378472,177.18719
3830000000,-5.3232474,177.15727
3831000000,-5.311101,177.12674
3832000000,-5.3074565,176.96376
3833000000,-5.2851496,176.90741
3834000000,-5.2742724,177.03256
3835000000,-5.3316402,177.03764
3836000000,-5.2864227,176.85651
3837000000,-5.2838039,177.00929
3838000000,-5.2884812,177.00366
3839000000,-5.2841735,176.78957
3840000000,-5.2714052,176.79858
3841000000,-5.2949138,176.80515
3842000000,-5.2995119,176.65309
3843000000,-5.264719,176.68094
3844000000,-5.2772827,176.7827
3845000000,-5.2756333,176.5873
3846000000,-5.2638898,176.49237
3847000000,-5.2443562,176.52875
3848000000,-5.2874498,176.46184
3849000000,-5.2436481,176.42032
3850000000,-5.2296753,176.49782
3851000000,-5.2353373,176.52718
3852000000,-5.2432046,176.02316
3853000000,-5.2500978,176.42847
3854000000,-5.1835413,176.23871
3855000000,-5.2042942,176.46901
3856000000,-5.2261777,176.03476
3857000000,-5.2029653,176.10733
3858000000,-5.234859,176.14526
3859000000,-5.1906247,175.9299
3860000000,-5.2074213,176.19278
3861000000,-5.2060018,175.84047
3862000000,-5.2163758,175.80132
3863000000,-5.2282295,176.03348
3864000000,-5.2086687,176.0071
3865000000,-5.1692553,175.73683
3866000000,-5.2054214,175.53523
3867000000,-5.1567645,175.66487
3868000000,-5.1911144,175.86307
3869000000,-5.1813006,175.62817
3870000000,-5.1739621,175.54405
3871000000,-5.1672025,175.67313
3872000000,-5.1687622,175.65822
3873000000,-5.1823945,175.55782
3874000000,-5.1502552,175.63574
3875000000,-5.1550655,175.27917
3876000000,-5.152482,175.41992
3877000000,-5.1374979,175.55504
3878000000,-5.1404128,175.08475
3879000000,-5.1525779,175.33337
3880000000,-5.1491184,175.24864
3881000000,-5.1579218,175.30109
3882000000,-5.1317496,175.04527
3883000000,-5.1180348,175.21236
3884000000,-5.1347475,174.91994
3885000000,-5.1500359,175.10016
3886000000,-5.0925403,175.00862
3887000000,-5.120038,175.10263
3888000000,-5.1285768,175.0345
3889000000,-5.1012673,174.96202
3890000000,-5.0760598,174.82521
3891000000,-5.0940738,174.89212
3892000000,-5.1063547,175.01054
3893000000,-5.0993042,174.8501
3894000000,-5.081027,174.93881
3895000000,-5.093204,174.58554
3896000000,-5.0804877,174.67798
3897000000,-5.0878778,174.67967
3898000000,-5.0666437,174.57181
3899000000,-5.078495,174.64597
3900000000,-5.0810513,174.60715
3901000000,-5.0544119,174.41893
3902000000,-5.0878563,174.46512
3903000000,-5.0693579,174.36424
3904000000,-5.0504684,174.38435
3905000000,-5.0448403,174.38895
3906000000,-5.0557141,174.40074
3907000000,-5.0618758,174.26796
3908000000,-5.0435948,174.33546
3909000000,-5.0255799,174.28537
3910000000,-5.0496249,174.55521
3911000000,-5.0305815,174.05621
3912000000,-5.081985,173.71004
3913000000,-5.048605,174.1077
3914000000,-5.0261335,174.04565
3915000000,-5.0273428,174.08
3916000000,-5.0299625,173.95062
3917000000,-5.0022311,173.78246
3918000000,-4.987545,173.78172
3919000000,-5.0037031,173.89571
3920000000,-5.0076866,174.16197
3921000000,-4.9983797,173.77315
3922000000,-5.0074148,173.85986
3923000000,-4.9817438,173.44029
3924000000,-5.0020146,173.73677
3925000000,-4.9624963,173.56963
3926000000,-4.998764,173.52422
3927000000,-4.9782958,173.61095
3928000000,-4.9766374,173.61108
3929000000,-4.9561262,173.45586
3930000000,-5.0198045,173.33252
3931000000,-4.9401207,173.43039
3932000000,-4.9736824,173.23367
3933000000,-4.9426165,173.26941
3934000000,-5.0011988,173.3844
3935000000,-4.9365473,173.15138
3936000000,-4.9475384,173.25182
3937000000,-4.9397163,173.09216
3938000000,-4.9448681,173.15553
3939000000,-4.9449205,173.0249
3940000000,-4.9242425,172.86716
3941000000,-4.9547033,173.01588
3942000000,-4.9419975,173.13306
3943000000,-4.9508057,173.0218
3944000000,-4.9284015,173.09038
3945000000,-4.9227433,172.79045
3946000000,-4.9417968,172.97147
3947000000,-4.9253035,172.76862
3948000000,-4.9324026,172.64311
3949000000,-4.9294934,172.53862
3950000000,-4.9218197,172.71185
3951000000,-4.930727,172.68385
3952000000,-4.8950768,172.73558
3953000000,-4.9177141,172.53818
3954000000,-4.936717,172.47586
3955000000,-4.9036179,172.38222
3956000000,-4.9040899,172.67445
3957000000,-4.9023929,172.37091
3958000000,-4.8827944,172.37671
3959000000,-4.8788457,172.31647
3960000000,-4.9083805,172.46962
3961000000,-4.8918257,172.28242
3962000000,-4.8713756,172.27364
3963000000,-4.8550243,172.21768
3964000000,-4.8962541,172.13397
3965000000,-4.8882985,171.97713
3966000000,-4.844255,172.09244
3967000000,-4.8485341,172.15407
3968000000,-4.8459973,172.14822
3969000000,-4.8663692,171.95248
3970000000,-4.8373919,171.93311
3971000000,-4.8458638,171.7572
3972000000,-4.8531156,171.81464
3973000000,-4.8282428,171.59895
3974000000,-4.8754129,171.72427
3975000000,-4.8372197,171.63541
3976000000,-4.8628383,171.79492
3977000000,-4.8335414,171.57661
3978000000,-4.8640246,171.55109
3979000000,-4.8415494,171.65341
3980000000,-4.8301005,171.39853
3981000000,-4.8510327,171.47212
3982000000,-4.8153596,171.49928
3983000000,-4.7967114,171.46265
3984000000,-4.830821,171.3136
3985000000,-4.802278,171.28294
3986000000,-4.7950068,171.26025
3987000000,-4.8011856,171.01271
3988000000,-4.7982888,171.19301
3989000000,-4.8106213,171.17595
3990000000,-4.7977114,171.09607
3991000000,-4.8248744,171.14009
3992000000,-4.7958641,171.00681
3993000000,-4.8239164,170.95433
3994000000,-4.7654037,170.98523
3995000000,-4.7798624,170.97102
3996000000,-4.779634,170.60516
3997000000,-4.7882404,170.97316
3998000000,-4.7790775,170.80142
3999000000,-4.7750478,170.75558
4000000000,-4.7793288,170.87175
4001000000,-4.7641978,170.67053
4002000000,-4.7592039,170.64532
4003000000,-4.7364855,170.73175
4004000000,-4.7734261,170.70691
4005000000,-4.7445378,170.66476
4006000000,-4.746407,170.50757
4007000000,-4.7691545,170.37807
4008000000,-4.7292061,170.5791
4009000000,-4.7679138,170.53488
4010000000,-4.7277231,170.40025
4011000000,-4.7468214,170.32625
4012000000,-4.7740397,170.17805
4013000000,-4.7481756,170.39685
4014000000,-4.7628784,170.23268
4015000000,-4.7567711,170.18283
4016000000,-4.6950269,170.08197
4017000000,-4.7363119,170.04689
4018000000,-4.7301059,170.0527
4019000000,-4.7288637,170.09973
4020000000,-4.7092047,170.1479
4021000000,-4.7155285,169.84776
4022000000,-4.7164264,169.85129
4023000000,-4.6818943,169.66983
4024000000,-4.7177958,169.77354
4025000000,-4.7040486,169.87573
4026000000,-4.697948,169.71376
4027000000,-4.6992097,169.63231
4028000000,-4.7050023,169.59663
4029000000,-4.6702375,169.5376
4030000000,-4.7187047,169.60988
4031000000,-4.7054663,169.29596
4032000000,-4.687171,169.41441
4033000000,-4.6928058,169.4818
4034000000,-4.7141809,169.5182
4035000000,-4.6999416,169.48711
4036000000,-4.7089438,169.29779
4037000000,-4.7089148,169.19847
4038000000,-4.6919317,169.073
4039000000,-4.6539946,169.07494
4040000000,-4.6670151,169.10432
4041000000,-4.6986566,168.92131
4042000000,-4.6713791,169.05081
4043000000,-4.7092319,168.85283
4044000000,-4.6742625,168.85982
4045000000,-4.6776814,169.01344
4046000000,-4.6665564,169.05412
4047000000,-4.6572409,168.97452
4048000000,-4.6674147,168.81914
4049000000,-4.654644,168.72375
4050000000,-4.6400933,168.54718
4051000000,-4.67838,168.65027
4052000000,-4.6556611,168.47832
4053000000,-4.644557,168.75888
4054000000,-4.6340384,168.59262
4055000000,-4.6406894,168.45757
4056000000,-4.6348696,168.53627
4057000000,-4.6549811,168.55109
4058000000,-4.6429696,168.39566
4059000000,-4.640851,168.52547
4060000000,-4.637002,168.25999
4061000000,-4.6602364,168.30206
4062000000,-4.6271753,168.10384
4063000000,-4.6333146,168.23442
4064000000,-4.6261644,168.21185
4065000000,-4.681469,168.1449
4066000000,-4.6402855,167.92131
4067000000,-4.6249208,168.06102
4068000000,-4.6224308,168.06651
4069000000,-4.6409807,167.98114
4070000000,-4.6330538,167.95149
4071000000,-4.6332135,167.98901
4072000000,-4.6399665,167.85178
4073000000,-4.6130691,167.8801
4074000000,-4.6372347,167.75316
4075000000,-4.6060419,167.77773
4076000000,-4.6204562,167.63815
4077000000,-4.6125689,167.72055
4078000000,-4.6233411,167.72079
4079000000,-4.5976329,167.67096
4080000000,-4.612432,167.58241
4081000000,-4.62534,167.63232
4082000000,-4.5969181,167.51514
4083000000,-4.6303029,167.55557
4084000000,-4.6224637,167.22032
4085000000,-4.6393323,167.35541
4086000000,-4.6190538,167.30914
4087000000,-4.6113458,167.4003
4088000000,-4.6257982,167.0484
4089000000,-4.6191072,167.34227
4090000000,-4.5934834,167.14987
4091000000,-4.6166277,167.18021
4092000000,-4.605113,167.18361
4093000000,-4.6142731,167.14189
4094000000,-4.6050348,167.11011
4095000000,-4.5893841,167.03813
4096000000,-4.609673,166.88516
4097000000,-4.6223011,166.81265
4098000000,-4.6093025,166.95636
4099000000,-4.6097999,166.77235
4100000000,-4.5809059,166.69641
4101000000,-4.5969472,166.61031
4102000000,-4.6130443,166.75572
4103000000,-4.5538797,166.58102
4104000000,-4.5902877,166.86876
4105000000,-4.5866175,166.50278
4106000000,-4.5811176,166.54346
4107000000,-4.5941939,166.70515
4108000000,-4.5457096,166.47054
4109000000,-4.6022983,166.33293
4110000000,-4.5647993,166.6181
4111000000,-4.5627499,166.28883
4112000000,-4.5657182,166.33847
4113000000,-4.5898528,166.37524
4114000000,-4.5779486,166.26714
4115000000,-4.5899634,166.11348
4116000000,-4.5511427,166.08704
4117000000,-4.5625467,166.23131
4118000000,-4.5470243,166.35306
4119000000,-4.5664911,166.21573
4120000000,-4.550837,165.93202
4121000000,-4.5299211,165.88377
4122000000,-4.5437975,165.97345
4123000000,-4.5399523,165.73245
4124000000,-4.562109,165.98694
4125000000,-4.562037,165.85887
4126000000,-4.5517015,165.79733
4127000000,-4.5488558,165.75951
4128000000,-4.5519099,165.69629
4129000000,-4.5408492,165.67047
4130000000,-4.5387545,165.54675
4131000000,-4.5434809,165.5295
4132000000,-4.5615587,165.51396
4133000000,-4.5403199,165.51971
4134000000,-4.545785,165.38695
4135000000,-4.5374465,165.41554
4136000000,-4.5366096,165.39711
4137000000,-4.5390725,165.24234
4138000000,-4.5481992,165.33655
4139000000,-4.5403357,165.22575
4140000000,-4.5378194,165.18105
4141000000,-4.5169024,165.22296
4142000000,-4.5179281,165.34827
4143000000,-4.5452137,165.0507
4144000000,-4.5431247,165.19635
4145000000,-4.5338669,165.11279
4146000000,-4.5240054,165.1409
4147000000,-4.5251827,165.1754
4148000000,-4.5021691,164.86522
4149000000,-4.5236931,165.15395
4150000000,-4.5318666,164.78568
4151000000,-4.5453625,165.02432
4152000000,-4.5156732,164.77151
4153000000,-4.5264339,164.91005
4154000000,-4.5125003,164.88531
4155000000,-4.5025911,164.68797
4156000000,-4.4889355,164.51363
4157000000,-4.5107245,164.62935
4158000000,-4.5289245,164.67442
4159000000,-4.5343962,164.76256
4160000000,-4.5048995,164.51091
4161000000,-4.5118561,164.60074
4162000000,-4.5351272,164.5638
4163000000,-4.524601,164.52289
4164000000,-4.5277977,164.29311
4165000000,-4.5046878,164.31477
4166000000,-4.5111122,164.32298
4167000000,-4.4977059,164.25266
4168000000,-4.5045142,164.15541
4169000000,-4.5095859,164.058
4170000000,-4.5144205,163.96497
4171000000,-4.4966493,164.18571
4172000000,-4.5072608,164.25165
4173000000,-4.5020213,164.12663
4174000000,-4.495791,164.0643
4175000000,-4.4896922,164.09521
4176000000,-4.5071273,163.98
4177000000,-4.5050902,163.94159
4178000000,-4.520062,163.90532
4179000000,-4.5191355,163.81914
4180000000,-4.4949579,163.84366
4181000000,-4.5078464,163.8848
4182000000,-4.4903746,163.75818
4183000000,-4.4919977,163.61131
4184000000,-4.4753971,163.66141
4185000000,-4.4932313,163.53526
4186000000,-4.4874468,163.6792
4187000000,-4.5100479,163.45724
4188000000,-4.504806,163.42828
4189000000,-4.4776254,163.52425
4190000000,-4.5123,163.30962
4191000000,-4.4721117,163.42146
4192000000,-4.4811387,163.46004
4193000000,-4.5062184,163.25777
4194000000,-4.4872546,163.42427
4195000000,-4.469367,163.29118
4196000000,-4.4595885,163.03314
4197000000,-4.459672,163.22292
4198000000,-4.4928098,163.34375
4199000000,-4.4520802,163.02809
4200000000,-4.4641786,163.21808
4201000000,-4.4458332,163.08012
4202000000,-4.4962444,162.89107
4203000000,-4.4684763,163.02931
4204000000,-4.4814196,162.82114
4205000000,-4.4564481,162.84377
4206000000,-4.4744716,162.74818
4207000000,-4.4876695,162.79897
4208000000,-4.4918423,162.76898
4209000000,-4.4700923,162.8241
4210000000,-4.4631834,162.66835
4211000000,-4.4972243,162.79625
4212000000,-4.4559922,162.54314
4213000000,-4.4312487,162.5079
4214000000,-4.4934497,162.59967
4215000000,-4.4727345,162.43404
4216000000,-4.472363,162.46915
4217000000,-4.4585872,162.41684
4218000000,-4.4746175,162.37749
4219000000,-4.4462948,162.31062
4220000000,-4.4607625,162.61714
4221000000,-4.4690232,162.31142
4222000000,-4.4505119,162.24501
4223000000,-4.4445291,162.01744
4224000000,-4.4293623,162.39543
4225000000,-4.457037,162.21005
4226000000,-4.455111,162.21634
4227000000,-4.4601035,162.16762
4228000000,-4.4469671,162.17198
4229000000,-4.4489141,162.04253
4230000000,-4.4425426,162.0688
4231000000,-4.4279108,162.18652
4232000000,-4.464354,162.03156
4233000000,-4.4410753,161.87976
4234000000,-4.4317636,161.85101
4235000000,-4.4486337,161.69421
4236000000,-4.4197655,161.83627
4237000000,-4.3996201,161.6096
4238000000,-4.4095225,161.68803
4239000000,-4.4314003,161.70934
4240000000,-4.4144139,161.53308
4241000000,-4.3926511,161.62883
4242000000,-4.4334812,161.38585
4243000000,-4.4279432,161.61111
4244000000,-4.4020257,161.5686
4245000000,-4.4670053,161.58316
4246000000,-4.4123082,161.40269
4247000000,-4.4339552,161.22284
4248000000,-4.4160891,161.30432
4249000000,-4.4100766,161.30717
4250000000,-4.420424,161.16156
4251000000,-4.4036603,161.20627
4252000000,-4.4418182,161.16345
4253000000,-4.4370027,161.24222
4254000000,-4.425128,161.06917
4255000000,-4.4306865,161.03427
4256000000,-4.4172015,161.10583
4257000000,-4.4487596,161.10999
4258000000,-4.4103322,161.01762
4259000000,-4.4332447,160.83301
4260000000,-4.4298396,160.86955
4261000000,-4.4597259,160.99171
4262000000,-4.4508495,160.92572
4263000000,-4.3999414,160.65831
4264000000,-4.4127607,160.84193
4265000000,-4.4113321,160.62779
4266000000,-4.410552,160.79002
4267000000,-4.4226437,160.52859
4268000000,-4.3823109,160.46248
4269000000,-4.4273252,160.58614
4270000000,-4.4257445,160.52728
4271000000,-4.4291153,160.5224
4272000000,-4.4210358,160.44528
4273000000,-4.4191575,160.49446
4274000000,-4.4148412,160.60065
4275000000,-4.4241209,160.19499
4276000000,-4.4229527,160.35295
4277000000,-4.3952961,160.10674
4278000000,-4.4110827,160.25154
4279000000,-4.3994889,160.20091
4280000000,-4.4223108,160.03264
4281000000,-4.3845577,160.35846
4282000000,-4.421236,160.12181
4283000000,-4.4159703,160.01767
4284000000,-4.4000959,159.76553
4285000000,-4.3968472,159.81552
4286000000,-4.3899407,159.98758
4287000000,-4.4132929,159.74341
4288000000,-4.4093509,159.79193
4289000000,-4.4025602,159.77635
4290000000,-4.4257851,159.62926
4291000000,-4.4159927,159.6246
4292000000,-4.4048581,159.63181
4293000000,-4.3987398,159.5786
4294000000,-4.4174747,159.65501
4295000000,-4.3766961,159.45374
4296000000,-4.3872824,159.45537
4297000000,-4.4162402,159.51897
4298000000,-4.3885565,159.36423
4299000000,-4.4109197,159.30354
4300000000,-4.3983483,159.15952
4301000000,-4.3795767,159.23335
4302000000,-4.4276786,159.11015
4303000000,-4.4204402,159.20314
4304000000,-4.3759818,159.07382
4305000000,-4.3986478,159.07777
4306000000,-4.4073963,158.98665
4307000000,-4.4092236,158.96198
4308000000,-4.3999453,159.05594
4309000000,-4.4041386,158.77428
4310000000,-4.4029384,159.08853
4311000000,-4.4197745,158.81786
4312000000,-4.4266796,158.8597
4313000000,-4.4052258,158.79047
4314000000,-4.4277706,158.88159
4315000000,-4.4301672,158.80177
4316000000,-4.4201822,158.65817
4317000000,-4.4302878,158.68959
4318000000,-4.4462352,158.6434
4319000000,-4.4356394,158.88072
4320000000,-4.4308,158.54478
4321000000,-4.4280128,158.60983
4322000000,-4.4159274,158.29793
4323000000,-4.394803,158.4669
4324000000,-4.4195285,158.42619
4325000000,-4.4114914,158.42998
4326000000,-4.4094028,158.29797
4327000000,-4.4438376,158.45529
4328000000,-4.4454827,158.33478
4329000000,-4.423717,158.16531
4330000000,-4.4140754,158.25363
4331000000,-4.42483,158.35919
4332000000,-4.442327,158.03014
4333000000,-4.4210749,158.20776
4334000000,-4.4367051,158.07622
4335000000,-4.4304843,157.97528
4336000000,-4.42624,158.02042
4337000000,-4.430315,157.95844
4338000000,-4.4121027,157.85475
4339000000,-4.4223866,157.77826
4340000000,-4.4033213,157.86517
4341000000,-4.4074812,157.78944
4342000000,-4.4521112,157.83316
4343000000,-4.4008322,157.64893
4344000000,-4.4328256,157.70999
4345000000,-4.4268036,157.78439
4346000000,-4.428658,157.51157
4347000000,-4.4177289,157.50072
4348000000,-4.4534321,157.47789
4349000000,-4.4722543,157.51152
4350000000,-4.4407043,157.53537
4351000000,-4.4446077,157.52211
4352000000,-4.4451699,157.22064
4353000000,-4.4648824,157.45993
4354000000,-4.4435406,157.42876
4355000000,-4.4598107,157.29172
4356000000,-4.4500036,157.38695
4357000000,-4.4542518,157.24023
4358000000,-4.4509163,157.07239
4359000000,-4.46031,157.24947
4360000000,-4.4456949,157.05907
4361000000,-4.4363213,156.96451
4362000000,-4.4472551,157.13904
4363000000,-4.4498568,156.9221
4364000000,-4.4478803,157.10826
4365000000,-4.4600625,156.97585
4366000000,-4.4434872,157.12631
4367000000,-4.4508243,156.91701
4368000000,-4.4684334,156.82428
4369000000,-4.4417105,156.93817
4370000000,-4.4735913,156.80045
4371000000,-4.4380465,156.68758
4372000000,-4.4759231,156.77348
4373000000,-4.5001287,156.81528
4374000000,-4.4498615,156.92357
4375000000,-4.4594402,156.68826
4376000000,-4.4415388,156.71182
4377000000,-4.4643292,156.6125
4378000000,-4.443521,156.4783
4379000000,-4.4403963,156.62029
4380000000,-4.4638281,156.46939
4381000000,-4.469358,156.40134
4382000000,-4.4701705,156.61563
4383000000,-4.4806151,156.51367
4384000000,-4.4797354,156.38956
4385000000,-4.4566584,156.41621
4386000000,-4.450809,156.35783
4387000000,-4.4759731,156.41179
4388000000,-4.46275,156.12248
4389000000,-4.4315662,156.10521
4390000000,-4.4661727,156.26231
4391000000,-4.4814072,156.12637
4392000000,-4.4917922,156.3257
4393000000,-4.4785051,156.17905
4394000000,-4.4790034,155.97327
4395000000,-4.4995728,156.02231
4396000000,-4.4720016,156.15358
4397000000,-4.4664898,155.93622
4398000000,-4.4688554,155.85789
4399000000,-4.4571314,155.81207
4400000000,-4.4811153,155.88222
4401000000,-4.4869437,155.73724
4402000000,-4.4801135,155.94489
4403000000,-4.4659448,155.80305
4404000000,-4.4591951,155.86539
4405000000,-4.47051,155.59209
4406000000,-4.4850035,155.57085
4407000000,-4.5123196,155.6835
4408000000,-4.5166254,155.81157
4409000000,-4.5331845,155.69946
4410000000,-4.5201545,155.63564
4411000000,-4.4988055,155.5127
4412000000,-4.492517,155.60487
4413000000,-4.5030832,155.49849
4414000000,-4.5055013,155.2812
4415000000,-4.4957795,155.36296
4416000000,-4.5216484,155.29253
4417000000,-4.4669924,155.20856
4418000000,-4.4898658,155.2485
4419000000,-4.5185041,155.32385
4420000000,-4.5110545,155.36462
4421000000,-4.5240474,154.98016
4422000000,-4.5230742,155.13603
4423000000,-4.4941449,155.15388
4424000000,-4.509551,154.93393
4425000000,-4.5047035,155.02895
4426000000,-4.503808,155.05626
4427000000,-4.5296788,154.92715
4428000000,-4.4966192,155.03189
4429000000,-4.5228553,154.69125
4430000000,-4.5297208,154.94731
4431000000,-4.5261669,154.858
4432000000,-4.524446,154.88397
4433000000,-4.5293355,154.85979
4434000000,-4.5277467,154.85477
4435000000,-4.5113416,154.80159
4436000000,-4.5328026,154.81062
4437000000,-4.5320973,154.77805
4438000000,-4.5394497,154.64886
4439000000,-4.5261211,154.77077
4440000000,-4.5134912,154.62189
4441000000,-4.5760732,154.64581
4442000000,-4.5472617,154.58923
4443000000,-4.5812178,154.6306
4444000000,-4.5165925,154.49173
4445000000,-4.5358071,154.3457
4446000000,-4.5332527,154.32587
4447000000,-4.5203848,154.4201
4448000000,-4.520453,154.31708
4449000000,-4.5364799,154.37589
4450000000,-4.5111456,154.26456
4451000000,-4.5471077,154.44876
4452000000,-4.5244927,154.45294
4453000000,-4.5396981,154.09308
4454000000,-4.5655837,154.19781
4455000000,-4.511734,153.96094
4456000000,-4.5430841,154.12263
4457000000,-4.5527263,154.14842
4458000000,-4.5324721,154.15216
4459000000,-4.548274,154.05644
4460000000,-4.5387893,154.05408
4461000000,-4.5072293,153.9791
4462000000,-4.5435357,153.82684
4463000000,-4.5263867,154.10606
4464000000,-4.5591331,153.81226
4465000000,-4.5401678,153.97653
4466000000,-4.5678048,153.84142
4467000000,-4.5381126,153.75299
4468000000,-4.5486259,153.67171
4469000000,-4.5327625,153.82143
4470000000,-4.5549164,153.83345
4471000000,-4.5680108,153.46773
4472000000,-4.5226245,153.65923
4473000000,-4.5568376,153.67998
4474000000,-4.5569315,153.60292
4475000000,-4.5540142,153.74307
4476000000,-4.5844436,153.49202
4477000000,-4.5707259,153.39229
4478000000,-4.5484686,153.55424
4479000000,-4.55933,153.36874
4480000000,-4.5559835,153.24922
4481000000,-4.5696478,153.34038
4482000000,-4.5689669,153.23387
4483000000,-4.5724602,153.33299
4484000000,-4.5788074,153.44881
4485000000,-4.5920057,153.27171
4486000000,-4.5729365,153.41159
4487000000,-4.5910568,153.16583
4488000000,-4.6031561,153.32625
4489000000,-4.5911288,153.07579
4490000000,-4.5659828,153.13879
4491000000,-4.5868254,153.11945
4492000000,-4.5432892,153.15514
4493000000,-4.6007142,152.86038
4494000000,-4.6103282,152.92999
4495000000,-4.5504446,152.99011
4496000000,-4.601275,152.97885
4497000000,-4.6160493,152.90324
4498000000,-4.6184616,152.82254
4499000000,-4.6046414,152.87433
4500000000,-4.6016645,152.90504
4501000000,-4.575017,152.98247
4502000000,-4.5952706,152.71466
4503000000,-4.5789332,152.65614
4504000000,-4.604578,152.64189
4505000000,-4.5794034,152.72952
4506000000,-4.60394,152.65927
4507000000,-4.6239204,152.74342
4508000000,-4.582355,152.51155
4509000000,-4.5956268,152.62888
4510000000,-4.5775976,152.51328
4511000000,-4.618607,152.54942
4512000000,-4.5888996,152.3732
4513000000,-4.6118283,152.32256
4514000000,-4.6261973,152.43246
4515000000,-4.5891719,152.23289
4516000000,-4.5887628,152.39235
4517000000,-4.6066871,152.20255
4518000000,-4.5704942,152.36438
4519000000,-4.6214075,152.20195
4520000000,-4.6440263,152.30818
4521000000,-4.6468825,152.19882
4522000000,-4.6457219,152.11392
4523000000,-4.6292319,152.10741
4524000000,-4.6214371,151.98178
4525000000,-4.6183009,152.04887
4526000000,-4.6364694,151.944
4527000000,-4.6454802,151.86551
4528000000,-4.6187043,151.99631
4529000000,-4.6319637,152.01711
4530000000,-4.6139402,151.91486
4531000000,-4.6192169,151.95665
4532000000,-4.6240711,151.82938
4533000000,-4.635406,151.69371
4534000000,-4.6634569,151.66069
4535000000,-4.6358047,151.54105
4536000000,-4.601265,151.81709
4537000000,-4.6255622,151.51236
4538000000,-4.6317482,151.57376
4539000000,-4.6259704,151.59286
4540000000,-4.6572056,151.72571
4541000000,-4.6738577,151.41753
4542000000,-4.6664338,151.31308
4543000000,-4.6575232,151.44293
4544000000,-4.67026,151.37396
4545000000,-4.6610489,151.57796
4546000000,-4.6479349,151.36696
4547000000,-4.6673231,151.16646
4548000000,-4.6674051,151.43425
4549000000,-4.6807728,151.31712
4550000000,-4.643415,151.27348
4551000000,-4.6575637,151.26222
4552000000,-4.635128,151.21202
4553000000,-4.6729436,151.2854
4554000000,-4.6569395,151.18869
4555000000,-4.6545434,150.97693
4556000000,-4.6640725,151.02956
4557000000,-4.6636748,150.95181
4558000000,-4.6570129,151.03629
4559000000,-4.6566663,150.97108
4560000000,-4.6711264,150.76285
4561000000,-4.6724906,150.89519
4562000000,-4.6781778,151.03947
4563000000,-4.6619005,150.68155
4564000000,-4.6723089,150.57768
4565000000,-4.6932702,150.96021
4566000000,-4.6761146,150.83469
4567000000,-4.6982608,150.73544
4568000000,-4.6843457,150.67218
4569000000,-4.7107091,150.72269
4570000000,-4.7073898,150.62163
4571000000,-4.6503863,150.40616
4572000000,-4.6795087,150.39796
4573000000,-4.6860113,150.3839
4574000000,-4.687706,150.75113
4575000000,-4.6929049,150.40608
4576000000,-4.6859727,150.48085
4577000000,-4.7073421,150.24352
4578000000,-4.6765733,150.36876
4579000000,-4.6890388,150.27213
4580000000,-4.6976786,150.11971
4581000000,-4.6938934,150.18044
4582000000,-4.6997185,150.17853
4583000000,-4.6787791,150.4045
4584000000,-4.7071047,149.96259
4585000000,-4.7211332,149.92982
4586000000,-4.7149425,150.13777
4587000000,-4.7085319,149.92894
4588000000,-4.7187119,150.13516
4589000000,-4.713284,149.94937
4590000000,-4.7321591,149.93065
4591000000,-4.725554,149.89781
4592000000,-4.7076626,150.01604
4593000000,-4.7369528,149.87822
4594000000,-4.7717805,149.83171
4595000000,-4.735806,149.76712
4596000000,-4.7228932,149.77138
4597000000,-4.7562075,149.92291
4598000000,-4.7260242,149.53108
4599000000,-4.7327051,149.70427
4600000000,-4.7507763,149.7984
4601000000,-4.7593889,149.63284
4602000000,-4.7313828,149.72214
4603000000,-4.7499518,149.66774
4604000000,-4.7756653,149.6424
4605000000,-4.7686439,149.51427
4606000000,-4.7597613,149.46671
4607000000,-4.7662864,149.56453
4608000000,-4.7671332,149.49725
4609000000,-4.7440147,149.36864
4610000000,-4.7727952,149.42862
4611000000,-4.7794228,149.39761
4612000000,-4.7413983,149.07909
4613000000,-4.8089237,149.06662
4614000000,-4.7631707,149.15416
4615000000,-4.8036151,149.31329
4616000000,-4.7558336,149.12601
4617000000,-4.7808685,149.05856
4618000000,-4.777494,149.16124
4619000000,-4.7707291,148.99155
4620000000,-4.8132224,148.89676
4621000000,-4.7679653,148.96242
4622000000,-4.7585545,148.87283
4623000000,-4.7583952,148.97282
4624000000,-4.783628,149.00691
4625000000,-4.7642589,148.88116
4626000000,-4.7646394,149.02388
4627000000,-4.7955585,148.72992
4628000000,-4.8338232,148.83932
4629000000,-4.8096886,148.76152
4630000000,-4.8205309,148.67188
4631000000,-4.8480005,148.67101
4632000000,-4.8169742,148.58286
4633000000,-4.817852,148.61322
4634000000,-4.7839003,148.65063
4635000000,-4.8235984,148.46646
4636000000,-4.8522372,148.46747
4637000000,-4.8360071,148.44266
4638000000,-4.8454313,148.43803
4639000000,-4.8427596,148.37683
4640000000,-4.8452077,148.40785
4641000000,-4.8277984,148.43047
4642000000,-4.844965,148.3353
4643000000,-4.8479958,148.3931
4644000000,-4.8831725,148.20164
4645000000,-4.8498087,148.43324
4646000000,-4.8654976,148.18065
4647000000,-4.8704729,148.00418
4648000000,-4.8757653,147.89168
4649000000,-4.8667369,148.02325
4650000000,-4.847187,148.1613
4651000000,-4.8725462,148.04594
4652000000,-4.8836265,148.00746
4653000000,-4.8712573,148.00708
4654000000,-4.873426,147.78113
4655000000,-4.8489637,147.8149
4656000000,-4.9142504,147.88933
4657000000,-4.8990808,147.83864
4658000000,-4.8819022,147.69945
4659000000,-4.8867316,147.81575
4660000000,-4.8685017,147.7252
4661000000,-4.893858,147.59277
4662000000,-4.9078102,147.69019
4663000000,-4.886776,147.98123
4664000000,-4.8981786,147.52451
4665000000,-4.911665,147.46565
4666000000,-4.9169965,147.29214
4667000000,-4.9011583,147.45454
4668000000,-4.8811069,147.56177
4669000000,-4.920403,147.62204
4670000000,-4.9187851,147.50966
4671000000,-4.9143691,147.41165
4672000000,-4.9095144,147.10753
4673000000,-4.9118767,147.21352
4674000000,-4.9099655,147.14265
4675000000,-4.9231477,147.23671
4676000000,-4.914608,147.20975
4677000000,-4.9243927,147.09081
4678000000,-4.9488888,147.03326
4679000000,-4.9331665,147.04031
4680000000,-4.9471083,147.1111
4681000000,-4.9493146,146.98578
4682000000,-4.9791117,147.07455
4683000000,-4.9584708,147.07848
4684000000,-4.9283195,146.7709
4685000000,-4.9629245,146.83083
4686000000,-4.968833,147.15364
4687000000,-4.9349127,146.77084
4688000000,-4.927772,146.9119
4689000000,-4.9613805,146.75616
4690000000,-4.9964314,146.62592
4691000000,-4.9856911,146.75578
4692000000,-4.9865289,146.73065
4693000000,-4.9749784,146.65178
4694000000,-4.9702229,146.39427
4695000000,-4.9887667,146.56465
4696000000,-4.9683795,146.5289
4697000000,-4.9869537,146.57254
4698000000,-4.9786558,146.70651
4699000000,-4.985054,146.45233
4700000000,-4.9988909,146.51715
4701000000,-4.9643431,146.47466
4702000000,-5.0168123,146.07689
4703000000,-5.0267162,146.07504
4704000000,-4.9851809,146.48056
4705000000,-5.0170627,146.27884
4706000000,-4.9734559,146.29968
4707000000,-5.0417566,146.21452
4708000000,-5.0156898,146.04813
4709000000,-5.0177875,146.19041
4710000000,-5.0244641,146.25392
4711000000,-4.9910502,145.91806
4712000000,-5.0200529,145.89836
4713000000,-5.0067358,145.92075
4714000000,-5.0399842,145.86885
4715000000,-5.0733538,145.88593
4716000000,-5.057128,145.98563
4717000000,-5.037827,145.79163
4718000000,-5.0388775,146.10349
4719000000,-5.0627394,145.85526
4720000000,-5.0521746,145.89384
4721000000,-5.0662727,145.86392
4722000000,-5.0444727,145.79347
4723000000,-5.0464296,145.88034
4724000000,-5.0511217,145.869
4725000000,-5.058167,145.57805
4726000000,-5.0747943,145.54434
4727000000,-5.0602899,145.53629
4728000000,-5.1073351,145.51169
4729000000,-5.0463734,145.51645
4730000000,-5.1127515,145.50002
4731000000,-5.1098599,145.37183
4732000000,-5.097198,145.62738
4733000000,-5.0929346,145.42583
4734000000,-5.0800734,145.23645
4735000000,-5.0898066,145.36089
4736000000,-5.1077952,145.0524
4737000000,-5.0897508,145.16508
4738000000,-5.1135221,145.28957
4739000000,-5.1227841,145.04526
4740000000,-5.1130567,145.12044
4741000000,-5.099586,145.25879
4742000000,-5.1178322,145.21342
4743000000,-5.1295629,145.02225
4744000000,-5.1194878,145.10217
4745000000,-5.1211095,144.71716
4746000000,-5.1716247,144.99736
4747000000,-5.1580706,144.85648
4748000000,-5.1390057,144.92186
4749000000,-5.1689596,144.81406
4750000000,-5.1502995,144.80211
4751000000,-5.1272793,144.9257
4752000000,-5.1473365,144.94919
4753000000,-5.1715417,144.53256
4754000000,-5.1569691,144.86168
4755000000,-5.1760793,144.62604
4756000000,-5.1741109,144.92525
4757000000,-5.1903791,144.77873
4758000000,-5.1853828,144.91476
4759000000,-5.1885204,144.52962
4760000000,-5.1508727,144.6017
4761000000,-5.1753182,144.66005
4762000000,-5.2063913,144.55075
4763000000,-5.2156978,144.66539
4764000000,-5.1842275,144.47589
4765000000,-5.1867609,144.41962
4766000000,-5.2041149,144.51085
4767000000,-5.2283025,144.4547
4768000000,-5.1898513,144.50513
4769000000,-5.2409,144.39998
4770000000,-5.2290611,144.295
4771000000,-5.2204256,144.22458
4772000000,-5.2367158,144.17545
4773000000,-5.2333293,144.11317
4774000000,-5.214293,144.05499
4775000000,-5.2192974,144.08638
4776000000,-5.2261429,144.16379
4777000000,-5.243413,144.04628
4778000000,-5.2473464,144.08475
4779000000,-5.2569342,143.94931
4780000000,-5.2341247,143.88762
4781000000,-5.2831001,143.96503
4782000000,-5.2669563,143.77654
4783000000,-5.3145666,143.97652
4784000000,-5.2745085,143.61684
4785000000,-5.3034773,143.62985
4786000000,-5.303678,143.79976
4787000000,-5.2828178,143.70537
4788000000,-5.2915974,143.60873
4789000000,-5.3172717,143.74347
4790000000,-5.299108,143.60838
4791000000,-5.3125768,143.74844
4792000000,-5.3081908,143.85178
4793000000,-5.295558,143.57213
4794000000,-5.301322,143.66016
4795000000,-5.2865295,143.63731
4796000000,-5.3366499,143.52051
4797000000,-5.2860222,143.70203
4798000000,-5.3221564,143.44788
4799000000,-5.3391013,143.59732
4800000000,-5.3418188,143.42749
4801000000,-5.3324847,143.47783
4802000000,-5.3248067,143.5005
4803000000,-5.3399119,143.32356
4804000000,-5.3055706,143.3924
4805000000,-5.3537264,142.87712
4806000000,-5.3727345,143.14566
4807000000,-5.351162,143.24702
4808000000,-5.3925939,143.3662
4809000000,-5.3857498,143.01227
4810000000,-5.3718767,143.18062
4811000000,-5.375175,143.37749
4812000000,-5.4085879,142.96243
4813000000,-5.4016261,143.00497
4814000000,-5.4306316,143.02757
4815000000,-5.3931751,143.07469
4816000000,-5.4158483,142.85139
4817000000,-5.4444141,142.79546
4818000000,-5.4293928,142.91664
4819000000,-5.4175949,143.08835
4820000000,-5.4225612,142.73163
4821000000,-5.4544997,142.65419
4822000000,-5.4053779,142.97684
4823000000,-5.4342151,142.87881
4824000000,-5.4613981,142.76044
4825000000,-5.4634399,142.85501
4826000000,-5.4386878,142.72281
4827000000,-5.491375,142.57823
4828000000,-5.5043178,142.33551
4829000000,-5.4803977,142.73921
4830000000,-5.494751,142.70248
4831000000,-5.5029974,142.72319
4832000000,-5.4932523,142.67276
4833000000,-5.5177517,142.38492
4834000000,-5.5397053,142.50694
4835000000,-5.479455,142.33247
4836000000,-5.5541124,142.30388
4837000000,-5.5507445,142.21892
4838000000,-5.513926,142.16133
4839000000,-5.5328393,142.27989
4840000000,-5.5628719,142.1716
4841000000,-5.5550442,142.11858
4842000000,-5.5449696,142.07536
4843000000,-5.539887,142.29485
4844000000,-5.5442815,142.21152
4845000000,-5.5682158,142.15727
4846000000,-5.5680633,142.07826
4847000000,-5.5689688,141.96916
4848000000,-5.5730004,141.94023
4849000000,-5.595418,141.78444
4850000000,-5.5624104,142.06938
4851000000,-5.5930099,141.73425
4852000000,-5.6291184,141.63544
4853000000,-5.6110015,141.98322
4854000000,-5.5760217,141.82445
4855000000,-5.6294889,141.74069
4856000000,-5.6338224,141.73799
4857000000,-5.6101251,141.6158
4858000000,-5.6324143,141.8979
4859000000,-5.6543961,141.59181
4860000000,-5.5710082,141.79095
4861000000,-5.6317673,141.6969
4862000000,-5.6535749,141.74771
4863000000,-5.6454821,141.62926
4864000000,-5.6753235,141.69902
4865000000,-5.6734557,141.46149
4866000000,-5.6672873,141.48012
4867000000,-5.6826115,141.52892
4868000000,-5.6910787,141.42548
4869000000,-5.6678505,141.24219
4870000000,-5.7080064,141.41716
4871000000,-5.6920409,141.16565
4872000000,-5.6755176,141.48877
4873000000,-5.6995969,141.18097
4874000000,-5.7568297,141.34595
4875000000,-5.7426858,141.23752
4876000000,-5.7236924,141.15233
4877000000,-5.7445221,141.11517
4878000000,-5.7618861,141.22595
4879000000,-5.7768841,141.1451
4880000000,-5.7273898,141.09509
4881000000,-5.7505112,141.02153
4882000000,-5.7626343,140.73996
4883000000,-5.7617073,141.16283
4884000000,-5.7597933,140.84229
4885000000,-5.7697077,140.89436
4886000000,-5.7498355,140.8877
4887000000,-5.793385,140.91148
4888000000,-5.7897763,140.81245
4889000000,-5.7832928,140.85049
4890000000,-5.7607565,140.90523
4891000000,-5.7798805,140.69231
4892000000,-5.8385482,141.01393
4893000000,-5.7652388,140.89801
4894000000,-5.8210058,140.98436
4895000000,-5.8134356,140.77597
4896000000,-5.8299341,140.88243
4897000000,-5.8538022,140.47487
4898000000,-5.8307872,140.65062
4899000000,-5.8853655,140.88615
4900000000,-5.8526549,140.8696
4901000000,-5.8640447,140.64426
4902000000,-5.8949895,140.5244
4903000000,-5.8753629,140.71078
4904000000,-5.9257436,140.72386
4905000000,-5.8772669,140.5706
4906000000,-5.9030671,140.32643
4907000000,-5.9139299,140.49382
4908000000,-5.9316134,140.30211
4909000000,-5.939539,140.35599
4910000000,-5.9305267,140.65015
4911000000,-5.9788766,140.28189
4912000000,-5.9313722,140.49744
4913000000,-6.0070405,140.18501
4914000000,-5.9981027,140.366
4915000000,-6.0000949,140.38936
4916000000,-5.9947109,140.16029
4917000000,-6.0094547,140.1899
4918000000,-6.0380011,140.15018
4919000000,-6.0004058,140.32173
4920000000,-6.0312624,140.3347
4921000000,-6.0359154,140.01297
4922000000,-6.0432715,140.16934
4923000000,-6.0673609,139.99063
4924000000,-6.0745406,140.30148
4925000000,-6.0511665,140.20374
4926000000,-6.0976768,140.07036
4927000000,-6.079412,140.14767
4928000000,-6.0986919,140.35966
4929000000,-6.0663924,140.30214
4930000000,-6.1064019,140.0963
4931000000,-6.1102672,140.12604
4932000000,-6.1099992,140.16754
4933000000,-6.108119,140.09114
4934000000,-6.143261,140.00096
4935000000,-6.1086326,139.85884
4936000000,-6.1003723,139.991
4937000000,-6.1253462,140.08769
4938000000,-6.1689115,139.82108
4939000000,-6.1453719,140.17004
4940000000,-6.1498275,140.03764
4941000000,-6.1564517,140.02702
4942000000,-6.1431613,139.88222
4943000000,-6.165256,140.008
4944000000,-6.1619225,140.13914
4945000000,-6.2219181,139.96347
4946000000,-6.2109852,139.97966
4947000000,-6.2276316,139.97878
4948000000,-6.2106633,139.8548
4949000000,-6.2043777,140.06525
4950000000,-6.225616,139.84518
4951000000,-6.2615962,139.83852
4952000000,-6.2382226,140.17758
4953000000,-6.2561193,139.97426
4954000000,-6.2335129,139.93109
4955000000,-6.2456474,139.99406
4956000000,-6.2040391,140.18655
4957000000,-6.299994,140.06053
4958000000,-6.2703705,139.93579
4959000000,-6.2870827,139.95805
4960000000,-6.3027716,139.95448
4961000000,-6.321352,139.85078
4962000000,-6.3207974,139.8831
4963000000,-6.2961473,139.83949
4964000000,-6.2940559,139.6485
4965000000,-6.3198299,139.88087
4966000000,-6.3197918,139.62521
4967000000,-6.3217988,140.03644
4968000000,-6.3613634,139.9265
4969000000,-6.3217931,139.7
4970000000,-6.341886,140.03502
4971000000,-6.3364806,139.77603
4972000000,-6.3687325,139.78842
4973000000,-6.3457508,139.84857
4974000000,-6.3608069,139.89478
4975000000,-6.3856387,140.02733
4976000000,-6.3715777,140.04924
4977000000,-6.4115262,139.77095
4978000000,-6.3875737,139.85011
4979000000,-6.4005942,139.70563
4980000000,-6.4174213,140.08202
4981000000,-6.3910756,140.07788
4982000000,-6.3810263,139.77026
4983000000,-6.4314928,139.71643
4984000000,-6.4229894,139.61861
4985000000,-6.4271026,139.61526
4986000000,-6.4067297,139.47295
4987000000,-6.421092,139.65654
4988000000,-6.3936081,140.01559
4989000000,-6.4822702,139.89236
4990000000,-6.4542165,139.80237
4991000000,-6.4523692,139.86775
4992000000,-6.4930797,139.8343
4993000000,-6.452445,139.61546
4994000000,-6.5086823,139.94722
4995000000,-6.4874744,139.91069
4996000000,-6.473206,139.65794
4997000000,-6.4848194,139.98767
4998000000,-6.5016036,139.87852
4999000000,-6.5199409,139.97124
5000000000,-6.5442677,139.90118
END

