Freq(Hz),S21 Log Mag(dB),S21 Phase(ï¿½)
1000000000,-10.641809,-60.327484
1001000000,-10.65833,-60.052452
1002000000,-10.666235,-60.080368
1003000000,-10.694569,-60.066605
1004000000,-10.699408,-60.2127
1005000000,-10.768373,-59.912556
1006000000,-10.726007,-60.185783
1007000000,-10.749262,-60.181324
1008000000,-10.750133,-60.277035
1009000000,-10.755584,-60.096123
1010000000,-10.781174,-60.365295
1011000000,-10.80985,-60.085079
1012000000,-10.838021,-60.108963
1013000000,-10.80777,-60.146122
1014000000,-10.820589,-60.003567
1015000000,-10.87909,-60.151566
1016000000,-10.833554,-60.038673
1017000000,-10.904716,-60.465446
1018000000,-10.879139,-60.26754
1019000000,-10.925851,-60.072906
1020000000,-10.971731,-59.902653
1021000000,-10.951514,-60.150745
1022000000,-10.95337,-59.792583
1023000000,-11.035975,-60.230766
1024000000,-11.018505,-59.949642
1025000000,-11.037668,-60.09964
1026000000,-11.038846,-59.952137
1027000000,-11.04495,-59.924747
1028000000,-11.091418,-60.130226
1029000000,-11.057398,-59.915779
1030000000,-11.138405,-60.03632
1031000000,-11.136851,-60.010418
1032000000,-11.15699,-60.040329
1033000000,-11.163325,-59.809761
1034000000,-11.194449,-60.011799
1035000000,-11.184137,-59.963913
1036000000,-11.202115,-59.86475
1037000000,-11.214261,-60.005638
1038000000,-11.236273,-59.811619
1039000000,-11.243206,-59.834816
1040000000,-11.257689,-59.779613
1041000000,-11.316528,-59.813778
1042000000,-11.325045,-59.710041
1043000000,-11.322614,-59.78688
1044000000,-11.31531,-59.893635
1045000000,-11.345811,-59.595097
1046000000,-11.390227,-59.895657
1047000000,-11.406029,-59.467236
1048000000,-11.414124,-59.239582
1049000000,-11.390985,-59.477798
1050000000,-11.417082,-59.297455
1051000000,-11.483363,-59.310604
1052000000,-11.460479,-59.413132
1053000000,-11.491391,-59.362534
1054000000,-11.479713,-59.353848
1055000000,-11.526631,-59.320168
1056000000,-11.541079,-59.163933
1057000000,-11.536471,-59.367149
1058000000,-11.606836,-59.350662
1059000000,-11.601919,-59.160088
1060000000,-11.590051,-59.108067
1061000000,-11.632028,-59.186562
1062000000,-11.644479,-59.094048
1063000000,-11.654819,-59.132595
1064000000,-11.674725,-59.091766
1065000000,-11.642493,-59.0317
1066000000,-11.716839,-58.874973
1067000000,-11.71854,-59.034439
1068000000,-11.74432,-58.926514
1069000000,-11.773101,-58.794373
1070000000,-11.762985,-58.763344
1071000000,-11.787828,-58.697903
1072000000,-11.793585,-58.502811
1073000000,-11.848454,-58.56282
1074000000,-11.818102,-58.392567
1075000000,-11.878619,-58.536415
1076000000,-11.882508,-58.51408
1077000000,-11.901547,-58.476234
1078000000,-11.923793,-58.391514
1079000000,-11.894394,-58.296062
1080000000,-11.92807,-58.419025
1081000000,-11.957734,-58.158394
1082000000,-11.99378,-58.146214
1083000000,-11.99484,-58.176552
1084000000,-12.01839,-58.01088
1085000000,-12.017393,-57.837475
1086000000,-12.068489,-58.129951
1087000000,-12.058016,-57.862598
1088000000,-12.080563,-57.753456
1089000000,-12.067688,-57.765221
1090000000,-12.105374,-57.621117
1091000000,-12.128071,-57.513889
1092000000,-12.163504,-57.422993
1093000000,-12.108305,-57.583012
1094000000,-12.181141,-57.520683
1095000000,-12.180944,-57.478577
1096000000,-12.197942,-57.4133
1097000000,-12.238793,-57.315231
1098000000,-12.223549,-57.112797
1099000000,-12.297097,-57.23793
1100000000,-12.284669,-56.816452
1101000000,-12.314027,-56.7929
1102000000,-12.329698,-56.668186
1103000000,-12.336092,-56.651169
1104000000,-12.364917,-56.669773
1105000000,-12.361784,-56.881065
1106000000,-12.356311,-56.5168
1107000000,-12.399302,-56.431496
1108000000,-12.425203,-56.608204
1109000000,-12.410847,-56.0662
1110000000,-12.447502,-56.158463
1111000000,-12.466761,-55.867447
1112000000,-12.447061,-55.96159
1113000000,-12.528844,-55.759857
1114000000,-12.499675,-55.729752
1115000000,-12.517983,-55.714417
1116000000,-12.550388,-55.555897
1117000000,-12.544469,-55.493172
1118000000,-12.578399,-55.233177
1119000000,-12.566892,-55.188858
1120000000,-12.602318,-55.256042
1121000000,-12.617537,-55.246101
1122000000,-12.65115,-55.178703
1123000000,-12.645952,-54.622078
1124000000,-12.638355,-54.690727
1125000000,-12.672854,-54.784046
1126000000,-12.696718,-54.483189
1127000000,-12.714885,-54.396992
1128000000,-12.726635,-54.2547
1129000000,-12.775947,-54.358868
1130000000,-12.801017,-54.208771
1131000000,-12.757758,-54.177574
1132000000,-12.785239,-53.741692
1133000000,-12.794791,-53.712284
1134000000,-12.809446,-53.626678
1135000000,-12.836063,-53.507004
1136000000,-12.851799,-53.334438
1137000000,-12.854437,-53.144089
1138000000,-12.867628,-53.333649
1139000000,-12.891377,-53.062485
1140000000,-12.92155,-52.750854
1141000000,-12.954173,-52.583382
1142000000,-12.931775,-52.787277
1143000000,-12.935592,-52.399513
1144000000,-12.979545,-52.399887
1145000000,-12.961267,-52.39159
1146000000,-13.006383,-51.810646
1147000000,-12.970529,-51.946026
1148000000,-13.017822,-51.822803
1149000000,-13.006257,-51.759651
1150000000,-13.006583,-51.740883
1151000000,-13.04845,-51.299789
1152000000,-13.038939,-51.373909
1153000000,-13.036695,-51.212975
1154000000,-13.078793,-51.074566
1155000000,-13.100924,-50.968445
1156000000,-13.104805,-50.856937
1157000000,-13.112258,-50.578438
1158000000,-13.126553,-50.386566
1159000000,-13.143438,-50.388527
1160000000,-13.131624,-50.129623
1161000000,-13.141769,-49.843239
1162000000,-13.1424,-49.853683
1163000000,-13.204951,-49.64489
1164000000,-13.199711,-49.633034
1165000000,-13.189734,-49.303066
1166000000,-13.19632,-49.044239
1167000000,-13.175035,-49.170044
1168000000,-13.213828,-49.108395
1169000000,-13.243796,-48.951283
1170000000,-13.218577,-48.45863
1171000000,-13.214361,-48.412968
1172000000,-13.250739,-48.28339
1173000000,-13.295245,-47.920155
1174000000,-13.286184,-47.73938
1175000000,-13.274633,-47.764606
1176000000,-13.295719,-47.669605
1177000000,-13.318336,-47.42305
1178000000,-13.306139,-47.328537
1179000000,-13.300486,-47.068512
1180000000,-13.293086,-46.903362
1181000000,-13.319901,-46.651615
1182000000,-13.326238,-46.61853
1183000000,-13.289247,-46.438808
1184000000,-13.380974,-46.116104
1185000000,-13.38018,-45.874344
1186000000,-13.388533,-45.827724
1187000000,-13.372264,-45.790276
1188000000,-13.370221,-45.605968
1189000000,-13.389797,-45.487156
1190000000,-13.350351,-45.136078
1191000000,-13.351057,-45.090599
1192000000,-13.372689,-44.829655
1193000000,-13.355528,-44.758968
1194000000,-13.401847,-44.704033
1195000000,-13.387122,-44.242229
1196000000,-13.391435,-43.975422
1197000000,-13.399961,-44.096504
1198000000,-13.383564,-43.773914
1199000000,-13.411898,-43.248726
1200000000,-13.417631,-43.344826
1201000000,-13.370718,-43.281143
1202000000,-13.400186,-43.036522
1203000000,-13.418363,-42.591465
1204000000,-13.418267,-42.607349
1205000000,-13.386862,-42.207245
1206000000,-13.398293,-42.027599
1207000000,-13.435428,-41.770321
1208000000,-13.374977,-41.688766
1209000000,-13.390272,-41.43832
1210000000,-13.43059,-41.771496
1211000000,-13.396912,-41.177956
1212000000,-13.385115,-41.104507
1213000000,-13.399917,-40.676094
1214000000,-13.394025,-40.591721
1215000000,-13.388332,-40.400597
1216000000,-13.362575,-40.193737
1217000000,-13.38399,-39.990685
1218000000,-13.37944,-39.908684
1219000000,-13.373928,-39.39497
1220000000,-13.390283,-39.436764
1221000000,-13.336628,-39.194386
1222000000,-13.354466,-39.029846
1223000000,-13.358545,-38.614872
1224000000,-13.315265,-38.348122
1225000000,-13.351526,-38.422897
1226000000,-13.3606,-38.104591
1227000000,-13.357895,-38.106136
1228000000,-13.336719,-37.767662
1229000000,-13.316751,-37.631023
1230000000,-13.303679,-37.32658
1231000000,-13.307913,-37.528641
1232000000,-13.317906,-37.026936
1233000000,-13.257287,-36.915058
1234000000,-13.314653,-36.766758
1235000000,-13.236687,-36.238728
1236000000,-13.274098,-36.173962
1237000000,-13.254512,-36.108059
1238000000,-13.219852,-35.795868
1239000000,-13.244883,-35.512428
1240000000,-13.231969,-35.62854
1241000000,-13.225069,-35.194111
1242000000,-13.218558,-35.068062
1243000000,-13.185192,-34.86002
1244000000,-13.204871,-34.597733
1245000000,-13.170102,-34.414711
1246000000,-13.138368,-34.291344
1247000000,-13.148025,-34.125446
1248000000,-13.120962,-33.968433
1249000000,-13.090041,-33.573277
1250000000,-13.10624,-33.442543
1251000000,-13.060216,-33.477459
1252000000,-13.058765,-33.19775
1253000000,-13.06129,-32.985538
1254000000,-13.062617,-32.877464
1255000000,-13.039901,-32.394474
1256000000,-12.975328,-32.229263
1257000000,-12.973048,-32.24622
1258000000,-12.945561,-32.161491
1259000000,-12.945105,-31.983553
1260000000,-12.957524,-31.555014
1261000000,-12.9534,-31.370783
1262000000,-12.919661,-31.586924
1263000000,-12.878374,-31.140326
1264000000,-12.849465,-30.891638
1265000000,-12.82036,-30.575705
1266000000,-12.823453,-30.391293
1267000000,-12.782069,-30.371338
1268000000,-12.759422,-30.259575
1269000000,-12.765507,-29.76008
1270000000,-12.798616,-29.798988
1271000000,-12.756492,-29.655682
1272000000,-12.7026,-29.506277
1273000000,-12.687256,-29.215031
1274000000,-12.646586,-29.274065
1275000000,-12.628422,-29.115786
1276000000,-12.660407,-28.934441
1277000000,-12.614886,-28.699154
1278000000,-12.552471,-28.383869
1279000000,-12.53691,-28.284475
1280000000,-12.5619,-28.344397
1281000000,-12.545825,-27.943304
1282000000,-12.517682,-27.627592
1283000000,-12.471165,-27.764502
1284000000,-12.452026,-27.555473
1285000000,-12.424767,-27.23333
1286000000,-12.404382,-27.318018
1287000000,-12.412266,-26.828978
1288000000,-12.35985,-26.787502
1289000000,-12.345002,-26.865646
1290000000,-12.321804,-26.569279
1291000000,-12.279791,-26.278854
1292000000,-12.262955,-26.457891
1293000000,-12.236973,-26.085018
1294000000,-12.229753,-26.1029
1295000000,-12.176965,-25.905256
1296000000,-12.16518,-25.726448
1297000000,-12.188716,-25.743919
1298000000,-12.121593,-25.636202
1299000000,-12.063371,-25.45306
1300000000,-12.048648,-25.134623
1301000000,-12.054391,-25.129032
1302000000,-11.979203,-25.117077
1303000000,-11.969314,-25.01598
1304000000,-11.957177,-24.680317
1305000000,-11.958455,-24.518288
1306000000,-11.88279,-24.297024
1307000000,-11.853616,-24.253408
1308000000,-11.867007,-24.002251
1309000000,-11.824492,-23.998589
1310000000,-11.791183,-24.217308
1311000000,-11.747728,-24.006334
1312000000,-11.725707,-23.670912
1313000000,-11.695194,-23.727163
1314000000,-11.679412,-23.665112
1315000000,-11.636686,-23.648726
1316000000,-11.605396,-23.346167
1317000000,-11.565326,-23.115303
1318000000,-11.539306,-23.061956
1319000000,-11.515044,-23.084106
1320000000,-11.501211,-22.892595
1321000000,-11.491121,-22.770346
1322000000,-11.42846,-22.673374
1323000000,-11.410428,-22.585459
1324000000,-11.365698,-22.311836
1325000000,-11.340504,-22.17482
1326000000,-11.318887,-22.377411
1327000000,-11.285987,-21.990103
1328000000,-11.245872,-22.182388
1329000000,-11.247006,-22.019619
1330000000,-11.183374,-21.844921
1331000000,-11.184174,-21.989445
1332000000,-11.134184,-21.661064
1333000000,-11.105938,-21.665415
1334000000,-11.080315,-21.546043
1335000000,-11.02634,-21.554314
1336000000,-11.011802,-21.674786
1337000000,-10.952545,-21.423269
1338000000,-10.932536,-21.400438
1339000000,-10.90209,-21.348341
1340000000,-10.882531,-21.222364
1341000000,-10.858699,-20.963127
1342000000,-10.800136,-20.905415
1343000000,-10.80492,-20.939707
1344000000,-10.778151,-20.912186
1345000000,-10.728951,-20.934702
1346000000,-10.693582,-20.846399
1347000000,-10.692806,-20.711489
1348000000,-10.625015,-20.641058
1349000000,-10.601726,-20.828987
1350000000,-10.579341,-20.633265
1351000000,-10.511423,-20.413109
1352000000,-10.520178,-20.531601
1353000000,-10.471965,-20.431791
1354000000,-10.425994,-20.330008
1355000000,-10.445322,-20.106026
1356000000,-10.3904,-20.395031
1357000000,-10.341904,-20.330318
1358000000,-10.297951,-20.126114
1359000000,-10.272294,-20.206785
1360000000,-10.229121,-20.218218
1361000000,-10.222631,-20.246
1362000000,-10.194771,-20.198856
1363000000,-10.156146,-20.143305
1364000000,-10.136705,-19.919453
1365000000,-10.094104,-19.90274
1366000000,-10.027069,-19.985098
1367000000,-10.01562,-19.867626
1368000000,-10.014337,-19.914839
1369000000,-9.9340582,-19.831573
1370000000,-9.9221201,-19.837261
1371000000,-9.910759,-19.573597
1372000000,-9.8391447,-19.905037
1373000000,-9.8411093,-19.874441
1374000000,-9.7867804,-19.781773
1375000000,-9.7773838,-19.707897
1376000000,-9.7376118,-19.627605
1377000000,-9.6943884,-19.837328
1378000000,-9.669138,-19.706144
1379000000,-9.652606,-19.653172
1380000000,-9.6404266,-19.67676
1381000000,-9.5893145,-19.702181
1382000000,-9.5326881,-19.689627
1383000000,-9.5195379,-19.596319
1384000000,-9.5015011,-19.577217
1385000000,-9.4570923,-19.61924
1386000000,-9.3807201,-19.683517
1387000000,-9.4004879,-19.544077
1388000000,-9.3834858,-19.583204
1389000000,-9.3284206,-19.44989
1390000000,-9.2938118,-19.771423
1391000000,-9.2635603,-19.636957
1392000000,-9.2415743,-19.496458
1393000000,-9.2138176,-19.616177
1394000000,-9.1729212,-19.747198
1395000000,-9.1315737,-19.510736
1396000000,-9.1129103,-19.857214
1397000000,-9.0830927,-19.689112
1398000000,-9.0416155,-19.846811
1399000000,-8.9997034,-19.733135
1400000000,-9.0083237,-19.843372
1401000000,-8.9560776,-19.908304
1402000000,-8.9375172,-19.638979
1403000000,-8.8821421,-19.838905
1404000000,-8.8604288,-19.805149
1405000000,-8.844573,-19.920881
1406000000,-8.7845898,-19.946127
1407000000,-8.7816067,-19.976694
1408000000,-8.7279053,-19.833506
1409000000,-8.6834879,-19.873684
1410000000,-8.6645002,-19.965334
1411000000,-8.6380701,-20.277834
1412000000,-8.6086798,-20.035032
1413000000,-8.5863571,-20.087379
1414000000,-8.5752344,-19.99161
1415000000,-8.5162268,-20.129145
1416000000,-8.4907236,-20.171732
1417000000,-8.4388609,-20.170225
1418000000,-8.4069338,-20.080074
1419000000,-8.3652668,-20.360506
1420000000,-8.3932238,-20.267109
1421000000,-8.3318424,-20.325684
1422000000,-8.3197165,-20.250895
1423000000,-8.2569389,-20.326979
1424000000,-8.2569265,-20.436583
1425000000,-8.2019806,-20.546804
1426000000,-8.1891031,-20.465294
1427000000,-8.1740751,-20.428888
1428000000,-8.0828257,-20.746384
1429000000,-8.077714,-20.71452
1430000000,-8.061595,-20.656656
1431000000,-8.0233383,-20.731432
1432000000,-8.0060959,-20.886312
1433000000,-7.981658,-20.788332
1434000000,-7.9390206,-21.009102
1435000000,-7.8936977,-21.060192
1436000000,-7.8842096,-21.112078
1437000000,-7.8734727,-21.284985
1438000000,-7.8193507,-21.15391
1439000000,-7.8182974,-21.187721
1440000000,-7.7717323,-21.180891
1441000000,-7.7563863,-21.374142
1442000000,-7.7389503,-21.297871
1443000000,-7.6923876,-21.50663
1444000000,-7.658102,-21.385017
1445000000,-7.6563969,-21.541712
1446000000,-7.6144776,-21.792881
1447000000,-7.561727,-21.715075
1448000000,-7.5387444,-21.640823
1449000000,-7.5187235,-21.850601
1450000000,-7.5045505,-21.837154
1451000000,-7.4519758,-21.993925
1452000000,-7.4313502,-21.992634
1453000000,-7.4401321,-22.120163
1454000000,-7.3949051,-22.255941
1455000000,-7.3604498,-22.270195
1456000000,-7.3355966,-22.357302
1457000000,-7.2938347,-22.207762
1458000000,-7.2633543,-22.432594
1459000000,-7.2565446,-22.537136
1460000000,-7.2067013,-22.353941
1461000000,-7.1861992,-22.891418
1462000000,-7.1642442,-22.822752
1463000000,-7.1509814,-22.866047
1464000000,-7.1285791,-22.833267
1465000000,-7.0656013,-23.171473
1466000000,-7.0784001,-23.261436
1467000000,-7.0403123,-23.075968
1468000000,-6.9835258,-23.252562
1469000000,-6.9458084,-23.527159
1470000000,-6.9583864,-23.55303
1471000000,-6.9220448,-23.594873
1472000000,-6.9114099,-23.560026
1473000000,-6.8787384,-23.898813
1474000000,-6.8181434,-23.807859
1475000000,-6.8333392,-24.084944
1476000000,-6.7779489,-23.898077
1477000000,-6.7805738,-23.958187
1478000000,-6.7731004,-24.04311
1479000000,-6.7536306,-24.268152
1480000000,-6.6795483,-24.381477
1481000000,-6.681725,-24.390457
1482000000,-6.6353602,-24.610825
1483000000,-6.6167083,-24.554432
1484000000,-6.602262,-24.765388
1485000000,-6.576396,-24.682981
1486000000,-6.5397453,-24.841505
1487000000,-6.5341949,-24.910494
1488000000,-6.4963479,-24.875252
1489000000,-6.4723644,-25.1199
1490000000,-6.4322243,-25.107996
1491000000,-6.4059968,-25.488949
1492000000,-6.4035354,-25.420435
1493000000,-6.3648925,-25.390781
1494000000,-6.336915,-25.747755
1495000000,-6.3334165,-25.760519
1496000000,-6.3069015,-25.902468
1497000000,-6.2849674,-25.982424
1498000000,-6.2408557,-25.935205
1499000000,-6.2223973,-26.176111
1500000000,-6.2204051,-26.259104
1501000000,-6.173718,-26.445108
1502000000,-6.1725597,-26.54257
1503000000,-6.0997715,-26.310232
1504000000,-6.0819001,-26.660482
1505000000,-6.0860653,-27.02787
1506000000,-6.0640836,-26.909838
1507000000,-6.0314045,-26.945963
1508000000,-6.0206623,-27.215027
1509000000,-5.9848475,-27.11521
1510000000,-5.9431324,-27.304159
1511000000,-5.9555402,-27.208452
1512000000,-5.9237547,-27.417089
1513000000,-5.9082541,-27.391514
1514000000,-5.8440747,-27.648249
1515000000,-5.841815,-27.818296
1516000000,-5.8339577,-27.938194
1517000000,-5.819994,-28.029036
1518000000,-5.7728724,-28.096708
1519000000,-5.7520733,-28.077654
1520000000,-5.7246904,-28.267668
1521000000,-5.727663,-28.470287
1522000000,-5.703227,-28.68516
1523000000,-5.6686487,-28.914141
1524000000,-5.6637855,-28.783316
1525000000,-5.6145263,-28.913485
1526000000,-5.6137218,-29.255571
1527000000,-5.5963087,-29.393066
1528000000,-5.599072,-29.247976
1529000000,-5.5606189,-29.415863
1530000000,-5.5420585,-29.5529
1531000000,-5.5165567,-29.488079
1532000000,-5.4804454,-29.657351
1533000000,-5.4739246,-29.884005
1534000000,-5.4432383,-29.96246
1535000000,-5.4344096,-30.16814
1536000000,-5.3954434,-30.359221
1537000000,-5.3821859,-30.369816
1538000000,-5.3596773,-30.48658
1539000000,-5.3494339,-30.676418
1540000000,-5.303545,-30.685486
1541000000,-5.308434,-30.877844
1542000000,-5.293128,-30.986431
1543000000,-5.2721853,-31.167656
1544000000,-5.246923,-31.173565
1545000000,-5.2347841,-31.300575
1546000000,-5.2010217,-31.419462
1547000000,-5.1935744,-31.676308
1548000000,-5.164917,-31.546688
1549000000,-5.1441097,-31.848824
1550000000,-5.1483846,-31.936302
1551000000,-5.0996447,-32.093563
1552000000,-5.0918956,-32.253395
1553000000,-5.0770278,-32.261646
1554000000,-5.0408077,-32.186123
1555000000,-5.0262032,-32.447468
1556000000,-4.9928813,-32.498745
1557000000,-5.001596,-32.813232
1558000000,-4.9998302,-32.88147
1559000000,-4.9491568,-32.998447
1560000000,-4.956532,-33.311779
1561000000,-4.9136147,-33.296833
1562000000,-4.8958292,-33.52755
1563000000,-4.8982038,-33.353046
1564000000,-4.8740988,-33.761574
1565000000,-4.8712721,-33.724979
1566000000,-4.8212724,-33.867947
1567000000,-4.8157854,-34.127151
1568000000,-4.8067365,-34.060238
1569000000,-4.8162041,-34.539059
1570000000,-4.7437406,-34.481125
1571000000,-4.7610793,-34.635811
1572000000,-4.7311344,-34.648262
1573000000,-4.72048,-34.916435
1574000000,-4.6860957,-34.709011
1575000000,-4.659358,-35.193085
1576000000,-4.6375036,-35.242306
1577000000,-4.6364322,-35.454674
1578000000,-4.6272879,-35.482876
1579000000,-4.6139288,-35.806038
1580000000,-4.600606,-35.706867
1581000000,-4.5805144,-35.927181
1582000000,-4.5840406,-35.945892
1583000000,-4.5436254,-36.100098
1584000000,-4.5625219,-36.471802
1585000000,-4.5098939,-36.404892
1586000000,-4.5282202,-36.772816
1587000000,-4.4794116,-36.710236
1588000000,-4.4865131,-36.673168
1589000000,-4.4663296,-37.050766
1590000000,-4.4379458,-37.067375
1591000000,-4.4205217,-37.326969
1592000000,-4.4276528,-37.36478
1593000000,-4.3652186,-37.383453
1594000000,-4.3716216,-37.551929
1595000000,-4.3671737,-37.787231
1596000000,-4.3426094,-37.822884
1597000000,-4.3423924,-38.015884
1598000000,-4.3122649,-38.067375
1599000000,-4.3016734,-38.31789
1600000000,-4.2628188,-38.348846
1601000000,-4.256207,-38.556118
1602000000,-4.2499094,-38.728806
1603000000,-4.2418523,-38.795887
1604000000,-4.2382412,-39.061722
1605000000,-4.2096963,-39.036964
1606000000,-4.1924839,-39.152473
1607000000,-4.2063375,-39.502857
1608000000,-4.1662478,-39.519466
1609000000,-4.1541867,-39.746407
1610000000,-4.1428218,-39.935574
1611000000,-4.1309824,-39.92519
1612000000,-4.1247587,-40.165955
1613000000,-4.0883355,-40.124763
1614000000,-4.1157889,-40.26054
1615000000,-4.0666919,-40.222298
1616000000,-4.0775862,-40.501827
1617000000,-4.0556002,-40.713089
1618000000,-4.0540934,-40.85577
1619000000,-4.0165672,-41.144104
1620000000,-4.0036578,-41.341503
1621000000,-3.98401,-41.222546
1622000000,-3.9709826,-41.440857
1623000000,-3.9764085,-41.539856
1624000000,-3.946049,-41.718292
1625000000,-3.9478648,-41.867336
1626000000,-3.9457166,-41.971382
1627000000,-3.9271736,-41.959644
1628000000,-3.9235547,-42.131874
1629000000,-3.9101031,-42.515003
1630000000,-3.8636034,-42.577698
1631000000,-3.8829613,-42.608311
1632000000,-3.8533533,-42.799194
1633000000,-3.8204536,-42.93269
1634000000,-3.8502264,-43.016048
1635000000,-3.8392608,-43.16444
1636000000,-3.7867124,-43.48238
1637000000,-3.77544,-43.3535
1638000000,-3.7616181,-43.704002
1639000000,-3.7517483,-43.921528
1640000000,-3.7635605,-43.854946
1641000000,-3.7623386,-43.998695
1642000000,-3.7386897,-44.186371
1643000000,-3.7150364,-44.335915
1644000000,-3.7140026,-44.520405
1645000000,-3.7181263,-44.446495
1646000000,-3.7159457,-44.931221
1647000000,-3.653223,-44.882847
1648000000,-3.6630719,-44.90823
1649000000,-3.6687613,-45.128967
1650000000,-3.6169698,-45.188549
1651000000,-3.6330512,-45.4375
1652000000,-3.6288536,-45.614822
1653000000,-3.6165805,-45.83215
1654000000,-3.5830319,-45.777412
1655000000,-3.595742,-45.940315
1656000000,-3.5897622,-46.044708
1657000000,-3.5831373,-46.165504
1658000000,-3.5621941,-46.228649
1659000000,-3.5464077,-46.55357
1660000000,-3.5490947,-46.85804
1661000000,-3.5393989,-46.770893
1662000000,-3.5387676,-46.964615
1663000000,-3.5098681,-46.949169
1664000000,-3.4816773,-47.255985
1665000000,-3.4727535,-47.298325
1666000000,-3.45399,-47.41996
1667000000,-3.4589689,-47.697994
1668000000,-3.4773233,-47.802933
1669000000,-3.4508543,-47.956371
1670000000,-3.4577277,-48.274136
1671000000,-3.4386277,-48.295208
1672000000,-3.4325938,-48.40609
1673000000,-3.4008222,-48.645027
1674000000,-3.3945041,-48.732975
1675000000,-3.3890455,-48.862274
1676000000,-3.4050736,-48.971592
1677000000,-3.3825974,-49.007133
1678000000,-3.3685603,-49.19751
1679000000,-3.3731008,-49.318169
1680000000,-3.3684068,-49.431393
1681000000,-3.3648803,-49.482304
1682000000,-3.3388009,-49.674713
1683000000,-3.3190842,-50.018517
1684000000,-3.3141971,-50.024361
1685000000,-3.3295209,-50.008564
1686000000,-3.3066027,-50.166794
1687000000,-3.2828803,-50.317116
1688000000,-3.2917478,-50.607452
1689000000,-3.2989757,-50.662037
1690000000,-3.2702556,-50.800056
1691000000,-3.2496843,-50.831547
1692000000,-3.2547181,-51.139324
1693000000,-3.2416692,-51.275497
1694000000,-3.2366512,-51.648006
1695000000,-3.2222934,-51.52309
1696000000,-3.1975341,-51.85767
1697000000,-3.2357275,-51.839443
1698000000,-3.1964092,-52.016788
1699000000,-3.1594605,-52.110401
1700000000,-3.2034175,-52.24514
1701000000,-3.1780827,-52.297195
1702000000,-3.1838245,-52.699413
1703000000,-3.1583295,-52.638607
1704000000,-3.159487,-52.550941
1705000000,-3.1705086,-52.769669
1706000000,-3.1141188,-52.980282
1707000000,-3.1346364,-53.325596
1708000000,-3.1300998,-53.329357
1709000000,-3.1200216,-53.535896
1710000000,-3.1047156,-53.660301
1711000000,-3.1090636,-53.629814
1712000000,-3.0986419,-53.839767
1713000000,-3.0966954,-54.112827
1714000000,-3.096483,-54.236835
1715000000,-3.0835946,-54.442616
1716000000,-3.0950177,-54.471443
1717000000,-3.0641954,-54.511452
1718000000,-3.0654566,-54.61985
1719000000,-3.0527937,-54.802387
1720000000,-3.0440493,-54.856354
1721000000,-3.0511029,-54.988167
1722000000,-3.0458384,-55.246807
1723000000,-3.0326908,-55.216682
1724000000,-3.009428,-55.482067
1725000000,-3.0022368,-55.523945
1726000000,-3.0042307,-55.871933
1727000000,-3.0108912,-55.727154
1728000000,-2.9980841,-55.777252
1729000000,-2.9965351,-56.201351
1730000000,-2.9834394,-56.285954
1731000000,-2.9501143,-56.340572
1732000000,-2.9740822,-56.655045
1733000000,-2.958931,-56.708195
1734000000,-2.9624646,-56.871876
1735000000,-2.9721799,-56.825962
1736000000,-2.9400966,-57.046623
1737000000,-2.9703445,-57.162956
1738000000,-2.9287186,-57.429794
1739000000,-2.9250071,-57.53157
1740000000,-2.9503744,-57.729
1741000000,-2.9389815,-57.834923
1742000000,-2.9256201,-57.89706
1743000000,-2.9102342,-58.04818
1744000000,-2.9058728,-58.109482
1745000000,-2.8893161,-58.292645
1746000000,-2.8929372,-58.478024
1747000000,-2.9061244,-58.702251
1748000000,-2.8906147,-58.660812
1749000000,-2.8833003,-58.614498
1750000000,-2.8717847,-58.945454
1751000000,-2.8667479,-59.111519
1752000000,-2.8743312,-59.141838
1753000000,-2.863436,-59.396652
1754000000,-2.8446066,-59.562107
1755000000,-2.8434637,-59.639935
1756000000,-2.8405306,-59.777523
1757000000,-2.8429415,-60.083202
1758000000,-2.8300469,-60.048271
1759000000,-2.8443577,-60.198536
1760000000,-2.8259339,-60.274998
1761000000,-2.8204713,-60.388702
1762000000,-2.828512,-60.523113
1763000000,-2.8215928,-60.627583
1764000000,-2.808275,-60.808716
1765000000,-2.7973943,-61.035145
1766000000,-2.8098061,-61.0187
1767000000,-2.8178461,-61.215496
1768000000,-2.7858503,-61.289684
1769000000,-2.7748082,-61.391941
1770000000,-2.7754946,-61.451027
1771000000,-2.797781,-61.79406
1772000000,-2.7465913,-61.760216
1773000000,-2.7381527,-61.851933
1774000000,-2.7588406,-62.071426
1775000000,-2.749917,-62.103992
1776000000,-2.7588212,-62.443092
1777000000,-2.7457716,-62.522625
1778000000,-2.7526002,-62.720882
1779000000,-2.7539616,-62.659561
1780000000,-2.7442176,-62.920197
1781000000,-2.7335811,-62.918324
1782000000,-2.76513,-63.229454
1783000000,-2.7058179,-63.322922
1784000000,-2.7360802,-63.365074
1785000000,-2.7207975,-63.319466
1786000000,-2.7160835,-63.736103
1787000000,-2.7029958,-63.888988
1788000000,-2.7201023,-63.796326
1789000000,-2.6988366,-64.068298
1790000000,-2.7059669,-64.353188
1791000000,-2.6956952,-64.411224
1792000000,-2.6784403,-64.581551
1793000000,-2.6989396,-64.550903
1794000000,-2.6628032,-64.541801
1795000000,-2.6858752,-64.850685
1796000000,-2.6896439,-64.925072
1797000000,-2.685143,-65.096291
1798000000,-2.6834867,-65.240501
1799000000,-2.6805301,-65.419548
1800000000,-2.6443503,-65.311691
1801000000,-2.6681175,-65.469849
1802000000,-2.6800101,-65.761024
1803000000,-2.6696846,-65.846992
1804000000,-2.6505604,-66.095177
1805000000,-2.668788,-66.121902
1806000000,-2.6447854,-66.243797
1807000000,-2.6555004,-66.335548
1808000000,-2.6555018,-66.448555
1809000000,-2.6669035,-66.723541
1810000000,-2.644084,-66.749359
1811000000,-2.6268003,-66.910042
1812000000,-2.6320095,-66.963844
1813000000,-2.6597068,-66.987434
1814000000,-2.6370552,-67.306274
1815000000,-2.6212838,-67.39682
1816000000,-2.645402,-67.417175
1817000000,-2.6426544,-67.651558
1818000000,-2.6154561,-67.698769
1819000000,-2.6677816,-67.811813
1820000000,-2.6217747,-67.934204
1821000000,-2.6098139,-67.864021
1822000000,-2.6129515,-68.194122
1823000000,-2.6101055,-68.42585
1824000000,-2.5990598,-68.266815
1825000000,-2.61325,-68.572075
1826000000,-2.6121137,-68.728859
1827000000,-2.6008506,-68.758553
1828000000,-2.5892427,-69.002434
1829000000,-2.6097953,-69.111473
1830000000,-2.6000316,-69.198074
1831000000,-2.5975325,-69.119125
1832000000,-2.6179078,-69.300491
1833000000,-2.6167605,-69.513199
1834000000,-2.6079333,-69.710983
1835000000,-2.5536809,-69.773354
1836000000,-2.6000805,-69.936722
1837000000,-2.5972145,-69.952263
1838000000,-2.5691726,-70.250351
1839000000,-2.5866137,-70.161766
1840000000,-2.5939219,-70.39399
1841000000,-2.5845823,-70.395035
1842000000,-2.5758851,-70.640518
1843000000,-2.5648844,-70.673561
1844000000,-2.5982995,-70.719872
1845000000,-2.5753882,-70.891823
1846000000,-2.5639517,-71.123436
1847000000,-2.5939474,-71.329262
1848000000,-2.5782032,-71.489929
1849000000,-2.5538476,-71.416565
1850000000,-2.5893884,-71.603958
1851000000,-2.5687611,-71.587616
1852000000,-2.5824111,-71.644485
1853000000,-2.5706396,-71.884071
1854000000,-2.6040757,-72.101997
1855000000,-2.560015,-72.121315
1856000000,-2.5874984,-72.267303
1857000000,-2.5260589,-72.385643
1858000000,-2.5572915,-72.502312
1859000000,-2.5476642,-72.761276
1860000000,-2.5745671,-72.872917
1861000000,-2.5852165,-73.04583
1862000000,-2.5385594,-72.945435
1863000000,-2.5405514,-73.021454
1864000000,-2.5162799,-72.860695
1865000000,-2.5552316,-73.307953
1866000000,-2.5492232,-73.439308
1867000000,-2.562566,-73.431221
1868000000,-2.5707946,-73.638672
1869000000,-2.5549979,-73.605225
1870000000,-2.5592306,-73.942505
1871000000,-2.5349917,-73.989098
1872000000,-2.5215421,-74.193634
1873000000,-2.528635,-74.276054
1874000000,-2.5390177,-74.353142
1875000000,-2.5529749,-74.415581
1876000000,-2.5223041,-74.489525
1877000000,-2.5378449,-74.68634
1878000000,-2.5373526,-74.934639
1879000000,-2.5300488,-75.094681
1880000000,-2.5390635,-75.116119
1881000000,-2.5235026,-74.890572
1882000000,-2.5399196,-75.330803
1883000000,-2.5309021,-75.323601
1884000000,-2.5303142,-75.372215
1885000000,-2.5001957,-75.585907
1886000000,-2.5452657,-75.84922
1887000000,-2.5238788,-75.806419
1888000000,-2.5228128,-75.952751
1889000000,-2.5466866,-76.072151
1890000000,-2.5112798,-76.175606
1891000000,-2.5079439,-76.289085
1892000000,-2.5354395,-76.552498
1893000000,-2.5314996,-76.50473
1894000000,-2.5220091,-76.66909
1895000000,-2.5437157,-76.804726
1896000000,-2.5250673,-77.002335
1897000000,-2.5181346,-76.815208
1898000000,-2.5358193,-77.164101
1899000000,-2.5684104,-77.179855
1900000000,-2.510499,-77.244545
1901000000,-2.5232668,-77.334763
1902000000,-2.5072172,-77.306259
1903000000,-2.5021727,-77.556
1904000000,-2.5434947,-77.8153
1905000000,-2.5315278,-77.864052
1906000000,-2.5247569,-77.928726
1907000000,-2.5422468,-78.145576
1908000000,-2.5166728,-78.185059
1909000000,-2.4971514,-78.285561
1910000000,-2.5223067,-78.397736
1911000000,-2.4998636,-78.563133
1912000000,-2.528028,-78.662422
1913000000,-2.5145292,-78.783051
1914000000,-2.5443676,-78.972534
1915000000,-2.5201039,-78.679832
1916000000,-2.5132802,-78.982513
1917000000,-2.5083814,-79.125099
1918000000,-2.5380101,-79.176941
1919000000,-2.5187287,-79.485291
1920000000,-2.5230546,-79.32975
1921000000,-2.5361414,-79.548767
1922000000,-2.513077,-79.779732
1923000000,-2.5194502,-79.762733
1924000000,-2.5178905,-79.698418
1925000000,-2.5225112,-79.898727
1926000000,-2.5113688,-80.165619
1927000000,-2.4996626,-80.265594
1928000000,-2.5154216,-80.282425
1929000000,-2.518837,-80.521454
1930000000,-2.5066094,-80.634514
1931000000,-2.5009243,-80.380562
1932000000,-2.5410709,-80.698631
1933000000,-2.5277915,-80.561508
1934000000,-2.5293503,-80.921066
1935000000,-2.5178051,-80.984581
1936000000,-2.5176258,-81.327637
1937000000,-2.4998629,-81.198151
1938000000,-2.5426431,-81.480858
1939000000,-2.5105126,-81.611862
1940000000,-2.5298362,-81.650253
1941000000,-2.5286665,-81.655235
1942000000,-2.5257423,-81.860924
1943000000,-2.5009232,-82.001427
1944000000,-2.5122616,-81.956589
1945000000,-2.4974799,-82.208908
1946000000,-2.4971678,-82.344383
1947000000,-2.4993303,-82.604851
1948000000,-2.5245285,-82.393311
1949000000,-2.5359163,-82.624168
1950000000,-2.4854531,-82.769814
1951000000,-2.5255706,-82.77079
1952000000,-2.526412,-82.864441
1953000000,-2.5375698,-82.974815
1954000000,-2.5243902,-83.259598
1955000000,-2.5018277,-83.074738
1956000000,-2.5206428,-83.253159
1957000000,-2.5129085,-83.516731
1958000000,-2.5342505,-83.481514
1959000000,-2.5213928,-83.430115
1960000000,-2.5277083,-83.647842
1961000000,-2.5201941,-83.853264
1962000000,-2.502537,-84.038109
1963000000,-2.5446007,-84.118225
1964000000,-2.5228093,-84.199112
1965000000,-2.5521545,-84.337555
1966000000,-2.5180564,-84.311676
1967000000,-2.5184579,-84.605377
1968000000,-2.5281634,-84.64637
1969000000,-2.481216,-84.857758
1970000000,-2.5340598,-84.755432
1971000000,-2.5243454,-84.859642
1972000000,-2.5199716,-84.992188
1973000000,-2.5262923,-85.056717
1974000000,-2.5257607,-85.457207
1975000000,-2.5334804,-85.174362
1976000000,-2.5228989,-85.611832
1977000000,-2.5317659,-85.319084
1978000000,-2.5202787,-85.663147
1979000000,-2.5384302,-85.594955
1980000000,-2.5112438,-85.734192
1981000000,-2.549823,-85.786423
1982000000,-2.5369184,-85.810867
1983000000,-2.5432653,-86.01841
1984000000,-2.5301075,-86.184654
1985000000,-2.5569398,-86.209175
1986000000,-2.5353463,-86.567345
1987000000,-2.5259557,-86.425591
1988000000,-2.5206382,-86.590111
1989000000,-2.548389,-86.694145
1990000000,-2.5566328,-86.680664
1991000000,-2.5398138,-87.043808
1992000000,-2.5594354,-87.009575
1993000000,-2.5662992,-87.089882
1994000000,-2.545022,-87.187477
1995000000,-2.5501199,-87.326546
1996000000,-2.5576744,-87.47316
1997000000,-2.5591078,-87.474655
1998000000,-2.5677669,-87.636063
1999000000,-2.5553241,-87.852119
2000000000,-2.5447958,-87.803619
2001000000,-2.558326,-87.862625
2002000000,-2.5501454,-87.766029
2003000000,-2.5838115,-88.019188
2004000000,-2.5660305,-88.093407
2005000000,-2.5417802,-88.332451
2006000000,-2.5414765,-88.320763
2007000000,-2.5622921,-88.332222
2008000000,-2.5553703,-88.538536
2009000000,-2.5606818,-88.539886
2010000000,-2.5313177,-88.810524
2011000000,-2.5554111,-88.72438
2012000000,-2.5783319,-88.731659
2013000000,-2.5756316,-88.852631
2014000000,-2.5377846,-89.131973
2015000000,-2.5862272,-89.097679
2016000000,-2.5635884,-89.222023
2017000000,-2.5392272,-89.345474
2018000000,-2.5311475,-89.408966
2019000000,-2.5702279,-89.440811
2020000000,-2.5736885,-89.689766
2021000000,-2.6003716,-89.715019
2022000000,-2.5939968,-89.794777
2023000000,-2.5921748,-89.999626
2024000000,-2.583163,-90.067833
2025000000,-2.5682526,-90.399651
2026000000,-2.5768664,-90.214928
2027000000,-2.5596886,-90.494453
2028000000,-2.5997884,-90.46064
2029000000,-2.5915484,-90.357018
2030000000,-2.555012,-90.592079
2031000000,-2.5820944,-90.754715
2032000000,-2.6002862,-90.943184
2033000000,-2.577487,-91.069077
2034000000,-2.6007802,-90.859665
2035000000,-2.5810683,-91.093643
2036000000,-2.6045659,-91.350891
2037000000,-2.6058249,-91.432129
2038000000,-2.5676198,-91.199173
2039000000,-2.5664201,-91.323647
2040000000,-2.604037,-91.492935
2041000000,-2.5910389,-91.680199
2042000000,-2.5895419,-91.80822
2043000000,-2.6047151,-91.927261
2044000000,-2.6131415,-92.016884
2045000000,-2.5982287,-91.99231
2046000000,-2.5785053,-92.019096
2047000000,-2.5796485,-92.141571
2048000000,-2.587986,-92.268044
2049000000,-2.6222134,-92.54303
2050000000,-2.6309555,-92.569145
2051000000,-2.6043108,-92.733459
2052000000,-2.5911448,-92.681007
2053000000,-2.5818527,-92.650383
2054000000,-2.6058331,-93.088058
2055000000,-2.574522,-93.024681
2056000000,-2.6017313,-93.037285
2057000000,-2.6266534,-93.182411
2058000000,-2.6105728,-93.295456
2059000000,-2.5890136,-93.36969
2060000000,-2.5964966,-93.446663
2061000000,-2.6178615,-93.592613
2062000000,-2.6206174,-93.521263
2063000000,-2.6403763,-93.644424
2064000000,-2.6123691,-93.856056
2065000000,-2.6417058,-93.939926
2066000000,-2.6231806,-94.058701
2067000000,-2.6197312,-94.085075
2068000000,-2.6117258,-94.461716
2069000000,-2.6230495,-94.23349
2070000000,-2.6186709,-94.482742
2071000000,-2.6553314,-94.38018
2072000000,-2.6133873,-94.393311
2073000000,-2.6256673,-94.660873
2074000000,-2.6178606,-94.446945
2075000000,-2.6567218,-94.854843
2076000000,-2.6141613,-94.952621
2077000000,-2.6555204,-94.950165
2078000000,-2.636586,-95.037369
2079000000,-2.6632586,-95.055496
2080000000,-2.6613591,-95.291451
2081000000,-2.6486728,-95.303619
2082000000,-2.6448801,-95.334473
2083000000,-2.6458735,-95.556412
2084000000,-2.6480012,-95.565414
2085000000,-2.6318431,-95.820236
2086000000,-2.6381285,-95.715271
2087000000,-2.6253085,-96.152313
2088000000,-2.6545069,-96.02494
2089000000,-2.682523,-96.065598
2090000000,-2.6501284,-96.197624
2091000000,-2.6614802,-96.341057
2092000000,-2.661644,-96.288605
2093000000,-2.6791584,-96.340034
2094000000,-2.6472993,-96.603722
2095000000,-2.663295,-96.525841
2096000000,-2.6182494,-96.6241
2097000000,-2.6488757,-96.781456
2098000000,-2.6374176,-96.80954
2099000000,-2.6330318,-96.973953
2100000000,-2.662909,-97.091934
2101000000,-2.6591527,-97.114021
2102000000,-2.6676285,-97.072609
2103000000,-2.6519077,-97.380493
2104000000,-2.6623635,-97.382118
2105000000,-2.6826267,-97.413956
2106000000,-2.6882296,-97.540176
2107000000,-2.6639686,-97.627174
2108000000,-2.656394,-97.884575
2109000000,-2.633249,-97.726364
2110000000,-2.6940103,-97.87191
2111000000,-2.6711724,-98.153656
2112000000,-2.6733391,-98.131691
2113000000,-2.6970019,-98.268402
2114000000,-2.6638501,-98.37999
2115000000,-2.6749001,-98.529457
2116000000,-2.703439,-98.307152
2117000000,-2.6914449,-98.416496
2118000000,-2.6787777,-98.479424
2119000000,-2.6943779,-98.640335
2120000000,-2.7015848,-98.778938
2121000000,-2.7242706,-98.67205
2122000000,-2.6864238,-98.704315
2123000000,-2.728622,-99.006073
2124000000,-2.6999714,-99.248634
2125000000,-2.7039621,-99.286446
2126000000,-2.67786,-99.468002
2127000000,-2.6891623,-99.35701
2128000000,-2.7349298,-99.389786
2129000000,-2.700583,-99.540398
2130000000,-2.7083228,-99.628937
2131000000,-2.6916878,-99.654083
2132000000,-2.7191691,-99.935959
2133000000,-2.6991532,-99.847183
2134000000,-2.7188494,-100.05871
2135000000,-2.7346306,-100.05621
2136000000,-2.7194197,-100.08257
2137000000,-2.6964171,-99.963936
2138000000,-2.7361686,-100.25109
2139000000,-2.7157562,-100.48624
2140000000,-2.7339969,-100.5965
2141000000,-2.7310996,-100.36469
2142000000,-2.7279882,-100.60304
2143000000,-2.7181427,-100.82494
2144000000,-2.7270019,-100.61761
2145000000,-2.7301905,-100.84566
2146000000,-2.7390144,-101.06334
2147000000,-2.7221792,-101.16436
2148000000,-2.7132313,-100.86131
2149000000,-2.762677,-101.16137
2150000000,-2.7212784,-101.41628
2151000000,-2.7286873,-101.56683
2152000000,-2.712867,-101.46065
2153000000,-2.7445474,-101.52248
2154000000,-2.756947,-101.80276
2155000000,-2.7430584,-101.85104
2156000000,-2.763901,-101.83992
2157000000,-2.7292926,-101.6737
2158000000,-2.72644,-101.88878
2159000000,-2.7541234,-101.85578
2160000000,-2.7592673,-102.13475
2161000000,-2.753835,-102.28562
2162000000,-2.7437901,-102.40429
2163000000,-2.7557404,-102.17669
2164000000,-2.7725904,-102.42869
2165000000,-2.7579508,-102.66783
2166000000,-2.7749398,-102.57009
2167000000,-2.7862041,-102.72695
2168000000,-2.7643514,-102.76096
2169000000,-2.7959101,-102.71886
2170000000,-2.7387455,-102.95084
2171000000,-2.7508903,-102.99509
2172000000,-2.7599101,-102.98691
2173000000,-2.7795041,-103.27644
2174000000,-2.7794311,-103.39061
2175000000,-2.7573569,-103.51458
2176000000,-2.794224,-103.5977
2177000000,-2.7974887,-103.48869
2178000000,-2.7470818,-103.49126
2179000000,-2.7678127,-103.72053
2180000000,-2.8009205,-103.60169
2181000000,-2.7769909,-103.88299
2182000000,-2.7900596,-103.9973
2183000000,-2.8050799,-103.97916
2184000000,-2.7830138,-103.88296
2185000000,-2.7792487,-103.97925
2186000000,-2.7913256,-104.27145
2187000000,-2.810323,-104.40663
2188000000,-2.8161116,-104.63371
2189000000,-2.7989516,-104.47107
2190000000,-2.7723262,-104.33462
2191000000,-2.78023,-104.67917
2192000000,-2.7875898,-104.58604
2193000000,-2.8041027,-104.9188
2194000000,-2.8095109,-104.81539
2195000000,-2.8043189,-104.81275
2196000000,-2.7894483,-105.098
2197000000,-2.8101125,-105.2673
2198000000,-2.7863905,-105.17014
2199000000,-2.7960474,-105.33055
2200000000,-2.8259625,-105.45118
2201000000,-2.7910945,-105.56463
2202000000,-2.806848,-105.61086
2203000000,-2.8018608,-105.54886
2204000000,-2.7799532,-105.90788
2205000000,-2.8165586,-105.65637
2206000000,-2.8454423,-105.6688
2207000000,-2.819365,-106.01798
2208000000,-2.7924764,-105.92551
2209000000,-2.8410354,-106.24126
2210000000,-2.8481095,-106.15562
2211000000,-2.8460381,-106.0417
2212000000,-2.8413403,-106.23772
2213000000,-2.8265531,-106.26089
2214000000,-2.8159745,-106.58883
2215000000,-2.8060124,-106.39749
2216000000,-2.8270004,-106.64826
2217000000,-2.795857,-106.81788
2218000000,-2.8349273,-106.89622
2219000000,-2.8341339,-106.86432
2220000000,-2.848954,-106.94468
2221000000,-2.8491924,-106.99503
2222000000,-2.8367009,-106.99875
2223000000,-2.8318095,-107.1356
2224000000,-2.8338618,-107.25739
2225000000,-2.8639071,-107.27052
2226000000,-2.849479,-107.51077
2227000000,-2.8751218,-107.44516
2228000000,-2.8197751,-107.59418
2229000000,-2.8380501,-107.64733
2230000000,-2.8484333,-107.82027
2231000000,-2.8479943,-108.15788
2232000000,-2.8772798,-107.84361
2233000000,-2.8643911,-108.02516
2234000000,-2.8720212,-107.9773
2235000000,-2.8507824,-108.17455
2236000000,-2.8456509,-108.03582
2237000000,-2.894062,-108.33145
2238000000,-2.8363724,-108.34493
2239000000,-2.8754911,-108.52406
2240000000,-2.8636584,-108.39495
2241000000,-2.8769696,-108.45592
2242000000,-2.8885112,-108.56468
2243000000,-2.8848031,-108.80457
2244000000,-2.8684099,-108.78458
2245000000,-2.8820095,-108.80674
2246000000,-2.8960049,-108.93752
2247000000,-2.8719938,-109.03909
2248000000,-2.8518567,-108.99407
2249000000,-2.8773937,-109.24722
2250000000,-2.8606248,-109.25217
2251000000,-2.8764758,-109.31555
2252000000,-2.8862019,-109.50051
2253000000,-2.8717151,-109.38045
2254000000,-2.8819458,-109.59017
2255000000,-2.904541,-109.61503
2256000000,-2.8819809,-109.62236
2257000000,-2.897362,-109.74747
2258000000,-2.9278309,-109.83664
2259000000,-2.8995442,-110.11619
2260000000,-2.8736563,-110.11901
2261000000,-2.9059582,-110.00879
2262000000,-2.9256024,-110.1365
2263000000,-2.9015238,-110.21024
2264000000,-2.9014668,-110.46982
2265000000,-2.9158871,-110.25513
2266000000,-2.8993309,-110.31306
2267000000,-2.9024882,-110.66823
2268000000,-2.8916481,-110.69576
2269000000,-2.9089475,-110.61603
2270000000,-2.9086883,-110.81806
2271000000,-2.9058425,-110.82333
2272000000,-2.9167159,-111.01033
2273000000,-2.9162076,-110.91517
2274000000,-2.9178078,-111.23196
2275000000,-2.9142442,-111.0946
2276000000,-2.9337025,-111.31498
2277000000,-2.9437404,-111.44146
2278000000,-2.9387305,-111.25661
2279000000,-2.912199,-111.41676
2280000000,-2.9163251,-111.59939
2281000000,-2.9211059,-111.61718
2282000000,-2.9219189,-111.61841
2283000000,-2.9348319,-111.56369
2284000000,-2.9180391,-111.75729
2285000000,-2.9473996,-112.17474
2286000000,-2.9282532,-112.12464
2287000000,-2.9349713,-112.33877
2288000000,-2.9197876,-112.16388
2289000000,-2.9523108,-111.99744
2290000000,-2.952523,-112.23669
2291000000,-2.9813101,-112.46146
2292000000,-2.9383132,-112.30632
2293000000,-2.9722879,-112.49501
2294000000,-2.9198065,-112.723
2295000000,-2.9632497,-112.56927
2296000000,-2.9310389,-112.97375
2297000000,-2.9435632,-112.81168
2298000000,-2.9460196,-113.01828
2299000000,-2.9200263,-113.01313
2300000000,-2.9058683,-113.10766
2301000000,-2.9467766,-113.08227
2302000000,-2.9321744,-113.17469
2303000000,-2.9589374,-113.23284
2304000000,-2.9640639,-113.21881
2305000000,-2.9490609,-113.21729
2306000000,-2.9549658,-113.54446
2307000000,-2.9738414,-113.6697
2308000000,-2.9406791,-113.6108
2309000000,-2.9466875,-113.54308
2310000000,-2.9727459,-113.66363
2311000000,-2.9720509,-113.69277
2312000000,-2.9860735,-114.00894
2313000000,-3.0071695,-114.05601
2314000000,-2.9705541,-114.06384
2315000000,-2.9675124,-114.08229
2316000000,-2.9851,-114.25453
2317000000,-2.9741454,-114.12262
2318000000,-2.9848166,-114.29775
2319000000,-2.9546275,-114.60137
2320000000,-2.9892471,-114.54237
2321000000,-2.9969037,-114.39283
2322000000,-2.9678178,-114.59882
2323000000,-2.957233,-114.73856
2324000000,-2.9724436,-114.86878
2325000000,-2.9969316,-114.98283
2326000000,-3.0125954,-114.79663
2327000000,-2.986953,-114.98901
2328000000,-3.0007079,-115.29366
2329000000,-2.9945674,-115.07755
2330000000,-3.0140162,-115.24776
2331000000,-2.9960854,-115.31213
2332000000,-2.9971256,-115.52376
2333000000,-3.0189543,-115.63674
2334000000,-2.9866908,-115.42664
2335000000,-2.9790905,-115.84976
2336000000,-2.969388,-115.69173
2337000000,-3.002342,-115.86362
2338000000,-3.0047598,-115.81602
2339000000,-3.0044272,-115.87727
2340000000,-2.9759359,-115.82075
2341000000,-2.9998593,-115.82429
2342000000,-2.9953208,-116.07613
2343000000,-3.0201242,-116.32207
2344000000,-3.0108335,-116.37174
2345000000,-2.985882,-115.97537
2346000000,-3.0576446,-116.54749
2347000000,-3.0249164,-116.42257
2348000000,-3.0062733,-116.54087
2349000000,-3.0014443,-116.50294
2350000000,-3.0107408,-116.60706
2351000000,-3.0409038,-116.89616
2352000000,-3.0141299,-116.90955
2353000000,-3.018754,-116.7458
2354000000,-3.0205274,-117.00195
2355000000,-3.0220795,-116.85516
2356000000,-3.0279031,-117.07175
2357000000,-3.0007563,-117.13929
2358000000,-3.0029056,-117.10538
2359000000,-3.0353322,-117.33859
2360000000,-3.0411482,-117.40538
2361000000,-3.0280306,-117.16977
2362000000,-3.0372427,-117.39093
2363000000,-3.0064936,-117.40464
2364000000,-3.0233696,-117.56032
2365000000,-3.0577362,-117.7938
2366000000,-3.0157263,-117.73923
2367000000,-3.0578244,-118.00674
2368000000,-2.9956188,-117.79272
2369000000,-3.0200284,-117.81615
2370000000,-3.056776,-118.01033
2371000000,-3.0367115,-117.92754
2372000000,-3.0745051,-118.38004
2373000000,-3.0289521,-118.32889
2374000000,-3.0512383,-118.424
2375000000,-3.0438676,-118.42599
2376000000,-3.0716023,-118.30892
2377000000,-3.0264122,-118.56178
2378000000,-3.0712681,-118.76884
2379000000,-3.0504923,-118.85345
2380000000,-3.0485735,-118.83542
2381000000,-3.0377049,-118.80876
2382000000,-3.0916657,-118.84895
2383000000,-3.0495427,-119.10117
2384000000,-3.0803158,-119.0435
2385000000,-3.0771637,-119.06152
2386000000,-3.0178132,-119.28217
2387000000,-3.0417514,-119.43785
2388000000,-3.0423791,-119.3245
2389000000,-3.0573964,-119.25671
2390000000,-3.0889261,-119.50137
2391000000,-3.0679333,-119.60469
2392000000,-3.0545382,-119.55469
2393000000,-3.0679736,-119.63044
2394000000,-3.059149,-119.78455
2395000000,-3.0676022,-119.77685
2396000000,-3.056881,-120.12154
2397000000,-3.0891292,-119.90108
2398000000,-3.0727479,-119.99163
2399000000,-3.0837488,-120.2365
2400000000,-3.0637331,-120.17327
2401000000,-3.0782521,-120.11002
2402000000,-3.0823927,-120.3257
2403000000,-3.0921097,-120.402
2404000000,-3.079545,-120.47788
2405000000,-3.0771675,-120.62337
2406000000,-3.0746272,-120.58082
2407000000,-3.093411,-120.68266
2408000000,-3.07446,-120.69129
2409000000,-3.102958,-120.69508
2410000000,-3.0651648,-120.86633
2411000000,-3.0608175,-120.91242
2412000000,-3.1038067,-121.00465
2413000000,-3.077476,-121.20206
2414000000,-3.0868587,-121.07755
2415000000,-3.1073596,-121.2687
2416000000,-3.1076791,-121.3929
2417000000,-3.1034322,-121.2887
2418000000,-3.0729203,-121.43657
2419000000,-3.0888665,-121.53983
2420000000,-3.0916736,-121.51217
2421000000,-3.0787761,-121.62827
2422000000,-3.0946221,-121.93056
2423000000,-3.1063728,-121.67732
2424000000,-3.113585,-122.00101
2425000000,-3.1188719,-122.00883
2426000000,-3.1217263,-121.85328
2427000000,-3.0845721,-122.04852
2428000000,-3.0699718,-122.05671
2429000000,-3.0832145,-121.96476
2430000000,-3.1104782,-122.2093
2431000000,-3.1138082,-122.24438
2432000000,-3.0720048,-122.38043
2433000000,-3.0863671,-122.30299
2434000000,-3.0748334,-122.38668
2435000000,-3.1192067,-122.69451
2436000000,-3.1255245,-122.47369
2437000000,-3.0819345,-122.80791
2438000000,-3.0641806,-122.85617
2439000000,-3.1101766,-122.74264
2440000000,-3.1332228,-123.04549
2441000000,-3.0886812,-123.05109
2442000000,-3.1256349,-122.90637
2443000000,-3.1214862,-123.07374
2444000000,-3.0965788,-123.34599
2445000000,-3.0991862,-123.37498
2446000000,-3.1148243,-123.33322
2447000000,-3.1455624,-123.4659
2448000000,-3.124413,-123.77204
2449000000,-3.1391997,-123.48763
2450000000,-3.1077285,-123.734
2451000000,-3.1221883,-123.4366
2452000000,-3.1120837,-123.90209
2453000000,-3.1103506,-123.79803
2454000000,-3.1222978,-123.95483
2455000000,-3.1478083,-123.97519
2456000000,-3.1277497,-123.95547
2457000000,-3.1182845,-124.0951
2458000000,-3.1285846,-124.07535
2459000000,-3.155859,-124.17221
2460000000,-3.1006758,-124.33414
2461000000,-3.1305187,-124.51859
2462000000,-3.1325216,-124.30518
2463000000,-3.1303229,-124.53948
2464000000,-3.1292105,-124.63863
2465000000,-3.1108046,-124.754
2466000000,-3.1042466,-124.89034
2467000000,-3.1498904,-124.6202
2468000000,-3.0932734,-124.73759
2469000000,-3.1390557,-125.04144
2470000000,-3.1184578,-124.90008
2471000000,-3.1449177,-125.12497
2472000000,-3.1466141,-125.41273
2473000000,-3.106137,-125.43824
2474000000,-3.1467412,-125.31548
2475000000,-3.1316693,-125.48775
2476000000,-3.1780579,-125.6876
2477000000,-3.1517007,-125.37891
2478000000,-3.1165125,-125.51591
2479000000,-3.1571608,-125.64479
2480000000,-3.1525507,-125.83282
2481000000,-3.1628413,-125.76669
2482000000,-3.147908,-125.67939
2483000000,-3.1325846,-125.97285
2484000000,-3.1568363,-125.92471
2485000000,-3.1330833,-126
2486000000,-3.1737802,-125.98447
2487000000,-3.1848342,-126.05841
2488000000,-3.1712816,-126.31078
2489000000,-3.1190138,-126.63136
2490000000,-3.1435657,-126.37645
2491000000,-3.1375077,-126.58541
2492000000,-3.1460087,-126.61588
2493000000,-3.1520586,-126.47687
2494000000,-3.1701272,-126.65813
2495000000,-3.1357789,-126.80141
2496000000,-3.1679437,-126.99816
2497000000,-3.1785579,-126.90567
2498000000,-3.1549275,-126.76804
2499000000,-3.1498139,-127.05801
2500000000,-3.1827939,-127.14396
2501000000,-3.1682949,-127.1834
2502000000,-3.1496973,-127.20143
2503000000,-3.1817267,-127.30988
2504000000,-3.1463516,-127.24336
2505000000,-3.1609318,-127.30205
2506000000,-3.168462,-127.53323
2507000000,-3.1522822,-127.53831
2508000000,-3.1698902,-127.43993
2509000000,-3.1755443,-127.65974
2510000000,-3.1782637,-127.52571
2511000000,-3.1813016,-127.68088
2512000000,-3.1943209,-127.88667
2513000000,-3.1484931,-127.64204
2514000000,-3.1485343,-128.03473
2515000000,-3.1842666,-128.05365
2516000000,-3.1502802,-128.06924
2517000000,-3.1297076,-128.26483
2518000000,-3.1925051,-128.11493
2519000000,-3.1504936,-128.42033
2520000000,-3.1782727,-128.33722
2521000000,-3.1487927,-128.49611
2522000000,-3.1957164,-128.74446
2523000000,-3.1796925,-128.3159
2524000000,-3.1843328,-128.57468
2525000000,-3.1558964,-128.40372
2526000000,-3.1916969,-128.74782
2527000000,-3.1863167,-128.82347
2528000000,-3.169637,-129.0392
2529000000,-3.1856706,-128.99281
2530000000,-3.1854722,-129.06635
2531000000,-3.1925881,-129.31534
2532000000,-3.176306,-129.1671
2533000000,-3.1996851,-129.12596
2534000000,-3.1985555,-129.48773
2535000000,-3.1804211,-129.62729
2536000000,-3.1655207,-129.37566
2537000000,-3.1901612,-129.54752
2538000000,-3.1869519,-129.6756
2539000000,-3.2022882,-129.60318
2540000000,-3.162781,-129.56923
2541000000,-3.1730521,-129.88089
2542000000,-3.1965191,-129.90845
2543000000,-3.1966364,-129.93401
2544000000,-3.1757395,-130.03798
2545000000,-3.1733215,-130.05286
2546000000,-3.183223,-130.04599
2547000000,-3.1898046,-130.19327
2548000000,-3.1777694,-130.23846
2549000000,-3.1917071,-130.38786
2550000000,-3.1665382,-130.19342
2551000000,-3.1701827,-130.45695
2552000000,-3.1943183,-130.57425
2553000000,-3.1767097,-130.39792
2554000000,-3.1719644,-130.82982
2555000000,-3.1628561,-130.64194
2556000000,-3.1763399,-130.82516
2557000000,-3.1948066,-130.77338
2558000000,-3.2297716,-130.96719
2559000000,-3.1815546,-131.0061
2560000000,-3.1659129,-131.09151
2561000000,-3.1884351,-130.99707
2562000000,-3.1891589,-131.14555
2563000000,-3.1709948,-131.49275
2564000000,-3.2231028,-131.27266
2565000000,-3.205956,-131.33348
2566000000,-3.2050841,-131.43898
2567000000,-3.2110944,-131.66405
2568000000,-3.171118,-131.63823
2569000000,-3.1922433,-131.79761
2570000000,-3.1838648,-131.89647
2571000000,-3.183136,-131.85025
2572000000,-3.2243209,-131.8932
2573000000,-3.1923103,-131.92551
2574000000,-3.1892104,-131.9613
2575000000,-3.1914694,-131.84477
2576000000,-3.1693268,-132.27542
2577000000,-3.2367074,-132.14127
2578000000,-3.2006278,-132.10712
2579000000,-3.1795206,-132.43925
2580000000,-3.1965148,-132.4182
2581000000,-3.2189617,-132.57692
2582000000,-3.2149353,-132.4601
2583000000,-3.188302,-132.44324
2584000000,-3.1730084,-132.71448
2585000000,-3.1916184,-132.63661
2586000000,-3.1854272,-132.67775
2587000000,-3.1682699,-132.62633
2588000000,-3.2034853,-133.06815
2589000000,-3.2067909,-132.94246
2590000000,-3.222281,-133.04968
2591000000,-3.1929021,-133.22246
2592000000,-3.1996567,-133.20178
2593000000,-3.1878135,-133.10443
2594000000,-3.2332036,-133.19809
2595000000,-3.1993878,-133.32521
2596000000,-3.1675181,-133.35703
2597000000,-3.1784165,-133.61328
2598000000,-3.161063,-133.68973
2599000000,-3.2195444,-133.86691
2600000000,-3.1826913,-133.72327
2601000000,-3.1992586,-133.838
2602000000,-3.1933091,-133.94072
2603000000,-3.2006683,-133.8831
2604000000,-3.1936018,-133.85243
2605000000,-3.2070143,-134.12462
2606000000,-3.1862478,-134.20081
2607000000,-3.2099354,-134.05634
2608000000,-3.1913223,-134.23495
2609000000,-3.2174034,-134.19606
2610000000,-3.1804893,-134.32693
2611000000,-3.1747947,-134.54327
2612000000,-3.1921623,-134.58965
2613000000,-3.2276213,-134.72797
2614000000,-3.2342639,-134.6161
2615000000,-3.2134907,-134.7462
2616000000,-3.1939089,-134.67889
2617000000,-3.2241073,-134.44641
2618000000,-3.2260275,-135.00737
2619000000,-3.2536244,-134.8522
2620000000,-3.2236006,-135.1209
2621000000,-3.2126977,-135.2142
2622000000,-3.2002263,-135.21779
2623000000,-3.2106581,-135.18854
2624000000,-3.1908917,-135.6001
2625000000,-3.2324884,-135.31447
2626000000,-3.1815104,-135.50371
2627000000,-3.1885664,-135.38309
2628000000,-3.2193952,-135.46758
2629000000,-3.2003176,-135.54617
2630000000,-3.2211952,-135.56142
2631000000,-3.2051764,-135.82242
2632000000,-3.2103894,-135.80939
2633000000,-3.2000277,-135.87575
2634000000,-3.2180159,-136.07137
2635000000,-3.2116256,-135.99934
2636000000,-3.1748219,-136.37154
2637000000,-3.1973784,-136.16354
2638000000,-3.2076955,-136.12314
2639000000,-3.2086103,-136.37547
2640000000,-3.1994219,-136.48642
2641000000,-3.2139785,-136.54909
2642000000,-3.21158,-136.78142
2643000000,-3.2344027,-136.52412
2644000000,-3.2105746,-136.70049
2645000000,-3.2185431,-136.6265
2646000000,-3.2266769,-136.75192
2647000000,-3.2064836,-136.85075
2648000000,-3.204319,-136.80176
2649000000,-3.2220573,-136.84737
2650000000,-3.1914856,-136.8714
2651000000,-3.225554,-137.19679
2652000000,-3.1995285,-137.12552
2653000000,-3.2036457,-137.19389
2654000000,-3.2055278,-137.37766
2655000000,-3.2053645,-137.21397
2656000000,-3.2109957,-137.35887
2657000000,-3.227555,-137.33243
2658000000,-3.2030499,-137.67693
2659000000,-3.1965425,-137.3688
2660000000,-3.2295582,-137.59502
2661000000,-3.1992755,-137.81969
2662000000,-3.2480464,-137.79607
2663000000,-3.2145398,-137.93556
2664000000,-3.2136407,-137.96167
2665000000,-3.2209089,-138.16954
2666000000,-3.2137473,-138.01746
2667000000,-3.1949275,-138.28334
2668000000,-3.1952968,-138.31357
2669000000,-3.2274325,-138.40773
2670000000,-3.1934118,-138.43491
2671000000,-3.2125351,-138.58505
2672000000,-3.1640947,-138.58464
2673000000,-3.2101543,-138.58575
2674000000,-3.2237043,-138.74588
2675000000,-3.2141085,-138.5663
2676000000,-3.1997805,-138.73228
2677000000,-3.2027423,-138.91576
2678000000,-3.2131457,-138.73984
2679000000,-3.2055502,-138.9315
2680000000,-3.2003605,-138.937
2681000000,-3.2093534,-139.11784
2682000000,-3.2074654,-139.12625
2683000000,-3.2453606,-139.24126
2684000000,-3.2202909,-139.51579
2685000000,-3.17154,-139.52847
2686000000,-3.2248995,-139.3795
2687000000,-3.1905134,-139.5163
2688000000,-3.2349038,-139.56322
2689000000,-3.2185879,-139.65701
2690000000,-3.2228422,-139.69492
2691000000,-3.1848891,-139.85173
2692000000,-3.2041683,-139.77313
2693000000,-3.1963682,-140.05501
2694000000,-3.1917238,-140.0316
2695000000,-3.2078426,-139.99715
2696000000,-3.2003033,-140.11488
2697000000,-3.1932921,-140.44678
2698000000,-3.1956756,-140.29665
2699000000,-3.2196374,-140.1559
2700000000,-3.2003112,-140.4608
2701000000,-3.184931,-140.42973
2702000000,-3.1908698,-140.63467
2703000000,-3.2020688,-140.56329
2704000000,-3.2353277,-140.6263
2705000000,-3.2020419,-140.62404
2706000000,-3.2217476,-140.69879
2707000000,-3.1964307,-140.86926
2708000000,-3.1871874,-140.87712
2709000000,-3.1570659,-141.21884
2710000000,-3.2223363,-141.03395
2711000000,-3.2281921,-140.89468
2712000000,-3.1718433,-141.06682
2713000000,-3.158473,-141.15703
2714000000,-3.1911616,-141.35652
2715000000,-3.20244,-141.19464
2716000000,-3.2059319,-141.64091
2717000000,-3.2160273,-141.27586
2718000000,-3.179673,-141.53247
2719000000,-3.1833482,-141.77658
2720000000,-3.1971729,-141.64725
2721000000,-3.1921377,-141.96472
2722000000,-3.1837516,-141.78963
2723000000,-3.1909175,-141.87317
2724000000,-3.1901391,-141.89923
2725000000,-3.2314608,-141.98375
2726000000,-3.2060585,-142.08008
2727000000,-3.2123277,-142.15079
2728000000,-3.1817291,-142.22023
2729000000,-3.1843321,-142.15793
2730000000,-3.1782799,-142.24265
2731000000,-3.1870155,-142.58052
2732000000,-3.1767974,-142.66296
2733000000,-3.1992242,-142.66179
2734000000,-3.1595986,-142.53712
2735000000,-3.1595342,-142.84685
2736000000,-3.1883326,-142.86736
2737000000,-3.1889613,-142.93571
2738000000,-3.1998875,-142.85464
2739000000,-3.1927066,-143.22899
2740000000,-3.1776323,-143.09818
2741000000,-3.1763325,-143.00836
2742000000,-3.1677163,-143.10208
2743000000,-3.1546955,-143.17305
2744000000,-3.1445205,-143.27908
2745000000,-3.1721337,-143.34933
2746000000,-3.1995053,-143.58009
2747000000,-3.2004623,-143.60976
2748000000,-3.1735909,-143.71475
2749000000,-3.2078142,-143.68353
2750000000,-3.1805067,-143.93355
2751000000,-3.1919394,-143.91428
2752000000,-3.1730392,-143.9817
2753000000,-3.1662347,-143.84898
2754000000,-3.1778362,-143.91089
2755000000,-3.1867883,-143.98457
2756000000,-3.1792674,-144.18013
2757000000,-3.1526754,-144.30542
2758000000,-3.1855021,-144.41383
2759000000,-3.177393,-144.40503
2760000000,-3.1917481,-144.27917
2761000000,-3.201031,-144.5762
2762000000,-3.2092195,-144.59308
2763000000,-3.1919672,-144.69643
2764000000,-3.1775036,-144.54356
2765000000,-3.1904955,-144.61836
2766000000,-3.1690381,-144.93188
2767000000,-3.1448317,-144.97115
2768000000,-3.1670785,-145.00566
2769000000,-3.1591535,-145.18829
2770000000,-3.1852872,-144.95584
2771000000,-3.1597409,-145.3338
2772000000,-3.1939857,-145.35747
2773000000,-3.182894,-145.35919
2774000000,-3.1797001,-145.72968
2775000000,-3.1553535,-145.57504
2776000000,-3.1817274,-145.55128
2777000000,-3.1455171,-145.73215
2778000000,-3.1958547,-145.89424
2779000000,-3.1637492,-145.69287
2780000000,-3.181447,-145.91109
2781000000,-3.1663475,-145.89612
2782000000,-3.1732125,-145.84349
2783000000,-3.1982837,-145.8425
2784000000,-3.1687984,-146.02585
2785000000,-3.1594286,-145.99821
2786000000,-3.1411414,-146.22282
2787000000,-3.1852322,-146.28741
2788000000,-3.1603518,-146.48846
2789000000,-3.1498725,-146.34895
2790000000,-3.1492546,-146.50671
2791000000,-3.17278,-146.71364
2792000000,-3.1389582,-146.64981
2793000000,-3.1562276,-146.71841
2794000000,-3.1736994,-146.78619
2795000000,-3.1479661,-146.89474
2796000000,-3.1684463,-146.91917
2797000000,-3.1592367,-146.85995
2798000000,-3.1979907,-147.02509
2799000000,-3.1245155,-147.00407
2800000000,-3.1634171,-147.05577
2801000000,-3.1659658,-147.08041
2802000000,-3.1737759,-147.48962
2803000000,-3.1304576,-147.38077
2804000000,-3.1584103,-147.5424
2805000000,-3.1820948,-147.39996
2806000000,-3.1643496,-147.90062
2807000000,-3.1740749,-147.77013
2808000000,-3.1436446,-147.70866
2809000000,-3.1359036,-147.83386
2810000000,-3.1409264,-147.97697
2811000000,-3.1462972,-148.09262
2812000000,-3.1607292,-148.05957
2813000000,-3.1498237,-148.239
2814000000,-3.1524312,-148.30551
2815000000,-3.1434917,-148.41992
2816000000,-3.1381493,-148.26193
2817000000,-3.1291194,-148.38863
2818000000,-3.1528144,-148.45058
2819000000,-3.1346395,-148.29549
2820000000,-3.1731105,-148.71335
2821000000,-3.1567056,-148.42398
2822000000,-3.1262839,-148.81718
2823000000,-3.1357028,-148.66745
2824000000,-3.1170852,-148.82983
2825000000,-3.1126254,-148.86893
2826000000,-3.1119299,-149.23692
2827000000,-3.15481,-149.14877
2828000000,-3.1257122,-149.15526
2829000000,-3.1078253,-149.01117
2830000000,-3.117022,-149.06694
2831000000,-3.1281786,-149.3806
2832000000,-3.1216843,-149.42563
2833000000,-3.136246,-149.56488
2834000000,-3.1141534,-149.55531
2835000000,-3.114867,-149.73724
2836000000,-3.119864,-149.68796
2837000000,-3.1439104,-149.73178
2838000000,-3.1112292,-149.84956
2839000000,-3.1059418,-149.96533
2840000000,-3.1303947,-149.91862
2841000000,-3.1810205,-149.77719
2842000000,-3.1042502,-150.14182
2843000000,-3.0974729,-150.32515
2844000000,-3.1133542,-150.30339
2845000000,-3.1319776,-150.44968
2846000000,-3.0830007,-150.25421
2847000000,-3.1142569,-150.65103
2848000000,-3.1118884,-150.59914
2849000000,-3.1291711,-150.72466
2850000000,-3.0921021,-150.662
2851000000,-3.0959649,-150.72435
2852000000,-3.1159499,-150.78873
2853000000,-3.0778444,-150.90056
2854000000,-3.0908597,-151.21919
2855000000,-3.1000388,-151.25809
2856000000,-3.1128612,-150.9987
2857000000,-3.0967302,-151.31836
2858000000,-3.1224561,-151.57663
2859000000,-3.1228645,-151.43178
2860000000,-3.1041951,-151.65242
2861000000,-3.0957332,-151.53377
2862000000,-3.0728474,-151.50873
2863000000,-3.0795093,-151.53415
2864000000,-3.1019557,-151.80655
2865000000,-3.095855,-151.68773
2866000000,-3.1040311,-152.069
2867000000,-3.0903974,-152.01546
2868000000,-3.0789959,-152.15398
2869000000,-3.1119199,-152.31194
2870000000,-3.0650113,-152.09015
2871000000,-3.0552111,-152.24785
2872000000,-3.0885642,-152.32018
2873000000,-3.1165347,-152.2487
2874000000,-3.1132011,-152.66475
2875000000,-3.1053951,-152.34656
2876000000,-3.0913849,-152.57425
2877000000,-3.0700607,-152.5959
2878000000,-3.1131487,-152.70583
2879000000,-3.0657334,-153.09319
2880000000,-3.108408,-152.9209
2881000000,-3.0880866,-152.82312
2882000000,-3.0587487,-153.02368
2883000000,-3.0995398,-153.11574
2884000000,-3.0806704,-153.07462
2885000000,-3.0559933,-153.27686
2886000000,-3.0742192,-153.56502
2887000000,-3.0952432,-153.61946
2888000000,-3.0749712,-153.63437
2889000000,-3.0478642,-153.50049
2890000000,-3.0723195,-153.64229
2891000000,-3.083756,-153.67601
2892000000,-3.0679712,-153.65169
2893000000,-3.0879588,-153.92294
2894000000,-3.0732098,-154.06001
2895000000,-3.0472634,-153.89882
2896000000,-3.0721457,-154.02823
2897000000,-3.0629854,-154.10921
2898000000,-3.0766733,-154.10951
2899000000,-3.0697603,-154.26678
2900000000,-3.0824845,-154.46965
2901000000,-3.0458233,-154.48795
2902000000,-3.0478978,-154.51849
2903000000,-3.0431895,-154.57016
2904000000,-3.0374172,-154.73663
2905000000,-3.0580828,-154.68016
2906000000,-3.0540025,-154.80331
2907000000,-3.0625832,-154.91089
2908000000,-3.056881,-154.94307
2909000000,-3.0623446,-155.00391
2910000000,-3.0399067,-155.04643
2911000000,-3.064605,-155.23167
2912000000,-3.0600572,-155.28648
2913000000,-3.0449922,-155.1722
2914000000,-3.0480528,-155.44246
2915000000,-3.0496225,-155.51758
2916000000,-3.0584905,-155.41376
2917000000,-3.0207598,-155.66966
2918000000,-3.0696762,-155.87039
2919000000,-3.0403805,-155.88388
2920000000,-2.9945562,-155.77585
2921000000,-2.9944675,-155.93373
2922000000,-3.0431604,-156.0314
2923000000,-3.0126104,-156.05632
2924000000,-3.0259578,-156.08469
2925000000,-3.0547285,-156.15614
2926000000,-3.0287857,-156.22859
2927000000,-3.0220277,-156.40477
2928000000,-3.0176599,-156.44757
2929000000,-3.0439827,-156.71671
2930000000,-3.035774,-156.68547
2931000000,-3.0303681,-156.67873
2932000000,-3.01617,-156.67708
2933000000,-3.0453374,-156.81953
2934000000,-2.9842854,-156.75751
2935000000,-3.0169468,-156.9453
2936000000,-3.0043869,-157.03391
2937000000,-3.0199916,-157.25877
2938000000,-3.0268865,-157.10144
2939000000,-3.0110478,-157.41551
2940000000,-3.0303185,-157.40773
2941000000,-3.0126493,-157.3446
2942000000,-3.0339751,-157.72734
2943000000,-3.0268893,-157.6011
2944000000,-3.0088036,-157.57291
2945000000,-2.988759,-157.87663
2946000000,-3.0137978,-158.19789
2947000000,-2.9899552,-158.039
2948000000,-3.0343368,-158.06377
2949000000,-3.0430648,-158.10538
2950000000,-2.977865,-158.2903
2951000000,-3.0357654,-158.17401
2952000000,-2.9980292,-158.26207
2953000000,-3.0039208,-158.30951
2954000000,-3.0216002,-158.64963
2955000000,-3.01072,-158.68738
2956000000,-2.9948096,-158.73888
2957000000,-2.977191,-158.895
2958000000,-2.9750631,-158.73254
2959000000,-3.0035925,-159.05464
2960000000,-2.9761345,-158.89868
2961000000,-2.9812326,-159.25754
2962000000,-2.9680588,-159.1255
2963000000,-2.9918144,-159.205
2964000000,-2.9761448,-159.19287
2965000000,-3.0108826,-159.40094
2966000000,-2.9741404,-159.4064
2967000000,-2.9846625,-159.1422
2968000000,-2.9799562,-159.57036
2969000000,-2.9690933,-159.54507
2970000000,-2.9871542,-159.93019
2971000000,-2.9929533,-159.74823
2972000000,-2.9630301,-159.9597
2973000000,-2.9605322,-160.00134
2974000000,-2.9835374,-160.17111
2975000000,-2.9835887,-160.08745
2976000000,-2.9688814,-160.10905
2977000000,-2.9619668,-160.37589
2978000000,-2.9511085,-160.3391
2979000000,-2.961359,-160.59116
2980000000,-2.9520378,-160.56229
2981000000,-2.9555371,-160.39684
2982000000,-2.962383,-160.56999
2983000000,-2.9615753,-160.88361
2984000000,-2.9537177,-160.92146
2985000000,-2.9743214,-160.90321
2986000000,-2.9373932,-161.25368
2987000000,-2.9699657,-161.16365
2988000000,-2.9730799,-161.21806
2989000000,-2.970696,-161.42181
2990000000,-2.9506164,-161.37509
2991000000,-2.9517918,-161.35356
2992000000,-2.9361944,-161.354
2993000000,-2.9808228,-161.59082
2994000000,-2.9479797,-161.31229
2995000000,-2.9725425,-161.57477
2996000000,-2.9730754,-161.78691
2997000000,-2.9455841,-161.90335
2998000000,-2.9251785,-161.84819
2999000000,-2.9716334,-161.93712
3000000000,-2.9538159,-162.10005
3001000000,-2.9405749,-162.20802
3002000000,-2.9576554,-162.38004
3003000000,-2.93521,-162.40594
3004000000,-2.9521976,-162.46922
3005000000,-2.9436147,-162.52681
3006000000,-2.9404826,-162.57474
3007000000,-2.9285288,-162.6163
3008000000,-2.9458876,-162.80219
3009000000,-2.938591,-162.92285
3010000000,-2.9374046,-163.1008
3011000000,-2.9188657,-163.02763
3012000000,-2.9052339,-163.07651
3013000000,-2.9506967,-163.24698
3014000000,-2.934561,-163.48636
3015000000,-2.9214764,-163.23756
3016000000,-2.9307773,-163.65366
3017000000,-2.9579339,-163.59201
3018000000,-2.945997,-163.74565
3019000000,-2.9363089,-163.70593
3020000000,-2.9050648,-163.72374
3021000000,-2.9140105,-164.06464
3022000000,-2.9041409,-163.9847
3023000000,-2.9340441,-164.16992
3024000000,-2.9179852,-164.20445
3025000000,-2.9206069,-164.31432
3026000000,-2.9130323,-164.36203
3027000000,-2.9108276,-164.30974
3028000000,-2.9182274,-164.35506
3029000000,-2.8984883,-164.51689
3030000000,-2.9105692,-164.72411
3031000000,-2.9069235,-164.86349
3032000000,-2.9130392,-164.94464
3033000000,-2.9019485,-164.63522
3034000000,-2.8911517,-165.04059
3035000000,-2.8822508,-164.99405
3036000000,-2.913271,-164.91292
3037000000,-2.8969829,-165.24541
3038000000,-2.9394388,-165.25273
3039000000,-2.9078417,-165.14151
3040000000,-2.912873,-165.46213
3041000000,-2.9029772,-165.5899
3042000000,-2.8970761,-165.54599
3043000000,-2.9047217,-165.91339
3044000000,-2.8758421,-165.79422
3045000000,-2.8744051,-165.94051
3046000000,-2.8799102,-166.24586
3047000000,-2.9401021,-165.98126
3048000000,-2.8827472,-166.32507
3049000000,-2.872793,-166.33473
3050000000,-2.88782,-166.30318
3051000000,-2.8776064,-166.26208
3052000000,-2.9119318,-166.6357
3053000000,-2.9043305,-166.33533
3054000000,-2.8717091,-166.7972
3055000000,-2.8598154,-166.69353
3056000000,-2.892473,-166.89029
3057000000,-2.9096823,-166.83781
3058000000,-2.8991923,-167.01724
3059000000,-2.8914175,-166.929
3060000000,-2.8939254,-167.15286
3061000000,-2.8835053,-167.37697
3062000000,-2.9276168,-167.21445
3063000000,-2.8964953,-167.27716
3064000000,-2.8740664,-167.55963
3065000000,-2.8656483,-167.72697
3066000000,-2.858031,-167.70224
3067000000,-2.8848455,-167.6553
3068000000,-2.8739314,-168.06299
3069000000,-2.8796191,-168.01204
3070000000,-2.8581703,-168.01192
3071000000,-2.8796556,-168.3717
3072000000,-2.8476968,-168.24274
3073000000,-2.8630414,-168.29906
3074000000,-2.8655791,-168.29385
3075000000,-2.8641403,-168.40126
3076000000,-2.8821151,-168.52963
3077000000,-2.8653381,-168.78445
3078000000,-2.8524048,-168.6431
3079000000,-2.8557258,-168.92584
3080000000,-2.8395872,-168.8681
3081000000,-2.8711748,-169.08295
3082000000,-2.8752012,-169.27751
3083000000,-2.8656752,-169.31564
3084000000,-2.8549292,-169.25377
3085000000,-2.8682122,-169.05971
3086000000,-2.8452139,-169.38889
3087000000,-2.8695695,-169.42091
3088000000,-2.8344822,-169.46292
3089000000,-2.861449,-169.6402
3090000000,-2.8239725,-169.98192
3091000000,-2.8561866,-169.85933
3092000000,-2.8479447,-170.09782
3093000000,-2.8762493,-170.09758
3094000000,-2.8291225,-170.15285
3095000000,-2.8529105,-170.33838
3096000000,-2.8554044,-170.4348
3097000000,-2.8662195,-170.57983
3098000000,-2.851661,-170.36879
3099000000,-2.857985,-170.7119
3100000000,-2.864949,-170.67952
3101000000,-2.8708911,-170.94458
3102000000,-2.8534479,-170.9696
3103000000,-2.8569441,-170.85603
3104000000,-2.8478231,-171.07642
3105000000,-2.8176599,-171.09059
3106000000,-2.856611,-171.26224
3107000000,-2.8120639,-171.49313
3108000000,-2.8234789,-171.51363
3109000000,-2.8244331,-171.44229
3110000000,-2.8427649,-171.77304
3111000000,-2.8328645,-171.61537
3112000000,-2.8106518,-171.89494
3113000000,-2.8184271,-171.85588
3114000000,-2.827668,-172.0815
3115000000,-2.8292279,-172.1866
3116000000,-2.8152471,-172.12654
3117000000,-2.8237119,-172.24429
3118000000,-2.8306525,-172.41869
3119000000,-2.814924,-172.36955
3120000000,-2.7825246,-172.47159
3121000000,-2.79175,-172.59834
3122000000,-2.8127091,-172.74268
3123000000,-2.7924144,-172.88762
3124000000,-2.8214791,-173.03387
3125000000,-2.8016376,-172.91783
3126000000,-2.8142874,-173.25525
3127000000,-2.7893763,-173.3387
3128000000,-2.8072436,-173.33344
3129000000,-2.8069892,-173.52043
3130000000,-2.7963283,-173.71761
3131000000,-2.7980239,-173.82262
3132000000,-2.7935245,-173.85626
3133000000,-2.8193548,-173.80307
3134000000,-2.8104887,-174.14174
3135000000,-2.8198881,-174.11411
3136000000,-2.8120661,-174.04515
3137000000,-2.8141809,-174.28557
3138000000,-2.8298466,-174.22473
3139000000,-2.8167701,-174.67336
3140000000,-2.8154464,-174.57968
3141000000,-2.8098767,-174.59998
3142000000,-2.7913043,-174.6627
3143000000,-2.810385,-174.687
3144000000,-2.7914755,-175.01231
3145000000,-2.8181162,-175.26163
3146000000,-2.7889369,-175.30423
3147000000,-2.8053319,-175.20535
3148000000,-2.8403115,-175.08984
3149000000,-2.7967045,-175.35803
3150000000,-2.7805429,-175.43161
3151000000,-2.8036561,-175.54156
3152000000,-2.8472447,-175.57236
3153000000,-2.8171864,-175.74162
3154000000,-2.7904873,-175.80797
3155000000,-2.7937801,-176.01222
3156000000,-2.7911353,-175.93553
3157000000,-2.804029,-176.47829
3158000000,-2.8231695,-176.27954
3159000000,-2.8231928,-176.39067
3160000000,-2.8031893,-176.62407
3161000000,-2.7777696,-176.61534
3162000000,-2.7992582,-176.51649
3163000000,-2.7739546,-176.7363
3164000000,-2.778259,-176.74371
3165000000,-2.8106081,-176.97963
3166000000,-2.7815275,-176.99039
3167000000,-2.8240852,-177.05324
3168000000,-2.799159,-177.26981
3169000000,-2.7849975,-177.41582
3170000000,-2.7826779,-177.44891
3171000000,-2.7746415,-177.45787
3172000000,-2.802624,-177.71509
3173000000,-2.7993598,-177.70479
3174000000,-2.8026738,-177.78531
3175000000,-2.7762001,-177.83456
3176000000,-2.7995439,-178.05054
3177000000,-2.8103251,-178.0713
3178000000,-2.8040023,-178.19595
3179000000,-2.7949243,-178.29422
3180000000,-2.811326,-178.25943
3181000000,-2.8129115,-178.54904
3182000000,-2.8100035,-178.69
3183000000,-2.8085551,-178.63145
3184000000,-2.7942681,-178.86365
3185000000,-2.7883284,-178.93217
3186000000,-2.7640584,-179.0246
3187000000,-2.7754569,-179.23166
3188000000,-2.7890677,-178.99329
3189000000,-2.7943347,-179.35884
3190000000,-2.8086984,-179.55939
3191000000,-2.7932627,-179.49596
3192000000,-2.8167768,-179.43159
3193000000,-2.8100359,-179.71938
3194000000,-2.7916577,-179.77292
3195000000,-2.8177192,-179.86688
3196000000,-2.8031039,-180.1946
3197000000,-2.7966211,-180.06783
3198000000,-2.7586293,-180.21638
3199000000,-2.8166108,-180.36757
3200000000,-2.7545438,-180.58488
3201000000,-2.7897766,-180.45837
3202000000,-2.7425597,-180.58977
3203000000,-2.7581103,-180.62158
3204000000,-2.7759593,-180.87645
3205000000,-2.7997301,-180.96989
3206000000,-2.7974424,-181.01636
3207000000,-2.8212776,-181.05145
3208000000,-2.7294464,-181.32216
3209000000,-2.7679288,-181.53407
3210000000,-2.7641194,-181.45767
3211000000,-2.7960365,-181.70461
3212000000,-2.7717316,-181.76996
3213000000,-2.8097711,-181.64326
3214000000,-2.8020964,-181.8893
3215000000,-2.7808044,-182.08127
3216000000,-2.7808557,-182.31302
3217000000,-2.803757,-182.21725
3218000000,-2.7963963,-182.27864
3219000000,-2.790761,-182.4838
3220000000,-2.8163686,-182.62083
3221000000,-2.783778,-182.56468
3222000000,-2.8075686,-182.69728
3223000000,-2.8055227,-182.88853
3224000000,-2.8044519,-182.89679
3225000000,-2.772229,-183.16246
3226000000,-2.7838235,-183.2383
3227000000,-2.8186789,-183.18204
3228000000,-2.8041286,-183.27904
3229000000,-2.782675,-183.66264
3230000000,-2.7706399,-183.42914
3231000000,-2.7608116,-183.76932
3232000000,-2.8144789,-183.73807
3233000000,-2.8108046,-183.85841
3234000000,-2.7939026,-184.0955
3235000000,-2.8015766,-184.05414
3236000000,-2.7961295,-184.21844
3237000000,-2.8061481,-184.22946
3238000000,-2.8056221,-184.68492
3239000000,-2.8248277,-184.48125
3240000000,-2.7885203,-184.54106
3241000000,-2.8443747,-184.95248
3242000000,-2.7513478,-184.81358
3243000000,-2.779002,-185.00479
3244000000,-2.8101604,-184.9252
3245000000,-2.8249974,-185.02087
3246000000,-2.8181915,-184.99281
3247000000,-2.7929082,-185.30997
3248000000,-2.8251503,-185.51837
3249000000,-2.818114,-185.46773
3250000000,-2.8240159,-185.7265
3251000000,-2.802705,-185.89404
3252000000,-2.7881038,-185.97829
3253000000,-2.8270311,-186.14551
3254000000,-2.8497248,-186.10461
3255000000,-2.8588512,-186.05838
3256000000,-2.8553867,-186.29903
3257000000,-2.8376372,-186.40117
3258000000,-2.818965,-186.38844
3259000000,-2.8665085,-186.61736
3260000000,-2.8119848,-186.94864
3261000000,-2.854337,-186.82358
3262000000,-2.8135903,-186.9603
3263000000,-2.8448722,-187.08139
3264000000,-2.8569322,-187.29071
3265000000,-2.8101375,-187.20284
3266000000,-2.8415534,-187.46411
3267000000,-2.8355737,-187.53925
3268000000,-2.8259881,-187.56021
3269000000,-2.8291261,-187.66443
3270000000,-2.8281531,-187.8145
3271000000,-2.8522601,-187.82356
3272000000,-2.8258631,-188.02434
3273000000,-2.8495305,-188.37141
3274000000,-2.8430209,-188.29338
3275000000,-2.8505113,-188.47412
3276000000,-2.8451996,-188.74011
3277000000,-2.8129981,-188.76999
3278000000,-2.8537009,-188.56448
3279000000,-2.8765895,-189.08876
3280000000,-2.8465252,-189.07654
3281000000,-2.827657,-189.33463
3282000000,-2.8333585,-189.38866
3283000000,-2.8355899,-189.27454
3284000000,-2.8771739,-189.4021
3285000000,-2.8421166,-189.36771
3286000000,-2.8394778,-189.43387
3287000000,-2.8591242,-189.7905
3288000000,-2.8839161,-190.09521
3289000000,-2.8719687,-190.05429
3290000000,-2.89749,-189.983
3291000000,-2.8471429,-190.31712
3292000000,-2.878613,-190.21684
3293000000,-2.9029529,-190.38174
3294000000,-2.8652153,-190.57603
3295000000,-2.8829832,-190.66292
3296000000,-2.896466,-190.89369
3297000000,-2.8709893,-190.92764
3298000000,-2.908716,-191.17725
3299000000,-2.9101124,-191.12308
3300000000,-2.8753619,-191.43231
3301000000,-2.9379432,-191.41771
3302000000,-2.8642805,-191.34541
3303000000,-2.911185,-191.65343
3304000000,-2.8733387,-191.89336
3305000000,-2.901675,-191.70174
3306000000,-2.8886502,-191.99165
3307000000,-2.9184232,-192.09869
3308000000,-2.8909237,-192.1729
3309000000,-2.9044354,-192.26222
3310000000,-2.9254918,-192.4749
3311000000,-2.9305291,-192.536
3312000000,-2.972538,-192.79079
3313000000,-2.9357457,-192.79277
3314000000,-2.9229338,-192.94887
3315000000,-2.9087999,-192.98766
3316000000,-2.9392021,-192.92635
3317000000,-2.9377198,-193.16966
3318000000,-2.9361832,-193.51698
3319000000,-2.9662235,-193.53214
3320000000,-2.9258449,-193.4046
3321000000,-2.9304192,-193.67624
3322000000,-2.9019477,-193.80823
3323000000,-2.9522212,-194.09698
3324000000,-2.9617763,-194.134
3325000000,-2.9381995,-194.24962
3326000000,-2.9515169,-194.34587
3327000000,-2.9037366,-194.39398
3328000000,-2.9536166,-194.34714
3329000000,-2.9467039,-194.84154
3330000000,-2.9754467,-194.66336
3331000000,-2.9613922,-194.924
3332000000,-2.961643,-194.87152
3333000000,-2.9866076,-195.22467
3334000000,-2.9858553,-195.01682
3335000000,-2.9650376,-195.22411
3336000000,-2.9881144,-195.45993
3337000000,-2.9952948,-195.81548
3338000000,-2.9856703,-195.80716
3339000000,-3.0360758,-195.86137
3340000000,-3.0171666,-195.78975
3341000000,-3.012078,-195.90639
3342000000,-3.0025504,-196.28052
3343000000,-3.0076509,-196.15652
3344000000,-3.0123467,-196.57512
3345000000,-2.9978297,-196.73849
3346000000,-3.0306582,-196.77136
3347000000,-3.0211639,-196.88457
3348000000,-3.0243559,-196.94887
3349000000,-3.0334532,-196.97948
3350000000,-3.0093403,-197.32925
3351000000,-3.0466366,-197.21878
3352000000,-3.0344968,-197.44441
3353000000,-3.0614209,-197.5002
3354000000,-3.0647519,-197.48537
3355000000,-3.0761709,-197.76578
3356000000,-3.0448115,-197.94197
3357000000,-3.0692766,-198.00986
3358000000,-3.070652,-198.00095
3359000000,-3.093992,-198.1131
3360000000,-3.0694635,-198.36504
3361000000,-3.0487339,-198.54657
3362000000,-3.0850532,-198.51935
3363000000,-3.085427,-198.98352
3364000000,-3.0859261,-198.66916
3365000000,-3.1071525,-199.13341
3366000000,-3.0905969,-199.22455
3367000000,-3.0625126,-199.09378
3368000000,-3.084465,-199.29367
3369000000,-3.1237755,-199.37556
3370000000,-3.1275837,-199.54889
3371000000,-3.1163452,-199.58881
3372000000,-3.109462,-199.75514
3373000000,-3.1277926,-199.9398
3374000000,-3.1514995,-200.10037
3375000000,-3.1303201,-200.13307
3376000000,-3.1395726,-200.59071
3377000000,-3.1653922,-200.47676
3378000000,-3.1728704,-200.4928
3379000000,-3.1700537,-200.75426
3380000000,-3.1711876,-200.89951
3381000000,-3.1870749,-200.84576
3382000000,-3.1648586,-201.10561
3383000000,-3.2026494,-201.07721
3384000000,-3.2074914,-201.38303
3385000000,-3.2039671,-201.38654
3386000000,-3.2248595,-201.61195
3387000000,-3.2256584,-201.82988
3388000000,-3.2206895,-201.78543
3389000000,-3.2105672,-201.97374
3390000000,-3.2283816,-202.0536
3391000000,-3.2507768,-202.14603
3392000000,-3.2045338,-202.17722
3393000000,-3.2162063,-202.28015
3394000000,-3.2325823,-202.46915
3395000000,-3.2426043,-202.57855
3396000000,-3.2384357,-202.80554
3397000000,-3.2456493,-202.93642
3398000000,-3.2848325,-203.05199
3399000000,-3.2712753,-203.21309
3400000000,-3.2401726,-203.52896
3401000000,-3.2694297,-203.31543
3402000000,-3.3057082,-203.51567
3403000000,-3.3005719,-203.75766
3404000000,-3.3264861,-204.05635
3405000000,-3.3018861,-203.96341
3406000000,-3.2882211,-203.72139
3407000000,-3.3057051,-204.07585
3408000000,-3.3013299,-204.02252
3409000000,-3.3339734,-204.36656
3410000000,-3.3537939,-204.48251
3411000000,-3.3641977,-204.45401
3412000000,-3.352407,-204.69051
3413000000,-3.3576186,-205.07985
3414000000,-3.3680768,-204.93459
3415000000,-3.4106507,-205.08786
3416000000,-3.3694489,-205.16754
3417000000,-3.37398,-205.43158
3418000000,-3.3952694,-205.61856
3419000000,-3.3959408,-205.76361
3420000000,-3.4037898,-205.93207
3421000000,-3.4232602,-205.84767
3422000000,-3.3971865,-205.91049
3423000000,-3.4202809,-206.34641
3424000000,-3.4120672,-206.35971
3425000000,-3.4396889,-206.31364
3426000000,-3.4654863,-206.5701
3427000000,-3.4377801,-206.72714
3428000000,-3.4591932,-206.78522
3429000000,-3.4736829,-207.10356
3430000000,-3.4823959,-207.19246
3431000000,-3.4733422,-206.9287
3432000000,-3.5069799,-207.274
3433000000,-3.4723766,-207.29454
3434000000,-3.4651191,-207.36734
3435000000,-3.5185421,-207.67209
3436000000,-3.5160427,-207.82333
3437000000,-3.5490496,-207.73746
3438000000,-3.5245731,-207.90994
3439000000,-3.5159748,-208.30086
3440000000,-3.5346184,-208.19385
3441000000,-3.5397804,-208.30339
3442000000,-3.5581741,-208.53409
3443000000,-3.5665715,-208.78978
3444000000,-3.5682302,-208.68451
3445000000,-3.5836694,-208.86981
3446000000,-3.6035025,-209.07777
3447000000,-3.5854373,-209.04794
3448000000,-3.6322951,-209.25427
3449000000,-3.6115878,-209.35071
3450000000,-3.6121268,-209.65616
3451000000,-3.6494625,-209.8119
3452000000,-3.6561098,-209.59352
3453000000,-3.6329997,-210.06638
3454000000,-3.6533372,-210.02197
3455000000,-3.6880624,-210.09995
3456000000,-3.6944909,-210.1349
3457000000,-3.6717741,-210.52248
3458000000,-3.6969531,-210.63046
3459000000,-3.7289605,-210.61856
3460000000,-3.6932082,-210.67004
3461000000,-3.7344253,-211.16626
3462000000,-3.7541656,-211.07207
3463000000,-3.7405486,-211.06374
3464000000,-3.7644827,-211.35562
3465000000,-3.7567215,-211.31148
3466000000,-3.7845695,-211.57184
3467000000,-3.7706249,-211.51981
3468000000,-3.764009,-211.68132
3469000000,-3.8012133,-211.9068
3470000000,-3.8235974,-211.90063
3471000000,-3.8037872,-212.11835
3472000000,-3.8019423,-212.11395
3473000000,-3.8431261,-212.47165
3474000000,-3.8484502,-212.3293
3475000000,-3.8588438,-212.44868
3476000000,-3.8949742,-212.72534
3477000000,-3.8774402,-212.78912
3478000000,-3.8915243,-213.11481
3479000000,-3.8953166,-212.87946
3480000000,-3.8966458,-213.29411
3481000000,-3.9238062,-213.52525
3482000000,-3.9225471,-213.38414
3483000000,-3.9283123,-213.50063
3484000000,-3.9561796,-213.65929
3485000000,-3.9322915,-213.66573
3486000000,-3.9355962,-213.95253
3487000000,-4.0150766,-214.10416
3488000000,-3.9585578,-214.12656
3489000000,-4.0161724,-214.40118
3490000000,-3.998811,-214.40353
3491000000,-4.0257068,-214.54749
3492000000,-4.0350919,-214.81754
3493000000,-4.0410089,-214.71495
3494000000,-4.0639267,-214.69833
3495000000,-4.0540314,-215.15117
3496000000,-4.0895905,-215.2066
3497000000,-4.1021485,-215.48865
3498000000,-4.1230307,-215.41728
3499000000,-4.0991411,-215.66856
3500000000,-4.1005659,-215.51189
3501000000,-4.142561,-215.81555
3502000000,-4.1609893,-215.88292
3503000000,-4.1516309,-216.0067
3504000000,-4.1669269,-216.24161
3505000000,-4.1825604,-216.27203
3506000000,-4.1800642,-216.61932
3507000000,-4.1726465,-216.43004
3508000000,-4.1990905,-216.65569
3509000000,-4.2195621,-216.6877
3510000000,-4.2308493,-216.95679
3511000000,-4.2499251,-216.91518
3512000000,-4.2676978,-217.08646
3513000000,-4.2536345,-217.20015
3514000000,-4.3030939,-217.39656
3515000000,-4.2970128,-217.42253
3516000000,-4.3160214,-217.70183
3517000000,-4.2873883,-217.60831
3518000000,-4.3255568,-217.81783
3519000000,-4.3528023,-217.96964
3520000000,-4.348773,-217.98048
3521000000,-4.3595676,-218.20424
3522000000,-4.3817134,-218.33546
3523000000,-4.3926888,-218.51733
3524000000,-4.3795238,-218.37611
3525000000,-4.4348269,-218.52446
3526000000,-4.4335852,-218.64789
3527000000,-4.4529018,-218.82341
3528000000,-4.453721,-219.08275
3529000000,-4.4686599,-218.91798
3530000000,-4.4786797,-218.99242
3531000000,-4.4952078,-219.27036
3532000000,-4.5195622,-219.32596
3533000000,-4.528605,-219.5574
3534000000,-4.5200667,-219.59795
3535000000,-4.535439,-219.60173
3536000000,-4.5999551,-219.74055
3537000000,-4.5632005,-219.81456
3538000000,-4.5727572,-220.20613
3539000000,-4.6075869,-220.36258
3540000000,-4.6491423,-220.45488
3541000000,-4.6182013,-220.50916
3542000000,-4.61093,-220.4666
3543000000,-4.6450067,-220.50452
3544000000,-4.663383,-220.58957
3545000000,-4.6810508,-221.03387
3546000000,-4.6684299,-221.01956
3547000000,-4.700644,-221.17368
3548000000,-4.7356133,-221.21353
3549000000,-4.759819,-221.37872
3550000000,-4.7675023,-221.41162
3551000000,-4.7727075,-221.65843
3552000000,-4.7914839,-221.6163
3553000000,-4.7738509,-221.54944
3554000000,-4.8149409,-221.82802
3555000000,-4.8250299,-221.96562
3556000000,-4.854239,-222.01749
3557000000,-4.8481846,-222.29903
3558000000,-4.8742771,-222.24812
3559000000,-4.8807044,-222.3013
3560000000,-4.9109435,-222.45764
3561000000,-4.8890338,-222.42792
3562000000,-4.9151211,-222.72122
3563000000,-4.9444904,-222.77878
3564000000,-4.9386935,-222.67384
3565000000,-4.9650049,-223.10608
3566000000,-4.976748,-222.89763
3567000000,-5.0351119,-223.15367
3568000000,-5.0279021,-223.45631
3569000000,-5.0344348,-223.52812
3570000000,-5.0691576,-223.54361
3571000000,-5.0669122,-223.58267
3572000000,-5.0603294,-223.58951
3573000000,-5.0903044,-223.70064
3574000000,-5.0992422,-223.86302
3575000000,-5.1089215,-224.01164
3576000000,-5.1492596,-224.10666
3577000000,-5.1693344,-224.26112
3578000000,-5.1956286,-224.40283
3579000000,-5.2114587,-224.68317
3580000000,-5.1897984,-224.61621
3581000000,-5.2143917,-224.55289
3582000000,-5.2425132,-224.55643
3583000000,-5.256382,-224.73901
3584000000,-5.2555008,-224.78123
3585000000,-5.2689342,-224.9052
3586000000,-5.2984862,-225.16718
3587000000,-5.2879882,-225.23857
3588000000,-5.2855644,-225.17809
3589000000,-5.3198485,-225.30754
3590000000,-5.3435721,-225.80765
3591000000,-5.3780098,-225.50626
3592000000,-5.4006519,-225.63945
3593000000,-5.4141641,-225.61127
3594000000,-5.4348292,-225.91884
3595000000,-5.4471626,-225.97008
3596000000,-5.4839163,-226.23756
3597000000,-5.4852014,-225.96248
3598000000,-5.5048642,-226.15303
3599000000,-5.4745002,-226.19572
3600000000,-5.5101533,-226.49411
3601000000,-5.5068221,-226.59717
3602000000,-5.5308018,-226.69431
3603000000,-5.5881963,-226.72491
3604000000,-5.5511279,-227.03117
3605000000,-5.5867748,-226.90227
3606000000,-5.5935402,-227.02089
3607000000,-5.5992498,-226.9729
3608000000,-5.6048646,-227.05771
3609000000,-5.6404567,-227.34341
3610000000,-5.7031298,-227.25664
3611000000,-5.7003837,-227.34128
3612000000,-5.7136874,-227.52124
3613000000,-5.7108612,-227.71846
3614000000,-5.7803102,-227.55353
3615000000,-5.7672081,-227.92212
3616000000,-5.7796345,-227.92888
3617000000,-5.7961569,-227.90607
3618000000,-5.8256612,-228.15253
3619000000,-5.829639,-228.18918
3620000000,-5.8420777,-228.2056
3621000000,-5.8604894,-228.40302
3622000000,-5.8889112,-228.53299
3623000000,-5.9171462,-228.59631
3624000000,-5.9327073,-228.48404
3625000000,-5.9586415,-228.71745
3626000000,-5.9219284,-228.87035
3627000000,-5.9840746,-228.92055
3628000000,-5.9889641,-228.90816
3629000000,-5.9922495,-228.92773
3630000000,-6.0456333,-229.14648
3631000000,-6.0187101,-229.29082
3632000000,-6.0603309,-229.22467
3633000000,-6.069066,-229.35196
3634000000,-6.1057534,-229.44855
3635000000,-6.1171184,-229.45647
3636000000,-6.11518,-229.57129
3637000000,-6.1687164,-229.58742
3638000000,-6.1678839,-229.71498
3639000000,-6.1828575,-229.71367
3640000000,-6.1911354,-229.83119
3641000000,-6.2342267,-229.79846
3642000000,-6.2499828,-229.72972
3643000000,-6.2634096,-230.31094
3644000000,-6.2707515,-229.95198
3645000000,-6.2903976,-230.17819
3646000000,-6.3074431,-230.39244
3647000000,-6.3493843,-230.36554
3648000000,-6.3599553,-230.45255
3649000000,-6.3601809,-230.46829
3650000000,-6.3561959,-230.47031
3651000000,-6.4329538,-230.4798
3652000000,-6.4119029,-230.90608
3653000000,-6.4342475,-230.87346
3654000000,-6.4890757,-230.83026
3655000000,-6.4726787,-231.00418
3656000000,-6.5003552,-231.06642
3657000000,-6.5199842,-231.02612
3658000000,-6.5202746,-231.40102
3659000000,-6.5666256,-231.30742
3660000000,-6.565733,-231.43085
3661000000,-6.6021171,-231.32152
3662000000,-6.6284194,-231.28561
3663000000,-6.6193171,-231.38864
3664000000,-6.6743751,-231.37509
3665000000,-6.6982522,-231.52107
3666000000,-6.7012534,-231.67239
3667000000,-6.7307506,-231.714
3668000000,-6.72474,-231.73679
3669000000,-6.7642531,-231.66701
3670000000,-6.7659225,-231.77072
3671000000,-6.7799134,-232.17709
3672000000,-6.8101397,-231.88091
3673000000,-6.8268337,-232.1371
3674000000,-6.8239374,-231.93015
3675000000,-6.8594646,-232.25993
3676000000,-6.8590522,-232.18988
3677000000,-6.8998852,-231.98047
3678000000,-6.9198151,-232.45303
3679000000,-6.9404535,-232.35359
3680000000,-6.9777546,-232.41025
3681000000,-6.9899406,-232.57658
3682000000,-6.979228,-232.56837
3683000000,-7.0223727,-232.57819
3684000000,-7.0380354,-232.62822
3685000000,-7.0599413,-232.65733
3686000000,-7.0938187,-232.9751
3687000000,-7.0755181,-233.09824
3688000000,-7.0812368,-232.78261
3689000000,-7.1065745,-233.01639
3690000000,-7.1495681,-233.02866
3691000000,-7.1656089,-232.86388
3692000000,-7.1632857,-232.86688
3693000000,-7.1842647,-233.1947
3694000000,-7.2143569,-233.37376
3695000000,-7.2488089,-233.24648
3696000000,-7.2356758,-233.35744
3697000000,-7.2898693,-233.41382
3698000000,-7.2940865,-233.24629
3699000000,-7.3202963,-233.4274
3700000000,-7.3408666,-233.5154
3701000000,-7.3669505,-233.58553
3702000000,-7.4166975,-233.51103
3703000000,-7.4186091,-233.52586
3704000000,-7.4377747,-233.74744
3705000000,-7.4459257,-233.67537
3706000000,-7.435461,-233.63763
3707000000,-7.4614458,-233.79483
3708000000,-7.4808421,-233.79768
3709000000,-7.5076013,-233.94046
3710000000,-7.5351677,-233.65944
3711000000,-7.5418615,-233.89775
3712000000,-7.5791774,-234.05521
3713000000,-7.6187892,-234.00389
3714000000,-7.6008849,-233.95718
3715000000,-7.6198807,-234.23303
3716000000,-7.6597242,-234.10567
3717000000,-7.655056,-234.14528
3718000000,-7.6788969,-234.14629
3719000000,-7.7097445,-234.34193
3720000000,-7.711906,-234.24509
3721000000,-7.744576,-234.25449
3722000000,-7.7743111,-234.41272
3723000000,-7.815135,-234.42029
3724000000,-7.7996316,-234.47821
3725000000,-7.8345122,-234.37183
3726000000,-7.8533731,-234.31401
3727000000,-7.8688869,-234.5753
3728000000,-7.8735037,-234.53436
3729000000,-7.9017491,-234.67065
3730000000,-7.9163303,-234.5761
3731000000,-7.9323053,-234.45195
3732000000,-7.9609442,-234.59724
3733000000,-7.9744391,-234.58586
3734000000,-8.024147,-234.68454
3735000000,-8.0133171,-234.68935
3736000000,-8.0424299,-234.8736
3737000000,-8.0611591,-234.79234
3738000000,-8.0920582,-234.92879
3739000000,-8.0964651,-234.64861
3740000000,-8.1213236,-234.87103
3741000000,-8.1092024,-234.7211
3742000000,-8.1680689,-234.86168
3743000000,-8.1560478,-234.90581
3744000000,-8.2357254,-235.092
3745000000,-8.2011509,-234.93442
3746000000,-8.2361975,-234.90497
3747000000,-8.2572308,-234.9207
3748000000,-8.260952,-235.17546
3749000000,-8.2914639,-235.08336
3750000000,-8.3306074,-235.17401
3751000000,-8.3538208,-234.97887
3752000000,-8.3310652,-235.25325
3753000000,-8.33992,-234.86661
3754000000,-8.417532,-235.10606
3755000000,-8.4271469,-234.95403
3756000000,-8.4430914,-235.13451
3757000000,-8.4489498,-235.03299
3758000000,-8.498683,-235.16599
3759000000,-8.4741831,-235.25603
3760000000,-8.5079212,-235.09134
3761000000,-8.5384932,-235.10266
3762000000,-8.5492592,-235.27641
3763000000,-8.5443707,-235.2254
3764000000,-8.5921926,-235.33955
3765000000,-8.6030626,-235.1026
3766000000,-8.6252661,-235.30388
3767000000,-8.6381216,-235.06784
3768000000,-8.6582327,-235.32158
3769000000,-8.649292,-235.21666
3770000000,-8.6759758,-235.30057
3771000000,-8.7462702,-235.16866
3772000000,-8.7285547,-235.37218
3773000000,-8.7873631,-235.18642
3774000000,-8.7716179,-235.16342
3775000000,-8.7956362,-235.18361
3776000000,-8.8024492,-235.26314
3777000000,-8.7976046,-235.30139
3778000000,-8.8475428,-235.56082
3779000000,-8.8605938,-235.27544
3780000000,-8.881443,-235.33578
3781000000,-8.90481,-235.47632
3782000000,-8.9171381,-235.12102
3783000000,-8.9279861,-235.34737
3784000000,-8.9472771,-235.19913
3785000000,-8.9783821,-235.34453
3786000000,-8.9988585,-235.27682
3787000000,-8.9975891,-235.19211
3788000000,-9.0457249,-235.39745
3789000000,-9.0514832,-235.26013
3790000000,-9.0687132,-235.28474
3791000000,-9.0823135,-235.12596
3792000000,-9.1131678,-235.41649
3793000000,-9.1305332,-234.89496
3794000000,-9.1580124,-235.21207
3795000000,-9.1624384,-235.20483
3796000000,-9.1730433,-235.39285
3797000000,-9.2094345,-235.1282
3798000000,-9.1967344,-235.06853
3799000000,-9.2115059,-235.3689
3800000000,-9.2496204,-235.18675
3801000000,-9.2588377,-234.99712
3802000000,-9.2950315,-235.08099
3803000000,-9.3306551,-235.12001
3804000000,-9.3054047,-235.05179
3805000000,-9.3525333,-235.11375
3806000000,-9.3596411,-234.82019
3807000000,-9.3750372,-235.1174
3808000000,-9.3786383,-235.15202
3809000000,-9.4302673,-234.94469
3810000000,-9.4037447,-235.27054
3811000000,-9.4061127,-235.0546
3812000000,-9.4746399,-234.993
3813000000,-9.4930506,-234.82144
3814000000,-9.4709425,-235.12524
3815000000,-9.5301876,-234.68427
3816000000,-9.5298424,-234.8286
3817000000,-9.5377884,-235.01346
3818000000,-9.5945721,-234.75111
3819000000,-9.5837574,-234.62184
3820000000,-9.5992641,-234.77171
3821000000,-9.5967808,-234.86937
3822000000,-9.5875072,-234.75844
3823000000,-9.6553907,-234.71101
3824000000,-9.7029066,-234.82555
3825000000,-9.6550875,-234.64131
3826000000,-9.7207212,-234.69205
3827000000,-9.7234964,-234.77939
3828000000,-9.7505713,-234.70753
3829000000,-9.7516603,-234.64549
3830000000,-9.7403374,-234.60492
3831000000,-9.8132858,-234.62088
3832000000,-9.8172226,-234.47195
3833000000,-9.8295631,-234.57582
3834000000,-9.8389082,-234.34566
3835000000,-9.8537779,-234.4639
3836000000,-9.8695297,-234.39084
3837000000,-9.8588123,-234.30789
3838000000,-9.9020348,-234.2746
3839000000,-9.9030733,-234.38365
3840000000,-9.9376497,-234.14369
3841000000,-9.9482813,-234.48048
3842000000,-9.949481,-234.26579
3843000000,-9.9712801,-234.2653
3844000000,-9.9904175,-234.07597
3845000000,-10.035802,-234.04443
3846000000,-10.014705,-234.11562
3847000000,-10.038776,-234.11069
3848000000,-10.04206,-233.85326
3849000000,-10.062716,-234.09685
3850000000,-10.083182,-233.66963
3851000000,-10.119888,-233.8252
3852000000,-10.085397,-233.86456
3853000000,-10.142501,-233.89432
3854000000,-10.159514,-233.82019
3855000000,-10.139308,-233.63034
3856000000,-10.175008,-233.66075
3857000000,-10.195256,-233.49327
3858000000,-10.224442,-233.74008
3859000000,-10.218652,-233.62602
3860000000,-10.213489,-233.51846
3861000000,-10.257069,-233.48499
3862000000,-10.254192,-233.31355
3863000000,-10.263824,-233.39767
3864000000,-10.297512,-233.36319
3865000000,-10.317696,-233.32851
3866000000,-10.338905,-233.19525
3867000000,-10.365181,-233.15094
3868000000,-10.347518,-233.0995
3869000000,-10.371471,-233.2982
3870000000,-10.386672,-233.08376
3871000000,-10.396012,-233.12097
3872000000,-10.426099,-232.91069
3873000000,-10.431433,-232.84183
3874000000,-10.450392,-232.76192
3875000000,-10.467517,-232.82457
3876000000,-10.452333,-232.81943
3877000000,-10.448882,-232.61205
3878000000,-10.513659,-232.58598
3879000000,-10.516291,-232.58545
3880000000,-10.524534,-232.57106
3881000000,-10.537935,-232.65324
3882000000,-10.512578,-232.59644
3883000000,-10.532233,-232.47519
3884000000,-10.575507,-232.31178
3885000000,-10.57502,-232.49289
3886000000,-10.59595,-232.25748
3887000000,-10.619866,-232.20772
3888000000,-10.611884,-232.16133
3889000000,-10.624823,-232.17657
3890000000,-10.661197,-232.11349
3891000000,-10.64464,-232.06122
3892000000,-10.677463,-231.87213
3893000000,-10.674877,-232.12404
3894000000,-10.66304,-231.80511
3895000000,-10.697692,-231.87657
3896000000,-10.708373,-231.63721
3897000000,-10.720722,-231.76363
3898000000,-10.754226,-231.58246
3899000000,-10.754931,-231.68669
3900000000,-10.766282,-231.58688
3901000000,-10.768465,-231.44695
3902000000,-10.775683,-231.41664
3903000000,-10.823203,-231.39178
3904000000,-10.77958,-231.35471
3905000000,-10.80631,-231.40619
3906000000,-10.82383,-231.17284
3907000000,-10.847827,-231.03017
3908000000,-10.877217,-230.97881
3909000000,-10.877015,-230.77234
3910000000,-10.876013,-231.01703
3911000000,-10.886398,-230.91943
3912000000,-10.890343,-230.77541
3913000000,-10.911878,-230.6998
3914000000,-10.902184,-230.77725
3915000000,-10.905109,-230.71423
3916000000,-10.927885,-230.5844
3917000000,-10.938059,-230.70511
3918000000,-10.958597,-230.27911
3919000000,-10.969283,-230.50731
3920000000,-11.007419,-230.47446
3921000000,-10.963226,-230.17473
3922000000,-10.993581,-230.22145
3923000000,-11.019506,-229.95416
3924000000,-11.033894,-230.02432
3925000000,-11.023879,-229.93794
3926000000,-11.015348,-230.08702
3927000000,-11.041529,-229.83833
3928000000,-11.056887,-229.70525
3929000000,-11.046943,-229.86333
3930000000,-11.088651,-229.72072
3931000000,-11.098631,-229.66978
3932000000,-11.04491,-229.60954
3933000000,-11.096121,-229.70901
3934000000,-11.093337,-229.54184
3935000000,-11.115301,-229.33311
3936000000,-11.094275,-229.35223
3937000000,-11.137404,-229.11662
3938000000,-11.134332,-229.32793
3939000000,-11.181561,-229.23091
3940000000,-11.182192,-229.29776
3941000000,-11.164687,-228.94821
3942000000,-11.19394,-228.79305
3943000000,-11.191794,-228.79945
3944000000,-11.187573,-228.80247
3945000000,-11.190587,-228.84322
3946000000,-11.168756,-228.67952
3947000000,-11.219916,-228.54449
3948000000,-11.216222,-228.7063
3949000000,-11.225553,-228.70332
3950000000,-11.252988,-228.31303
3951000000,-11.22646,-228.58093
3952000000,-11.233866,-228.16898
3953000000,-11.238061,-228.0499
3954000000,-11.276286,-227.99884
3955000000,-11.266991,-227.87526
3956000000,-11.277035,-227.93845
3957000000,-11.268878,-227.76007
3958000000,-11.307226,-228.06888
3959000000,-11.247168,-227.76007
3960000000,-11.305223,-227.95012
3961000000,-11.285975,-227.72655
3962000000,-11.338688,-227.66579
3963000000,-11.308439,-227.45903
3964000000,-11.340064,-227.46875
3965000000,-11.289797,-227.24457
3966000000,-11.318294,-227.44623
3967000000,-11.340294,-226.99101
3968000000,-11.347192,-227.33467
3969000000,-11.349708,-226.77805
3970000000,-11.357842,-226.91705
3971000000,-11.365449,-227.08768
3972000000,-11.379523,-226.73656
3973000000,-11.350602,-226.77602
3974000000,-11.361176,-226.8221
3975000000,-11.372901,-226.78302
3976000000,-11.388592,-226.56097
3977000000,-11.374869,-226.67842
3978000000,-11.399602,-226.50281
3979000000,-11.377149,-226.57654
3980000000,-11.382446,-226.46599
3981000000,-11.442456,-226.43393
3982000000,-11.419208,-226.27744
3983000000,-11.402081,-226.06081
3984000000,-11.417038,-225.9836
3985000000,-11.415153,-226.09407
3986000000,-11.430969,-225.99409
3987000000,-11.400758,-226.00076
3988000000,-11.441559,-225.76158
3989000000,-11.421784,-225.87149
3990000000,-11.426642,-225.69197
3991000000,-11.447258,-225.57379
3992000000,-11.440359,-225.62186
3993000000,-11.496167,-225.80377
3994000000,-11.457142,-225.42111
3995000000,-11.475019,-225.16846
3996000000,-11.474174,-225.26888
3997000000,-11.470605,-225.21912
3998000000,-11.46256,-225.00148
3999000000,-11.471081,-225.20056
4000000000,-11.48174,-225.11238
4001000000,-11.43238,-224.86548
4002000000,-11.459039,-224.83311
4003000000,-11.463206,-224.72649
4004000000,-11.478198,-224.5173
4005000000,-11.461118,-224.52843
4006000000,-11.471056,-224.7993
4007000000,-11.47075,-224.57605
4008000000,-11.470533,-224.3933
4009000000,-11.52961,-224.40645
4010000000,-11.523514,-224.34135
4011000000,-11.482477,-224.30161
4012000000,-11.519743,-224.23509
4013000000,-11.508291,-224.19777
4014000000,-11.51097,-223.87985
4015000000,-11.491943,-224.15947
4016000000,-11.49484,-224.10399
4017000000,-11.519824,-223.83037
4018000000,-11.520368,-223.8705
4019000000,-11.501023,-223.67511
4020000000,-11.507233,-223.52432
4021000000,-11.475213,-223.58426
4022000000,-11.519659,-223.5994
4023000000,-11.521504,-223.51122
4024000000,-11.503363,-223.21158
4025000000,-11.505556,-223.22499
4026000000,-11.488667,-223.39876
4027000000,-11.513576,-223.36296
4028000000,-11.530653,-223.19327
4029000000,-11.516318,-223.07713
4030000000,-11.503897,-223.28445
4031000000,-11.527675,-223.16521
4032000000,-11.506906,-223.01617
4033000000,-11.512828,-223.00826
4034000000,-11.489587,-222.81784
4035000000,-11.513164,-222.70222
4036000000,-11.509856,-222.6205
4037000000,-11.49433,-222.56364
4038000000,-11.507227,-222.56325
4039000000,-11.494243,-222.67619
4040000000,-11.502743,-222.68254
4041000000,-11.534589,-222.51012
4042000000,-11.529832,-222.34868
4043000000,-11.519331,-222.23959
4044000000,-11.51396,-222.22623
4045000000,-11.520884,-222.16644
4046000000,-11.487654,-221.9397
4047000000,-11.491571,-222.11664
4048000000,-11.507286,-221.98756
4049000000,-11.483143,-221.95398
4050000000,-11.465471,-221.72443
4051000000,-11.512082,-221.88086
4052000000,-11.504769,-221.78322
4053000000,-11.489507,-221.52802
4054000000,-11.510106,-221.85982
4055000000,-11.489593,-221.70694
4056000000,-11.484392,-221.59756
4057000000,-11.485203,-221.4873
4058000000,-11.483195,-221.61179
4059000000,-11.517341,-221.53542
4060000000,-11.510772,-221.49271
4061000000,-11.514951,-221.3
4062000000,-11.504241,-221.19562
4063000000,-11.498874,-221.18388
4064000000,-11.49353,-221.0947
4065000000,-11.487771,-220.95369
4066000000,-11.470194,-220.98871
4067000000,-11.443292,-221.00249
4068000000,-11.476917,-220.77509
4069000000,-11.487886,-221.00211
4070000000,-11.431002,-220.80191
4071000000,-11.45725,-220.6088
4072000000,-11.462873,-220.72531
4073000000,-11.456188,-220.57803
4074000000,-11.45106,-220.54431
4075000000,-11.448466,-220.55643
4076000000,-11.46964,-220.42047
4077000000,-11.444403,-220.45557
4078000000,-11.437099,-220.36256
4079000000,-11.442562,-220.45747
4080000000,-11.427563,-220.27301
4081000000,-11.41873,-219.94281
4082000000,-11.449262,-220.17409
4083000000,-11.420994,-219.91774
4084000000,-11.407123,-220.07855
4085000000,-11.406822,-220.06967
4086000000,-11.421154,-220.14609
4087000000,-11.442977,-219.97755
4088000000,-11.405969,-219.9801
4089000000,-11.424454,-219.86426
4090000000,-11.420945,-219.8826
4091000000,-11.410114,-219.55432
4092000000,-11.423429,-219.60231
4093000000,-11.392083,-219.61436
4094000000,-11.440094,-219.64381
4095000000,-11.410342,-219.63113
4096000000,-11.401545,-219.30322
4097000000,-11.374436,-219.37163
4098000000,-11.407476,-219.43025
4099000000,-11.387516,-219.51146
4100000000,-11.386458,-219.26131
4101000000,-11.372644,-218.97481
4102000000,-11.376708,-219.18993
4103000000,-11.370551,-219.17186
4104000000,-11.364699,-219.16313
4105000000,-11.329521,-218.90492
4106000000,-11.358614,-219.10143
4107000000,-11.359354,-218.9361
4108000000,-11.369162,-218.9005
4109000000,-11.294724,-218.92039
4110000000,-11.322037,-218.78241
4111000000,-11.314136,-218.72153
4112000000,-11.312549,-218.69612
4113000000,-11.318961,-218.6924
4114000000,-11.301866,-218.61803
4115000000,-11.263723,-218.61633
4116000000,-11.281003,-218.51863
4117000000,-11.296792,-218.57515
4118000000,-11.27851,-218.44026
4119000000,-11.268626,-218.46169
4120000000,-11.265385,-218.3139
4121000000,-11.262136,-218.34525
4122000000,-11.249044,-218.49675
4123000000,-11.263225,-218.42931
4124000000,-11.228902,-218.11275
4125000000,-11.280405,-218.10748
4126000000,-11.24407,-218.09894
4127000000,-11.205469,-218.05716
4128000000,-11.205606,-218.17661
4129000000,-11.211241,-218.2498
4130000000,-11.199129,-218.0968
4131000000,-11.22167,-217.93335
4132000000,-11.209405,-217.96013
4133000000,-11.216799,-217.98567
4134000000,-11.172244,-218.15459
4135000000,-11.197851,-217.75421
4136000000,-11.175675,-217.94655
4137000000,-11.209106,-217.74696
4138000000,-11.183354,-217.69743
4139000000,-11.152116,-217.67308
4140000000,-11.193834,-217.81023
4141000000,-11.150743,-217.68445
4142000000,-11.158603,-217.64568
4143000000,-11.135041,-217.56778
4144000000,-11.137784,-217.48106
4145000000,-11.118091,-217.78764
4146000000,-11.122169,-217.57547
4147000000,-11.102661,-217.58423
4148000000,-11.091825,-217.416
4149000000,-11.130328,-217.34792
4150000000,-11.094583,-217.32935
4151000000,-11.111443,-217.40942
4152000000,-11.109249,-217.30408
4153000000,-11.082353,-217.314
4154000000,-11.08954,-217.35599
4155000000,-11.073245,-217.29431
4156000000,-11.059523,-217.29492
4157000000,-11.052031,-217.14458
4158000000,-11.065838,-217.38879
4159000000,-11.047322,-217.07661
4160000000,-11.050989,-217.24147
4161000000,-11.026667,-217.17247
4162000000,-11.025512,-216.97438
4163000000,-11.040869,-217.15727
4164000000,-11.003207,-217.09348
4165000000,-10.972673,-216.96698
4166000000,-10.980515,-217.01222
4167000000,-10.978363,-216.87706
4168000000,-10.994745,-216.95599
4169000000,-10.967073,-216.86032
4170000000,-10.986414,-216.90176
4171000000,-10.976798,-216.77731
4172000000,-10.93541,-216.82133
4173000000,-10.953526,-216.79385
4174000000,-10.939206,-217.06596
4175000000,-10.943666,-216.73341
4176000000,-10.946704,-216.8203
4177000000,-10.906205,-216.75101
4178000000,-10.911127,-216.61133
4179000000,-10.896446,-216.98434
4180000000,-10.914388,-216.73483
4181000000,-10.897577,-216.71594
4182000000,-10.861755,-216.50937
4183000000,-10.915977,-216.43742
4184000000,-10.890564,-216.4505
4185000000,-10.853374,-216.53242
4186000000,-10.860443,-216.5695
4187000000,-10.874607,-216.85213
4188000000,-10.860738,-216.65958
4189000000,-10.818144,-216.42578
4190000000,-10.846501,-216.27011
4191000000,-10.817106,-216.46349
4192000000,-10.813858,-216.4054
4193000000,-10.807439,-216.38643
4194000000,-10.827538,-216.25662
4195000000,-10.807873,-216.44315
4196000000,-10.770855,-216.25829
4197000000,-10.766948,-216.28
4198000000,-10.773389,-216.32628
4199000000,-10.767097,-216.45432
4200000000,-10.736928,-216.31032
4201000000,-10.722371,-216.38525
4202000000,-10.711072,-216.17433
4203000000,-10.718235,-215.99637
4204000000,-10.725231,-216.37216
4205000000,-10.698215,-216.22356
4206000000,-10.701316,-216.16846
4207000000,-10.714171,-216.36298
4208000000,-10.723358,-216.07213
4209000000,-10.689895,-216.12903
4210000000,-10.646007,-216.3615
4211000000,-10.662195,-215.99599
4212000000,-10.686325,-216.185
4213000000,-10.680458,-216.18141
4214000000,-10.644439,-216.25246
4215000000,-10.64209,-216.15143
4216000000,-10.674747,-215.73012
4217000000,-10.632735,-216.22614
4218000000,-10.60001,-216.05011
4219000000,-10.606701,-216.04076
4220000000,-10.596586,-216.05237
4221000000,-10.579712,-216.23672
4222000000,-10.606284,-216.06421
4223000000,-10.565751,-216.31339
4224000000,-10.543499,-216.10681
4225000000,-10.579812,-216.00069
4226000000,-10.529886,-216.17534
4227000000,-10.543353,-216.23663
4228000000,-10.545536,-216.13786
4229000000,-10.538853,-216.11772
4230000000,-10.509806,-216.034
4231000000,-10.520551,-215.88321
4232000000,-10.493049,-215.95169
4233000000,-10.530155,-216.11829
4234000000,-10.48794,-216.1153
4235000000,-10.480468,-216.1739
4236000000,-10.484015,-216.00923
4237000000,-10.472217,-216.20157
4238000000,-10.477256,-215.79152
4239000000,-10.465523,-216.06548
4240000000,-10.432243,-216.09683
4241000000,-10.419135,-215.9425
4242000000,-10.413774,-216.01474
4243000000,-10.424946,-216.03271
4244000000,-10.432589,-216.22943
4245000000,-10.413294,-216.02448
4246000000,-10.372903,-216.05318
4247000000,-10.39966,-216.01639
4248000000,-10.405944,-216.10205
4249000000,-10.37423,-215.95438
4250000000,-10.364578,-216.02237
4251000000,-10.317207,-216.09677
4252000000,-10.368513,-216.11826
4253000000,-10.373231,-215.98425
4254000000,-10.302709,-216.04201
4255000000,-10.353365,-215.94273
4256000000,-10.288239,-216.13045
4257000000,-10.302431,-216.22966
4258000000,-10.301191,-216.05913
4259000000,-10.268922,-215.96358
4260000000,-10.266486,-216.19115
4261000000,-10.270153,-215.90433
4262000000,-10.255449,-216.11218
4263000000,-10.24028,-215.91879
4264000000,-10.232046,-216.04337
4265000000,-10.268068,-216.06352
4266000000,-10.252348,-216.1165
4267000000,-10.219215,-215.93404
4268000000,-10.23109,-216.15273
4269000000,-10.20593,-216.10641
4270000000,-10.209684,-216.0724
4271000000,-10.193522,-216.1907
4272000000,-10.179833,-216.15237
4273000000,-10.178307,-216.2455
4274000000,-10.169353,-216.00974
4275000000,-10.138316,-215.9886
4276000000,-10.168675,-216.22357
4277000000,-10.169293,-216.29503
4278000000,-10.120525,-216.21593
4279000000,-10.112416,-216.25238
4280000000,-10.109735,-216.41562
4281000000,-10.108319,-216.1763
4282000000,-10.101446,-216.18181
4283000000,-10.106745,-216.03288
4284000000,-10.063293,-216.34933
4285000000,-10.087672,-216.28665
4286000000,-10.057528,-216.11867
4287000000,-10.10203,-216.49686
4288000000,-10.060169,-216.0844
4289000000,-10.056493,-216.20647
4290000000,-10.049777,-216.28258
4291000000,-10.049968,-216.30525
4292000000,-10.030843,-216.36746
4293000000,-10.018608,-216.4361
4294000000,-10.032153,-216.15898
4295000000,-9.978137,-216.42084
4296000000,-9.9989939,-216.27388
4297000000,-9.9851761,-216.43436
4298000000,-9.9610443,-216.48558
4299000000,-9.9760828,-216.4473
4300000000,-9.9486694,-216.35757
4301000000,-9.9491615,-216.35281
4302000000,-9.942893,-216.59962
4303000000,-9.8965845,-216.23871
4304000000,-9.9289026,-216.54918
4305000000,-9.9213009,-216.46712
4306000000,-9.9138594,-216.69873
4307000000,-9.9050426,-216.47153
4308000000,-9.8821077,-216.65533
4309000000,-9.8332205,-216.49023
4310000000,-9.8462038,-216.53516
4311000000,-9.8838863,-216.46338
4312000000,-9.8639622,-216.44469
4313000000,-9.8695698,-216.62857
4314000000,-9.8484268,-216.87149
4315000000,-9.8320961,-216.63445
4316000000,-9.8011665,-216.57059
4317000000,-9.8050356,-216.9416
4318000000,-9.795187,-216.62018
4319000000,-9.7946177,-216.73944
4320000000,-9.7786627,-216.63667
4321000000,-9.7800007,-216.81039
4322000000,-9.7930527,-216.94472
4323000000,-9.7738333,-216.85326
4324000000,-9.7453785,-216.80031
4325000000,-9.7664175,-216.6653
4326000000,-9.7522678,-216.77489
4327000000,-9.714447,-216.86137
4328000000,-9.7117138,-216.8969
4329000000,-9.7360153,-216.98888
4330000000,-9.7332277,-216.79353
4331000000,-9.6854649,-216.92654
4332000000,-9.7261724,-216.97519
4333000000,-9.6695871,-217.10112
4334000000,-9.6800089,-217.15778
4335000000,-9.6651812,-217.06165
4336000000,-9.6558447,-217.08917
4337000000,-9.6448154,-217.01306
4338000000,-9.6516275,-217.35059
4339000000,-9.6516619,-217.40497
4340000000,-9.6282396,-216.93723
4341000000,-9.5948448,-217.23532
4342000000,-9.6066084,-217.28793
4343000000,-9.5970392,-217.15671
4344000000,-9.6017532,-217.40819
4345000000,-9.6334047,-217.2693
4346000000,-9.5869312,-217.28299
4347000000,-9.5585117,-217.22043
4348000000,-9.5652885,-217.46068
4349000000,-9.5410814,-217.36116
4350000000,-9.5414448,-217.27213
4351000000,-9.5369081,-217.42706
4352000000,-9.5344477,-217.4785
4353000000,-9.5243216,-217.38809
4354000000,-9.5182257,-217.3932
4355000000,-9.5118141,-217.71204
4356000000,-9.5031967,-217.60204
4357000000,-9.4891005,-217.68274
4358000000,-9.5087547,-217.65836
4359000000,-9.4936266,-217.58913
4360000000,-9.4765368,-217.68845
4361000000,-9.4594765,-217.78694
4362000000,-9.4507532,-217.77658
4363000000,-9.4320135,-217.72498
4364000000,-9.4373865,-217.75842
4365000000,-9.4348373,-218.00757
4366000000,-9.3930807,-217.70583
4367000000,-9.4002857,-217.80531
4368000000,-9.3841906,-217.80017
4369000000,-9.3918934,-217.98759
4370000000,-9.3541136,-217.93384
4371000000,-9.4098005,-217.99896
4372000000,-9.374505,-217.97069
4373000000,-9.3757915,-218.09666
4374000000,-9.3573179,-218.00133
4375000000,-9.3396053,-218.20497
4376000000,-9.3473177,-218.28951
4377000000,-9.3528385,-218.19878
4378000000,-9.321188,-218.19875
4379000000,-9.3203793,-218.23354
4380000000,-9.3041086,-218.19681
4381000000,-9.3013954,-218.30368
4382000000,-9.2860479,-218.19324
4383000000,-9.274087,-218.3448
4384000000,-9.2692633,-218.28288
4385000000,-9.2529173,-218.41672
4386000000,-9.2631483,-218.37799
4387000000,-9.2413473,-218.36522
4388000000,-9.2563276,-218.48322
4389000000,-9.2520647,-218.50293
4390000000,-9.2270861,-218.61205
4391000000,-9.2471914,-218.68271
4392000000,-9.2036419,-218.74071
4393000000,-9.1812286,-218.49763
4394000000,-9.1762533,-218.60612
4395000000,-9.206296,-218.62495
4396000000,-9.1714048,-218.67926
4397000000,-9.1756468,-218.86906
4398000000,-9.1542587,-218.81247
4399000000,-9.1649036,-218.8378
4400000000,-9.1442385,-218.93504
4401000000,-9.1384478,-218.94193
4402000000,-9.1518803,-218.88704
4403000000,-9.1085854,-218.99457
4404000000,-9.1301727,-219.04913
4405000000,-9.0987062,-218.99217
4406000000,-9.0879755,-219.23801
4407000000,-9.0696774,-219.32716
4408000000,-9.0843401,-219.37785
4409000000,-9.0634518,-219.11395
4410000000,-9.0739298,-219.22318
4411000000,-9.0646152,-219.41154
4412000000,-9.0805578,-219.36241
4413000000,-9.0333586,-219.35287
4414000000,-9.0095558,-219.66733
4415000000,-9.0243874,-219.46555
4416000000,-9.0426369,-219.51755
4417000000,-9.016201,-219.46681
4418000000,-9.037447,-219.59752
4419000000,-8.994318,-219.66556
4420000000,-8.9849806,-219.8204
4421000000,-9.0015421,-219.73254
4422000000,-8.9841671,-219.64075
4423000000,-8.9723892,-219.57939
4424000000,-8.9953327,-219.82793
4425000000,-8.9616117,-219.85321
4426000000,-8.9562473,-219.74352
4427000000,-8.9739342,-219.76172
4428000000,-8.9648161,-219.96742
4429000000,-8.9373035,-219.96329
4430000000,-8.9226513,-219.98444
4431000000,-8.9115887,-220.08145
4432000000,-8.9453096,-220.07797
4433000000,-8.8698139,-220.13789
4434000000,-8.8807011,-220.12054
4435000000,-8.8834276,-220.17918
4436000000,-8.8802795,-220.08757
4437000000,-8.8789454,-220.3804
4438000000,-8.8433313,-220.3577
4439000000,-8.8578558,-220.27654
4440000000,-8.8636198,-220.49098
4441000000,-8.829587,-220.41692
4442000000,-8.8574648,-220.49521
4443000000,-8.8314219,-220.36089
4444000000,-8.8319025,-220.52631
4445000000,-8.7898397,-220.55063
4446000000,-8.8287096,-220.80463
4447000000,-8.7897501,-220.73305
4448000000,-8.7893848,-220.83569
4449000000,-8.8078365,-220.84145
4450000000,-8.7642069,-220.95566
4451000000,-8.7831812,-220.85857
4452000000,-8.7634859,-220.84
4453000000,-8.7536507,-221.04568
4454000000,-8.709322,-221.07541
4455000000,-8.7148237,-221.15013
4456000000,-8.6838121,-221.07173
4457000000,-8.7556982,-221.24522
4458000000,-8.7289371,-221.03058
4459000000,-8.7202654,-221.4446
4460000000,-8.704072,-220.99414
4461000000,-8.6994877,-221.12807
4462000000,-8.6722078,-221.29991
4463000000,-8.6503639,-221.22302
4464000000,-8.6525364,-221.34871
4465000000,-8.6796417,-221.35393
4466000000,-8.6784601,-221.45668
4467000000,-8.6849794,-221.5535
4468000000,-8.6500425,-221.47301
4469000000,-8.6153336,-221.57912
4470000000,-8.6410656,-221.64493
4471000000,-8.6333714,-221.7583
4472000000,-8.6043444,-221.7487
4473000000,-8.6019058,-221.77751
4474000000,-8.5834551,-221.88803
4475000000,-8.5972862,-221.97876
4476000000,-8.5753393,-222.13818
4477000000,-8.5901594,-221.98518
4478000000,-8.5577412,-222.03403
4479000000,-8.5651512,-221.87672
4480000000,-8.5312901,-222.13101
4481000000,-8.5521278,-222.14551
4482000000,-8.5566301,-222.24739
4483000000,-8.5383587,-222.22983
4484000000,-8.5138884,-222.04773
4485000000,-8.5534782,-222.14728
4486000000,-8.496069,-222.23978
4487000000,-8.4938908,-222.43811
4488000000,-8.4988842,-222.50937
4489000000,-8.4571457,-222.69406
4490000000,-8.454689,-222.6185
4491000000,-8.4577599,-222.63106
4492000000,-8.4608259,-222.73758
4493000000,-8.4464731,-222.96524
4494000000,-8.4614496,-222.74634
4495000000,-8.4427271,-222.51866
4496000000,-8.4258461,-222.7924
4497000000,-8.4052067,-223.02025
4498000000,-8.4277096,-222.79268
4499000000,-8.4118624,-222.9453
4500000000,-8.4428358,-223.03069
4501000000,-8.4130173,-223.28314
4502000000,-8.3794088,-223.2076
4503000000,-8.3706522,-223.05109
4504000000,-8.3875265,-223.17059
4505000000,-8.3742142,-223.1982
4506000000,-8.372901,-223.46214
4507000000,-8.3969488,-223.54222
4508000000,-8.3649626,-223.39026
4509000000,-8.3740273,-223.59401
4510000000,-8.3348475,-223.55173
4511000000,-8.3432102,-223.56827
4512000000,-8.353816,-223.75604
4513000000,-8.3284006,-223.68703
4514000000,-8.3162861,-223.87677
4515000000,-8.3268766,-223.81015
4516000000,-8.2996044,-224.00441
4517000000,-8.2708569,-224.01659
4518000000,-8.3030281,-223.87709
4519000000,-8.271327,-224.03424
4520000000,-8.2762585,-223.97519
4521000000,-8.2756271,-224.18405
4522000000,-8.2764301,-224.12482
4523000000,-8.2361336,-224.1335
4524000000,-8.250988,-224.1649
4525000000,-8.2502823,-224.20953
4526000000,-8.2604771,-224.20569
4527000000,-8.2474022,-224.28354
4528000000,-8.2389383,-224.4657
4529000000,-8.2134466,-224.48204
4530000000,-8.2042236,-224.49396
4531000000,-8.231164,-224.65382
4532000000,-8.1866455,-224.61078
4533000000,-8.1691599,-224.56282
4534000000,-8.1730795,-224.87808
4535000000,-8.1889954,-224.87692
4536000000,-8.1736021,-224.9102
4537000000,-8.1546059,-224.93741
4538000000,-8.1484156,-224.93301
4539000000,-8.1592407,-224.92365
4540000000,-8.1556473,-225.23827
4541000000,-8.1162376,-225.16338
4542000000,-8.1532364,-225.24545
4543000000,-8.0965872,-225.20384
4544000000,-8.1158457,-225.17714
4545000000,-8.1129656,-225.22562
4546000000,-8.09552,-225.63565
4547000000,-8.0923824,-225.382
4548000000,-8.0907106,-225.42491
4549000000,-8.1078548,-225.76125
4550000000,-8.0768681,-225.60069
4551000000,-8.0590143,-225.68231
4552000000,-8.0641117,-225.66081
4553000000,-8.0446587,-225.6572
4554000000,-8.0570583,-225.82184
4555000000,-8.0422707,-225.76616
4556000000,-8.0279598,-225.79178
4557000000,-8.0333605,-226.03578
4558000000,-8.0190697,-226.07899
4559000000,-8.0069208,-226.14856
4560000000,-8.0107594,-226.13647
4561000000,-8.0225401,-226.39917
4562000000,-7.9911218,-226.31604
4563000000,-8.0186644,-226.43861
4564000000,-7.968667,-226.17792
4565000000,-7.9917994,-226.42793
4566000000,-7.9648461,-226.45731
4567000000,-7.9701495,-226.59251
4568000000,-7.9607286,-226.46793
4569000000,-7.9691677,-226.64957
4570000000,-7.9481506,-226.67981
4571000000,-7.9401069,-226.90697
4572000000,-7.9460983,-226.80247
4573000000,-7.9152665,-226.84702
4574000000,-7.9199581,-226.86415
4575000000,-7.9262328,-226.92212
4576000000,-7.8763742,-227.13196
4577000000,-7.9079871,-227.24277
4578000000,-7.9101377,-227.12827
4579000000,-7.8879075,-227.53662
4580000000,-7.899087,-227.45886
4581000000,-7.887579,-227.55164
4582000000,-7.8738661,-227.58337
4583000000,-7.8675036,-227.45284
4584000000,-7.8223386,-227.65816
4585000000,-7.8497953,-227.54343
4586000000,-7.8482938,-227.93181
4587000000,-7.8304272,-227.59863
4588000000,-7.8438945,-227.71461
4589000000,-7.8123231,-227.59358
4590000000,-7.8203621,-227.80402
4591000000,-7.8417382,-227.96439
4592000000,-7.7993035,-227.97266
4593000000,-7.8268619,-228.06068
4594000000,-7.7861691,-228.08218
4595000000,-7.7983332,-228.14034
4596000000,-7.7750778,-228.31044
4597000000,-7.8058481,-228.27097
4598000000,-7.7698526,-228.24832
4599000000,-7.758513,-228.21277
4600000000,-7.7721581,-228.41779
4601000000,-7.7733564,-228.49947
4602000000,-7.7410712,-228.39433
4603000000,-7.7352047,-228.58589
4604000000,-7.7404113,-228.73981
4605000000,-7.7365122,-228.76158
4606000000,-7.7239575,-228.77977
4607000000,-7.7182913,-228.83276
4608000000,-7.7292271,-228.86526
4609000000,-7.706634,-229.04135
4610000000,-7.6936083,-229.03732
4611000000,-7.6940451,-229.06137
4612000000,-7.7034583,-229.08688
4613000000,-7.6738935,-229.3082
4614000000,-7.6674137,-229.35219
4615000000,-7.6386046,-229.13646
4616000000,-7.6744642,-229.26883
4617000000,-7.6686449,-229.631
4618000000,-7.6712518,-229.44849
4619000000,-7.6350479,-229.55501
4620000000,-7.6519737,-229.782
4621000000,-7.6349778,-229.74104
4622000000,-7.6422906,-229.70183
4623000000,-7.6377487,-229.72079
4624000000,-7.6373844,-229.68246
4625000000,-7.6194367,-229.77675
4626000000,-7.6106029,-230.07088
4627000000,-7.6231446,-230.13142
4628000000,-7.5969515,-229.99236
4629000000,-7.581243,-230.27025
4630000000,-7.6101632,-230.26891
4631000000,-7.6203623,-230.29242
4632000000,-7.5694981,-230.30559
4633000000,-7.5733771,-230.505
4634000000,-7.536056,-230.47302
4635000000,-7.5473084,-230.51685
4636000000,-7.5725861,-230.54579
4637000000,-7.5405354,-230.71558
4638000000,-7.5736523,-230.72249
4639000000,-7.5239668,-230.70642
4640000000,-7.5490522,-230.90761
4641000000,-7.5272164,-230.79691
4642000000,-7.5369821,-230.91998
4643000000,-7.5320892,-231.16144
4644000000,-7.5182385,-231.16481
4645000000,-7.5176973,-231.12662
4646000000,-7.5071015,-231.24649
4647000000,-7.5071449,-231.34126
4648000000,-7.4696245,-231.47044
4649000000,-7.4959741,-231.30386
4650000000,-7.464572,-231.64018
4651000000,-7.4761825,-231.54131
4652000000,-7.4570422,-231.578
4653000000,-7.4635453,-231.74649
4654000000,-7.4485488,-231.4877
4655000000,-7.4624262,-231.77196
4656000000,-7.4255595,-232.10262
4657000000,-7.4579158,-231.87695
4658000000,-7.4334693,-232.04753
4659000000,-7.4226699,-232.14966
4660000000,-7.4192872,-231.91872
4661000000,-7.4249539,-232.12849
4662000000,-7.404644,-232.23654
4663000000,-7.4024968,-232.33148
4664000000,-7.3740726,-232.49413
4665000000,-7.3952146,-232.41063
4666000000,-7.4140253,-232.50298
4667000000,-7.3841295,-232.66953
4668000000,-7.3469734,-232.42915
4669000000,-7.3806782,-232.61813
4670000000,-7.373601,-232.70088
4671000000,-7.3725533,-232.86191
4672000000,-7.3793955,-232.98541
4673000000,-7.342237,-232.85391
4674000000,-7.3460302,-233.0918
4675000000,-7.3327217,-233.03242
4676000000,-7.3592701,-233.1425
4677000000,-7.3405576,-233.0769
4678000000,-7.3217955,-233.16173
4679000000,-7.3090887,-233.40218
4680000000,-7.3386083,-233.35016
4681000000,-7.307066,-233.32298
4682000000,-7.29248,-233.58182
4683000000,-7.2926164,-233.45709
4684000000,-7.2990856,-233.52461
4685000000,-7.3000236,-233.79016
4686000000,-7.3030872,-233.69749
4687000000,-7.271153,-233.74681
4688000000,-7.294836,-233.75238
4689000000,-7.2599363,-233.97676
4690000000,-7.2763791,-233.9359
4691000000,-7.2984629,-234.07771
4692000000,-7.2591071,-234.13231
4693000000,-7.2660441,-234.1777
4694000000,-7.2375817,-234.32841
4695000000,-7.2277918,-234.31584
4696000000,-7.2499332,-234.63812
4697000000,-7.222733,-234.42993
4698000000,-7.2220354,-234.51862
4699000000,-7.2213573,-234.70615
4700000000,-7.2115631,-234.71407
4701000000,-7.2265067,-234.82593
4702000000,-7.2034197,-234.63216
4703000000,-7.1815972,-234.8678
4704000000,-7.1895261,-235.07309
4705000000,-7.1857858,-234.99377
4706000000,-7.2022262,-235.1813
4707000000,-7.181438,-235.21051
4708000000,-7.1636992,-235.15585
4709000000,-7.1355281,-235.12431
4710000000,-7.1360598,-235.31155
4711000000,-7.1457734,-235.16025
4712000000,-7.1609874,-235.39302
4713000000,-7.1624355,-235.53386
4714000000,-7.1300459,-235.63719
4715000000,-7.1406851,-235.58629
4716000000,-7.13659,-235.66264
4717000000,-7.1374822,-235.69087
4718000000,-7.1196194,-235.7272
4719000000,-7.1466036,-235.97479
4720000000,-7.1391101,-236.09918
4721000000,-7.1215324,-236.0141
4722000000,-7.1299319,-236.10222
4723000000,-7.1000872,-236.11871
4724000000,-7.1160994,-236.14543
4725000000,-7.061142,-236.31845
4726000000,-7.0844717,-236.35065
4727000000,-7.1009483,-236.519
4728000000,-7.0880194,-236.58109
4729000000,-7.0622725,-236.47218
4730000000,-7.0719104,-236.54442
4731000000,-7.0620384,-236.633
4732000000,-7.0417037,-236.66614
4733000000,-7.0637746,-236.75192
4734000000,-7.0213094,-236.84544
4735000000,-7.0372748,-236.91864
4736000000,-7.0318336,-236.99634
4737000000,-7.0446992,-237.29059
4738000000,-7.028501,-237.16953
4739000000,-7.040978,-237.10493
4740000000,-7.0240607,-237.38142
4741000000,-7.0202465,-237.45425
4742000000,-6.9879246,-237.15366
4743000000,-7.0105271,-237.48784
4744000000,-6.9854498,-237.58887
4745000000,-6.9953961,-237.65999
4746000000,-6.9804249,-237.7308
4747000000,-6.9747705,-237.87741
4748000000,-6.9869995,-237.85616
4749000000,-6.9727097,-237.98352
4750000000,-6.9698601,-237.94267
4751000000,-6.9963069,-238.03847
4752000000,-6.9387074,-238.18124
4753000000,-6.9474735,-238.29675
4754000000,-6.9252157,-238.25662
4755000000,-6.9525762,-238.40344
4756000000,-6.9423556,-238.46317
4757000000,-6.9309115,-238.50975
4758000000,-6.936161,-238.42104
4759000000,-6.8966556,-238.45114
4760000000,-6.9160018,-238.44261
4761000000,-6.9325247,-238.8232
4762000000,-6.9412799,-238.83864
4763000000,-6.9067283,-238.84926
4764000000,-6.9051003,-238.93365
4765000000,-6.8987832,-238.98747
4766000000,-6.8781123,-239.24551
4767000000,-6.8941979,-239.20413
4768000000,-6.8970499,-239.20766
4769000000,-6.8908048,-239.3831
4770000000,-6.8734336,-239.4471
4771000000,-6.8679185,-239.50296
4772000000,-6.8371711,-239.60712
4773000000,-6.8493133,-239.55159
4774000000,-6.8642507,-239.65495
4775000000,-6.8095808,-239.70555
4776000000,-6.8455729,-240.00818
4777000000,-6.8390479,-239.92043
4778000000,-6.8333488,-239.9326
4779000000,-6.825788,-240.13716
4780000000,-6.8172808,-240.31439
4781000000,-6.7983313,-240.33658
4782000000,-6.8027234,-240.20961
4783000000,-6.8176684,-240.36253
4784000000,-6.7991233,-240.48927
4785000000,-6.7616754,-240.50839
4786000000,-6.7856326,-240.70592
4787000000,-6.7822742,-240.67612
4788000000,-6.8006248,-240.92654
4789000000,-6.7937922,-240.85431
4790000000,-6.775784,-240.9044
4791000000,-6.8232865,-240.92517
4792000000,-6.7714372,-240.92676
4793000000,-6.7725921,-241.19917
4794000000,-6.7486005,-241.10841
4795000000,-6.7699571,-241.34485
4796000000,-6.7769341,-241.30348
4797000000,-6.7739153,-241.38416
4798000000,-6.7372484,-241.38919
4799000000,-6.749505,-241.47646
4800000000,-6.7203503,-241.56366
4801000000,-6.7113967,-241.70567
4802000000,-6.7362809,-241.69617
4803000000,-6.7190008,-241.98808
4804000000,-6.7067814,-241.93385
4805000000,-6.7192154,-241.97885
4806000000,-6.730721,-242.16214
4807000000,-6.6864462,-242.2043
4808000000,-6.7083244,-242.34364
4809000000,-6.7131639,-242.30736
4810000000,-6.7038469,-242.34435
4811000000,-6.7181478,-242.49638
4812000000,-6.6830945,-242.46773
4813000000,-6.6665201,-242.61717
4814000000,-6.6868682,-242.62149
4815000000,-6.6929069,-242.88705
4816000000,-6.6607337,-242.73447
4817000000,-6.6741214,-243.04773
4818000000,-6.6740355,-242.9528
4819000000,-6.6429186,-243.10455
4820000000,-6.6626072,-243.1434
4821000000,-6.6430197,-243.30823
4822000000,-6.6444921,-243.36816
4823000000,-6.6235209,-243.30867
4824000000,-6.6521482,-243.40016
4825000000,-6.6600738,-243.45264
4826000000,-6.6078959,-243.60149
4827000000,-6.6200399,-243.58458
4828000000,-6.6121264,-243.89816
4829000000,-6.6455383,-244.06894
4830000000,-6.6126885,-243.8159
4831000000,-6.6260738,-244.1152
4832000000,-6.5889821,-243.98961
4833000000,-6.6168032,-244.17244
4834000000,-6.5852776,-244.25363
4835000000,-6.5642338,-244.27043
4836000000,-6.5793877,-244.31322
4837000000,-6.5865602,-244.45053
4838000000,-6.551199,-244.45859
4839000000,-6.5917721,-244.53006
4840000000,-6.5956631,-244.80292
4841000000,-6.5538597,-244.82605
4842000000,-6.5547681,-244.75992
4843000000,-6.5720043,-244.78876
4844000000,-6.5349975,-244.92548
4845000000,-6.549118,-245.05525
4846000000,-6.556057,-245.20241
4847000000,-6.5689363,-245.27846
4848000000,-6.5582418,-245.17
4849000000,-6.5363512,-245.30682
4850000000,-6.5415087,-245.51552
4851000000,-6.5378342,-245.53252
4852000000,-6.5269728,-245.6373
4853000000,-6.5321631,-245.79262
4854000000,-6.5359297,-245.5365
4855000000,-6.490335,-245.81934
4856000000,-6.5107746,-246.11858
4857000000,-6.5309873,-245.93765
4858000000,-6.5166473,-246.11502
4859000000,-6.5129972,-246.39169
4860000000,-6.513772,-246.03732
4861000000,-6.5095448,-246.28255
4862000000,-6.4774852,-246.31229
4863000000,-6.473866,-246.46927
4864000000,-6.4843121,-246.23657
4865000000,-6.4953132,-246.46161
4866000000,-6.4904985,-246.71823
4867000000,-6.4882221,-246.84486
4868000000,-6.486043,-246.84541
4869000000,-6.4668212,-246.84471
4870000000,-6.4763298,-246.94812
4871000000,-6.4697084,-247.10109
4872000000,-6.491025,-246.98926
4873000000,-6.4488502,-247.28137
4874000000,-6.4725542,-247.20699
4875000000,-6.4461327,-247.27023
4876000000,-6.4576173,-247.39293
4877000000,-6.4281025,-247.59952
4878000000,-6.4454656,-247.55133
4879000000,-6.4276476,-247.63766
4880000000,-6.4208374,-247.70955
4881000000,-6.4341707,-247.8158
4882000000,-6.4276767,-247.80318
4883000000,-6.4111018,-247.91264
4884000000,-6.4064012,-248.11288
4885000000,-6.4239993,-248.04311
4886000000,-6.3870878,-248.25571
4887000000,-6.4287963,-248.27426
4888000000,-6.4164381,-248.48471
4889000000,-6.4132705,-248.45743
4890000000,-6.3814282,-248.58237
4891000000,-6.4071031,-248.64314
4892000000,-6.4146943,-248.55966
4893000000,-6.4050412,-248.96017
4894000000,-6.3877344,-248.88199
4895000000,-6.3659654,-248.91611
4896000000,-6.3843727,-249.05922
4897000000,-6.3733435,-249.05231
4898000000,-6.3600969,-249.00009
4899000000,-6.3707986,-249.21382
4900000000,-6.3911772,-249.26273
4901000000,-6.3909955,-249.5058
4902000000,-6.3574195,-249.54889
4903000000,-6.3557324,-249.45222
4904000000,-6.3686218,-249.5882
4905000000,-6.3528423,-249.6067
4906000000,-6.3415008,-249.61784
4907000000,-6.3267212,-249.76945
4908000000,-6.333468,-249.97717
4909000000,-6.3461185,-250.0995
4910000000,-6.3371048,-250.21973
4911000000,-6.3489814,-250.11006
4912000000,-6.3296432,-250.26425
4913000000,-6.337924,-250.42265
4914000000,-6.3460865,-250.28833
4915000000,-6.356648,-250.545
4916000000,-6.3414531,-250.65451
4917000000,-6.3506026,-250.55792
4918000000,-6.3010564,-250.6756
4919000000,-6.3137021,-250.88884
4920000000,-6.3205204,-251.10248
4921000000,-6.3264327,-250.89763
4922000000,-6.2935333,-250.99809
4923000000,-6.2910471,-251.2386
4924000000,-6.2948637,-251.12819
4925000000,-6.2779622,-251.34599
4926000000,-6.2919116,-251.42451
4927000000,-6.2798758,-251.50349
4928000000,-6.2689319,-251.44681
4929000000,-6.2583823,-251.56967
4930000000,-6.2788458,-251.86494
4931000000,-6.2615614,-251.78264
4932000000,-6.2766166,-251.80522
4933000000,-6.2608681,-251.94153
4934000000,-6.240006,-251.98259
4935000000,-6.2682281,-252.17188
4936000000,-6.2767735,-252.21733
4937000000,-6.2603621,-252.17548
4938000000,-6.2738137,-252.45262
4939000000,-6.2650657,-252.41443
4940000000,-6.2788644,-252.76268
4941000000,-6.2675076,-252.6528
4942000000,-6.2698722,-252.79823
4943000000,-6.2652173,-252.67551
4944000000,-6.2340045,-252.68689
4945000000,-6.2482152,-253.09035
4946000000,-6.2417746,-252.83591
4947000000,-6.2441235,-253.16643
4948000000,-6.2513204,-253.15834
4949000000,-6.2391791,-253.24913
4950000000,-6.2416677,-253.3235
4951000000,-6.2269225,-253.29008
4952000000,-6.2210417,-253.26027
4953000000,-6.2294593,-253.59441
4954000000,-6.21769,-253.58559
4955000000,-6.2362843,-253.76945
4956000000,-6.2297564,-253.70911
4957000000,-6.2065139,-253.89128
4958000000,-6.2164893,-253.94458
4959000000,-6.2172089,-253.9393
4960000000,-6.2419691,-254.20341
4961000000,-6.2133617,-254.15071
4962000000,-6.2278008,-254.26421
4963000000,-6.2102113,-254.20705
4964000000,-6.1927915,-254.44974
4965000000,-6.2173934,-254.55888
4966000000,-6.1932292,-254.7377
4967000000,-6.1936126,-254.4619
4968000000,-6.2191777,-254.81387
4969000000,-6.1879549,-254.91483
4970000000,-6.1861067,-254.90091
4971000000,-6.1585536,-254.8688
4972000000,-6.176096,-255.00186
4973000000,-6.2065854,-255.18565
4974000000,-6.1871734,-255.25696
4975000000,-6.1784592,-255.36922
4976000000,-6.1816063,-255.28392
4977000000,-6.1717796,-255.65303
4978000000,-6.1384783,-255.55927
4979000000,-6.1828771,-255.66814
4980000000,-6.1692634,-255.87337
4981000000,-6.151947,-255.75531
4982000000,-6.1419468,-255.84402
4983000000,-6.1524229,-255.9671
4984000000,-6.1555595,-256.06921
4985000000,-6.1598516,-256.09174
4986000000,-6.1271024,-256.29727
4987000000,-6.1584058,-256.38382
4988000000,-6.1566925,-256.29871
4989000000,-6.1404047,-256.4082
4990000000,-6.1565323,-256.70663
4991000000,-6.1530423,-256.59375
4992000000,-6.1456981,-256.89621
4993000000,-6.1267447,-256.92175
4994000000,-6.1395583,-256.84152
4995000000,-6.1404333,-256.84341
4996000000,-6.1358452,-257.00293
4997000000,-6.1377373,-257.14896
4998000000,-6.1214375,-257.02344
4999000000,-6.1537519,-257.27853
5000000000,-6.0952067,-257.40659
END,,
