!CSV A.01.01
!Agilent Technologies,E8362C,MY49020225,A.09.42.22
!Agilent E8362C: A.09.42.22
!Date: Tuesday, March 08, 2016 15:10:57
!Source: Standard

BEGIN CH1_DATA
Freq(Hz),S21 Log Mag(dB),S21 Phase(°)
1000000000,-5.4483204,-69.832573
1001000000,-5.4659548,-69.994225
1002000000,-5.4727011,-69.950874
1003000000,-5.4457703,-69.865448
1004000000,-5.4451261,-69.972084
1005000000,-5.4737082,-70.143219
1006000000,-5.4664855,-70.359108
1007000000,-5.4426179,-70.308105
1008000000,-5.4273286,-70.45668
1009000000,-5.4529662,-70.342407
1010000000,-5.4410887,-70.605049
1011000000,-5.4607992,-70.597382
1012000000,-5.4572568,-70.371536
1013000000,-5.4152513,-70.772957
1014000000,-5.4441485,-70.888359
1015000000,-5.4178638,-70.975243
1016000000,-5.443037,-70.906593
1017000000,-5.4523025,-70.975754
1018000000,-5.4292779,-71.227295
1019000000,-5.4370589,-71.211563
1020000000,-5.4360771,-71.093826
1021000000,-5.4122596,-71.522942
1022000000,-5.411634,-71.345772
1023000000,-5.421865,-71.338036
1024000000,-5.4481955,-71.337547
1025000000,-5.465416,-71.633743
1026000000,-5.4468875,-71.49321
1027000000,-5.4039402,-71.480339
1028000000,-5.4420862,-71.820213
1029000000,-5.4066491,-71.686218
1030000000,-5.430234,-72.01947
1031000000,-5.4206681,-71.845169
1032000000,-5.4479818,-72.144363
1033000000,-5.4375663,-72.072472
1034000000,-5.4495473,-72.004356
1035000000,-5.4135866,-72.344284
1036000000,-5.4178848,-72.338257
1037000000,-5.4226031,-72.495407
1038000000,-5.4215064,-72.405571
1039000000,-5.4114113,-72.552849
1040000000,-5.3891253,-72.654343
1041000000,-5.425724,-72.558334
1042000000,-5.4191189,-72.613594
1043000000,-5.3851328,-72.695847
1044000000,-5.3956652,-72.833092
1045000000,-5.4220061,-72.949928
1046000000,-5.4010458,-73.030533
1047000000,-5.3876004,-72.959663
1048000000,-5.423038,-73.131912
1049000000,-5.3717523,-73.186424
1050000000,-5.378067,-73.204102
1051000000,-5.4082031,-73.222321
1052000000,-5.4038076,-73.373283
1053000000,-5.3864102,-73.370956
1054000000,-5.3860235,-73.510384
1055000000,-5.3731556,-73.651215
1056000000,-5.3892021,-73.48819
1057000000,-5.3755941,-73.783401
1058000000,-5.4058485,-73.865181
1059000000,-5.370667,-73.985077
1060000000,-5.3748655,-73.781227
1061000000,-5.3897486,-73.988129
1062000000,-5.3812284,-74.130272
1063000000,-5.3737473,-74.198509
1064000000,-5.3897791,-74.384666
1065000000,-5.3458438,-74.403618
1066000000,-5.3721519,-74.473045
1067000000,-5.3432045,-74.481827
1068000000,-5.3138452,-74.466568
1069000000,-5.3660626,-74.579079
1070000000,-5.3608489,-74.84362
1071000000,-5.356195,-74.783966
1072000000,-5.3574438,-74.749771
1073000000,-5.3777637,-74.800491
1074000000,-5.3523464,-74.736366
1075000000,-5.3704839,-75.226311
1076000000,-5.383234,-75.062752
1077000000,-5.3573065,-75.341721
1078000000,-5.3374791,-75.140297
1079000000,-5.3424654,-75.277161
1080000000,-5.3397145,-75.429832
1081000000,-5.349443,-75.422073
1082000000,-5.3694453,-75.573708
1083000000,-5.3460007,-75.680298
1084000000,-5.3204055,-75.616859
1085000000,-5.3352489,-75.69651
1086000000,-5.3607559,-75.9841
1087000000,-5.3196335,-75.975243
1088000000,-5.3150296,-75.966393
1089000000,-5.3204827,-75.98748
1090000000,-5.3236299,-76.247231
1091000000,-5.3465009,-75.977592
1092000000,-5.3199902,-76.268631
1093000000,-5.3213997,-76.470192
1094000000,-5.3235965,-76.333191
1095000000,-5.3175635,-76.596245
1096000000,-5.3318954,-76.526917
1097000000,-5.3084931,-76.793083
1098000000,-5.2904329,-76.647659
1099000000,-5.3069263,-76.933708
1100000000,-5.3132329,-76.773361
1101000000,-5.3089776,-77.261581
1102000000,-5.3078709,-76.987724
1103000000,-5.3057766,-76.977234
1104000000,-5.2906518,-77.133522
1105000000,-5.3099351,-76.882095
1106000000,-5.3341188,-77.270454
1107000000,-5.3113341,-77.325806
1108000000,-5.3250184,-77.577728
1109000000,-5.2666979,-77.450531
1110000000,-5.3197675,-77.604858
1111000000,-5.2928209,-77.607483
1112000000,-5.2596784,-77.990738
1113000000,-5.3237023,-77.849564
1114000000,-5.3118238,-78.001556
1115000000,-5.296699,-77.817482
1116000000,-5.3033886,-78.113464
1117000000,-5.2751107,-78.120255
1118000000,-5.3205924,-78.10511
1119000000,-5.2722611,-78.288795
1120000000,-5.2862453,-78.325485
1121000000,-5.2803078,-78.414658
1122000000,-5.3076591,-78.581345
1123000000,-5.2623172,-78.415108
1124000000,-5.2859683,-78.652992
1125000000,-5.269907,-78.884315
1126000000,-5.2710872,-78.855537
1127000000,-5.2927241,-78.942383
1128000000,-5.2903647,-79.031433
1129000000,-5.3064327,-78.977722
1130000000,-5.2986536,-79.005165
1131000000,-5.2821379,-79.222046
1132000000,-5.2902031,-79.122398
1133000000,-5.2633162,-79.314651
1134000000,-5.2700624,-79.402061
1135000000,-5.2805104,-79.287109
1136000000,-5.2673573,-79.578827
1137000000,-5.2904139,-79.6772
1138000000,-5.2436776,-79.756638
1139000000,-5.2861223,-79.923637
1140000000,-5.2696209,-79.74279
1141000000,-5.2762604,-79.792336
1142000000,-5.276515,-79.943291
1143000000,-5.2422018,-79.922295
1144000000,-5.2648902,-80.188515
1145000000,-5.2572227,-80.306374
1146000000,-5.230412,-80.147224
1147000000,-5.2483149,-80.323189
1148000000,-5.2572498,-80.356926
1149000000,-5.2439737,-80.482307
1150000000,-5.2524438,-80.553635
1151000000,-5.2651396,-80.487862
1152000000,-5.2090387,-80.638596
1153000000,-5.2343488,-80.587364
1154000000,-5.2387118,-80.663986
1155000000,-5.2368426,-81.039612
1156000000,-5.2329645,-81.033875
1157000000,-5.2424331,-80.937698
1158000000,-5.2475572,-81.108231
1159000000,-5.2627039,-81.318504
1160000000,-5.2302432,-81.189072
1161000000,-5.2151337,-81.169434
1162000000,-5.236464,-81.363159
1163000000,-5.2468696,-81.490852
1164000000,-5.2523127,-81.589767
1165000000,-5.2197514,-81.600494
1166000000,-5.2074556,-81.657013
1167000000,-5.2068472,-81.951561
1168000000,-5.2376294,-81.738884
1169000000,-5.2243433,-81.812828
1170000000,-5.2173553,-81.874077
1171000000,-5.2038579,-81.937057
1172000000,-5.2294221,-82.179443
1173000000,-5.2123899,-82.083305
1174000000,-5.2352185,-82.132675
1175000000,-5.1991892,-82.353325
1176000000,-5.202733,-82.393692
1177000000,-5.2297249,-82.559669
1178000000,-5.2049136,-82.542374
1179000000,-5.2052779,-82.52095
1180000000,-5.1972127,-82.665718
1181000000,-5.1907716,-82.682442
1182000000,-5.1787205,-83.10157
1183000000,-5.1985173,-83.005119
1184000000,-5.2087359,-82.913406
1185000000,-5.1932554,-83.030861
1186000000,-5.2190127,-83.067734
1187000000,-5.1838737,-83.249023
1188000000,-5.1910334,-83.28727
1189000000,-5.1970172,-83.475677
1190000000,-5.1703596,-83.521896
1191000000,-5.1860132,-83.533966
1192000000,-5.1650414,-83.677612
1193000000,-5.1953254,-83.68718
1194000000,-5.1682343,-83.704117
1195000000,-5.191782,-83.935333
1196000000,-5.1706743,-83.848862
1197000000,-5.175025,-84.021873
1198000000,-5.189568,-84.046005
1199000000,-5.1581068,-83.884796
1200000000,-5.1890826,-84.198189
1201000000,-5.1496801,-84.16114
1202000000,-5.1514373,-84.243782
1203000000,-5.1776843,-84.340279
1204000000,-5.1675591,-84.547913
1205000000,-5.1725945,-84.512115
1206000000,-5.1720815,-84.496223
1207000000,-5.1622863,-84.437294
1208000000,-5.1624355,-84.836647
1209000000,-5.1725373,-84.697731
1210000000,-5.1761951,-84.841415
1211000000,-5.1586318,-85.101791
1212000000,-5.1587563,-84.999939
1213000000,-5.1496964,-85.286148
1214000000,-5.1240277,-85.083893
1215000000,-5.1432037,-85.254105
1216000000,-5.1378508,-85.359894
1217000000,-5.1365623,-85.303261
1218000000,-5.1355271,-85.596954
1219000000,-5.1194181,-85.466652
1220000000,-5.1287422,-85.538109
1221000000,-5.1300836,-85.721741
1222000000,-5.1504874,-85.617554
1223000000,-5.1311126,-85.973618
1224000000,-5.0933652,-85.743317
1225000000,-5.133677,-85.834068
1226000000,-5.1466603,-86.102417
1227000000,-5.1528144,-86.134171
1228000000,-5.1401715,-86.073326
1229000000,-5.1197982,-86.339645
1230000000,-5.1131229,-86.3563
1231000000,-5.1291223,-86.475418
1232000000,-5.136878,-86.473869
1233000000,-5.1226845,-86.53289
1234000000,-5.117908,-86.62851
1235000000,-5.103116,-86.693375
1236000000,-5.1370335,-86.80175
1237000000,-5.0995827,-86.865517
1238000000,-5.1349463,-86.818329
1239000000,-5.1322241,-86.888855
1240000000,-5.0890179,-86.956276
1241000000,-5.1135087,-87.150452
1242000000,-5.095572,-87.137939
1243000000,-5.11726,-87.126144
1244000000,-5.1042686,-87.324265
1245000000,-5.1151328,-87.426613
1246000000,-5.0850363,-87.513512
1247000000,-5.0985727,-87.670357
1248000000,-5.1026669,-87.719437
1249000000,-5.1102343,-87.62249
1250000000,-5.1077132,-87.907387
1251000000,-5.0519052,-87.880119
1252000000,-5.0581121,-87.970467
1253000000,-5.0931225,-88.110985
1254000000,-5.0936012,-88.139954
1255000000,-5.0668316,-88.163345
1256000000,-5.0579233,-88.264412
1257000000,-5.0612459,-88.28978
1258000000,-5.0691366,-88.38987
1259000000,-5.0426707,-88.637856
1260000000,-5.0885506,-88.218132
1261000000,-5.0745935,-88.663918
1262000000,-5.0625038,-88.69854
1263000000,-5.052319,-88.816528
1264000000,-5.0745573,-88.711327
1265000000,-5.0504165,-88.749023
1266000000,-5.0421009,-88.942604
1267000000,-5.0513949,-88.968147
1268000000,-5.0321422,-89.186707
1269000000,-5.0274229,-89.254883
1270000000,-5.0814624,-89.322151
1271000000,-5.0729156,-89.416374
1272000000,-5.0537205,-89.491333
1273000000,-5.0403585,-89.492523
1274000000,-5.0129642,-89.640404
1275000000,-5.0359726,-89.69648
1276000000,-5.0520363,-89.722916
1277000000,-5.0348177,-89.720116
1278000000,-5.0265164,-89.828949
1279000000,-5.0301499,-90.029961
1280000000,-5.0441632,-90.142166
1281000000,-5.0489597,-89.997444
1282000000,-5.0505037,-90.14119
1283000000,-5.0113606,-90.326401
1284000000,-5.0077653,-90.309975
1285000000,-5.0094104,-90.515152
1286000000,-5.0128551,-90.433266
1287000000,-5.0165915,-90.395851
1288000000,-5.014596,-90.457619
1289000000,-5.0455203,-90.815422
1290000000,-5.0128641,-90.872238
1291000000,-5.0061483,-90.742172
1292000000,-4.9963713,-91.000839
1293000000,-5.0025134,-90.786423
1294000000,-4.9806633,-91.010849
1295000000,-4.9822354,-91.093391
1296000000,-5.0018859,-90.920372
1297000000,-5.0441618,-91.353447
1298000000,-5.0076404,-91.567619
1299000000,-5.0189657,-91.404961
1300000000,-4.9914694,-91.542763
1301000000,-5.0268259,-91.625481
1302000000,-4.9645357,-91.612579
1303000000,-4.9657297,-91.787361
1304000000,-5.0053358,-91.603249
1305000000,-4.9917488,-91.978966
1306000000,-4.9822516,-91.776443
1307000000,-4.9694138,-92.014053
1308000000,-5.0002694,-91.934235
1309000000,-4.9795637,-92.215332
1310000000,-4.9812331,-92.439575
1311000000,-4.9679699,-92.272011
1312000000,-4.9841018,-92.426277
1313000000,-4.9985857,-92.393639
1314000000,-4.9979401,-92.763885
1315000000,-4.9779439,-92.823616
1316000000,-4.9946623,-92.658493
1317000000,-4.9664869,-92.854904
1318000000,-4.9660001,-92.798233
1319000000,-4.9659863,-93.003029
1320000000,-4.9836931,-92.97007
1321000000,-4.9631705,-93.118179
1322000000,-4.9546189,-93.138535
1323000000,-4.9763246,-93.222633
1324000000,-4.965137,-93.320091
1325000000,-4.9476366,-93.287773
1326000000,-4.9533243,-93.403702
1327000000,-4.9443097,-93.489784
1328000000,-4.9503078,-93.532433
1329000000,-4.9599156,-93.568039
1330000000,-4.9477987,-93.651726
1331000000,-4.9516172,-93.880814
1332000000,-4.9129009,-93.842453
1333000000,-4.9492941,-93.97068
1334000000,-4.911705,-93.969994
1335000000,-4.9352975,-94.233711
1336000000,-4.9371152,-94.134254
1337000000,-4.91048,-94.282356
1338000000,-4.9387207,-94.406227
1339000000,-4.946281,-94.456863
1340000000,-4.9124413,-94.471275
1341000000,-4.9234638,-94.415443
1342000000,-4.9194221,-94.591217
1343000000,-4.9201622,-94.976761
1344000000,-4.931766,-94.737274
1345000000,-4.9167309,-94.909531
1346000000,-4.9217539,-95.032829
1347000000,-4.9149313,-94.894707
1348000000,-4.897294,-95.106628
1349000000,-4.9287362,-95.320656
1350000000,-4.8813233,-95.421867
1351000000,-4.8777618,-95.074631
1352000000,-4.9136992,-95.269577
1353000000,-4.902173,-95.62645
1354000000,-4.9015779,-95.530937
1355000000,-4.9045844,-95.453697
1356000000,-4.8967795,-95.633537
1357000000,-4.9012327,-95.936996
1358000000,-4.8960066,-95.631378
1359000000,-4.8799605,-96.071045
1360000000,-4.8649292,-96.103279
1361000000,-4.8985682,-96.12529
1362000000,-4.8724918,-96.31189
1363000000,-4.8740244,-96.292343
1364000000,-4.9031901,-96.250557
1365000000,-4.89115,-96.409012
1366000000,-4.849515,-96.452415
1367000000,-4.8582077,-96.486183
1368000000,-4.8824811,-96.701744
1369000000,-4.8568578,-96.693008
1370000000,-4.8670459,-96.711365
1371000000,-4.8830762,-96.858871
1372000000,-4.8429437,-97.024277
1373000000,-4.881249,-96.98111
1374000000,-4.8737097,-97.18856
1375000000,-4.8703332,-97.139664
1376000000,-4.8471456,-97.064056
1377000000,-4.8577585,-97.395828
1378000000,-4.8488793,-97.372849
1379000000,-4.8462558,-97.5952
1380000000,-4.8598208,-97.491356
1381000000,-4.8774099,-97.56501
1382000000,-4.8554645,-97.67495
1383000000,-4.853632,-97.625946
1384000000,-4.8433852,-97.715248
1385000000,-4.8357854,-97.903313
1386000000,-4.8317952,-98.063194
1387000000,-4.8750982,-97.940338
1388000000,-4.8633118,-98.170372
1389000000,-4.8374681,-98.17791
1390000000,-4.8372502,-98.191971
1391000000,-4.8265381,-98.289307
1392000000,-4.8325047,-98.471588
1393000000,-4.8451476,-98.503845
1394000000,-4.837131,-98.612694
1395000000,-4.8087554,-98.433838
1396000000,-4.8235483,-98.701797
1397000000,-4.8174386,-98.759422
1398000000,-4.8148694,-98.898842
1399000000,-4.8122873,-98.903923
1400000000,-4.8161073,-99.116158
1401000000,-4.8144417,-99.290291
1402000000,-4.8081713,-99.080437
1403000000,-4.8244877,-99.340698
1404000000,-4.8137631,-99.249878
1405000000,-4.8163571,-99.378845
1406000000,-4.8146939,-99.640884
1407000000,-4.8285627,-99.492424
1408000000,-4.804987,-99.548347
1409000000,-4.777833,-99.485565
1410000000,-4.8122487,-99.878807
1411000000,-4.7895703,-99.974197
1412000000,-4.7969489,-99.991226
1413000000,-4.7727613,-99.971107
1414000000,-4.7970605,-100.07008
1415000000,-4.7809057,-100.08276
1416000000,-4.7730083,-100.3173
1417000000,-4.7654815,-100.44172
1418000000,-4.7648935,-100.45244
1419000000,-4.7732887,-100.51997
1420000000,-4.7667661,-100.43349
1421000000,-4.7550159,-100.55989
1422000000,-4.7580671,-100.56143
1423000000,-4.7439103,-100.72955
1424000000,-4.7220578,-100.83791
1425000000,-4.7518692,-100.99538
1426000000,-4.7778454,-100.95049
1427000000,-4.7739124,-101.10201
1428000000,-4.7198339,-101.06638
1429000000,-4.7455378,-101.1796
1430000000,-4.7688098,-101.14137
1431000000,-4.7477412,-101.35144
1432000000,-4.737144,-101.51702
1433000000,-4.7342334,-101.51196
1434000000,-4.7620358,-101.60554
1435000000,-4.706728,-101.64626
1436000000,-4.7391324,-101.70413
1437000000,-4.7416425,-101.85226
1438000000,-4.7530985,-101.87476
1439000000,-4.7410593,-101.92458
1440000000,-4.7334552,-102.16352
1441000000,-4.7392554,-102.01037
1442000000,-4.7546163,-102.05975
1443000000,-4.7415128,-102.38853
1444000000,-4.7144876,-102.31317
1445000000,-4.7357969,-102.3624
1446000000,-4.7079568,-102.54269
1447000000,-4.7110882,-102.44064
1448000000,-4.67555,-102.73911
1449000000,-4.7127776,-102.70263
1450000000,-4.7190347,-102.68176
1451000000,-4.7197671,-102.84636
1452000000,-4.6974502,-102.96414
1453000000,-4.7356873,-103.18903
1454000000,-4.6995354,-103.1498
1455000000,-4.7153716,-103.21223
1456000000,-4.7095284,-103.24431
1457000000,-4.7127476,-103.21651
1458000000,-4.7020955,-103.37671
1459000000,-4.7065377,-103.31661
1460000000,-4.6971745,-103.42442
1461000000,-4.6999769,-103.80804
1462000000,-4.6797438,-103.78508
1463000000,-4.6913924,-103.89291
1464000000,-4.6719317,-103.77406
1465000000,-4.7047257,-103.82535
1466000000,-4.6826601,-103.94526
1467000000,-4.6567516,-104.03134
1468000000,-4.6764793,-104.15715
1469000000,-4.662498,-104.26854
1470000000,-4.6795874,-104.26793
1471000000,-4.6674814,-104.47726
1472000000,-4.6734586,-104.57314
1473000000,-4.6624036,-104.71463
1474000000,-4.6641836,-104.66168
1475000000,-4.6816306,-104.87966
1476000000,-4.6407294,-104.82585
1477000000,-4.6439962,-104.69667
1478000000,-4.6477199,-104.78799
1479000000,-4.6699982,-105.10411
1480000000,-4.6539149,-105.2898
1481000000,-4.6494961,-105.06585
1482000000,-4.6285758,-105.35542
1483000000,-4.6431041,-105.35425
1484000000,-4.6564775,-105.65644
1485000000,-4.6365113,-105.53635
1486000000,-4.6249189,-105.64711
1487000000,-4.646163,-105.65115
1488000000,-4.6475983,-105.69021
1489000000,-4.6421127,-105.90497
1490000000,-4.6249218,-105.86541
1491000000,-4.6427307,-106.08845
1492000000,-4.6309237,-106.03011
1493000000,-4.6099129,-106.06781
1494000000,-4.6356874,-106.20764
1495000000,-4.6297131,-106.1869
1496000000,-4.6131859,-106.36712
1497000000,-4.61797,-106.42756
1498000000,-4.6139703,-106.48991
1499000000,-4.6023474,-106.60902
1500000000,-4.6214147,-106.79661
1501000000,-4.601275,-106.83508
1502000000,-4.6118412,-106.93166
1503000000,-4.5813603,-106.86765
1504000000,-4.5626688,-107.00413
1505000000,-4.6067367,-107.30256
1506000000,-4.5976081,-107.06573
1507000000,-4.5918837,-107.15894
1508000000,-4.6108994,-107.50134
1509000000,-4.5952029,-107.423
1510000000,-4.5852194,-107.29337
1511000000,-4.6094694,-107.45743
1512000000,-4.5717254,-107.42254
1513000000,-4.590848,-107.50147
1514000000,-4.5661888,-107.7899
1515000000,-4.5745964,-107.72233
1516000000,-4.5730419,-107.96582
1517000000,-4.6142364,-107.96127
1518000000,-4.5640092,-107.93136
1519000000,-4.571126,-108.06204
1520000000,-4.5665812,-108.14441
1521000000,-4.5790286,-108.33268
1522000000,-4.5580158,-108.33714
1523000000,-4.5707049,-108.52933
1524000000,-4.5759912,-108.6454
1525000000,-4.548358,-108.77264
1526000000,-4.5648446,-108.81112
1527000000,-4.5721989,-108.87888
1528000000,-4.5689874,-108.73485
1529000000,-4.5652189,-108.95549
1530000000,-4.5519114,-108.97567
1531000000,-4.5433526,-109.03044
1532000000,-4.5335102,-109.13839
1533000000,-4.5440335,-109.23214
1534000000,-4.527195,-109.23183
1535000000,-4.5206904,-109.41457
1536000000,-4.5073724,-109.69864
1537000000,-4.5162258,-109.62902
1538000000,-4.508388,-109.6443
1539000000,-4.5442004,-109.75111
1540000000,-4.5307531,-109.69984
1541000000,-4.5135779,-109.95403
1542000000,-4.5206246,-109.79515
1543000000,-4.5195446,-110.20628
1544000000,-4.5097289,-110.02517
1545000000,-4.5214128,-110.11156
1546000000,-4.4966679,-110.2823
1547000000,-4.5187235,-110.56438
1548000000,-4.4980402,-110.20547
1549000000,-4.5064168,-110.54379
1550000000,-4.5167327,-110.59527
1551000000,-4.506515,-110.75069
1552000000,-4.4816594,-110.68069
1553000000,-4.5116153,-110.75146
1554000000,-4.4753575,-110.85764
1555000000,-4.4944649,-110.8531
1556000000,-4.4764924,-110.83984
1557000000,-4.4783602,-111.15562
1558000000,-4.4853396,-111.20935
1559000000,-4.4636698,-111.24931
1560000000,-4.4721193,-111.39916
1561000000,-4.4578419,-111.45737
1562000000,-4.4852834,-111.50075
1563000000,-4.4904871,-111.46384
1564000000,-4.4681749,-111.72353
1565000000,-4.4664197,-111.81184
1566000000,-4.4478655,-111.61974
1567000000,-4.467423,-111.89812
1568000000,-4.46134,-111.89524
1569000000,-4.4627419,-112.1184
1570000000,-4.435617,-112.07089
1571000000,-4.4422083,-112.20724
1572000000,-4.4309468,-112.30159
1573000000,-4.4420695,-112.55302
1574000000,-4.4331431,-112.4187
1575000000,-4.4159441,-112.63442
1576000000,-4.4260092,-112.66655
1577000000,-4.3992453,-112.79021
1578000000,-4.4401464,-112.74053
1579000000,-4.4248624,-112.94308
1580000000,-4.4283605,-112.87484
1581000000,-4.4509244,-113.01277
1582000000,-4.4177146,-112.99414
1583000000,-4.4233284,-113.23412
1584000000,-4.4387908,-113.484
1585000000,-4.3993449,-113.35057
1586000000,-4.4463935,-113.54203
1587000000,-4.4243126,-113.52757
1588000000,-4.431273,-113.55185
1589000000,-4.4024949,-113.74258
1590000000,-4.4021115,-113.71387
1591000000,-4.4019117,-113.82815
1592000000,-4.4059129,-113.86407
1593000000,-4.3893394,-114.03915
1594000000,-4.3986049,-114.04093
1595000000,-4.4058318,-114.04436
1596000000,-4.3717933,-114.27915
1597000000,-4.4021549,-114.30901
1598000000,-4.3702669,-114.33915
1599000000,-4.3727341,-114.56406
1600000000,-4.3587928,-114.45148
1601000000,-4.337172,-114.72692
1602000000,-4.367661,-114.64746
1603000000,-4.3681684,-114.62459
1604000000,-4.3782396,-114.92673
1605000000,-4.3568091,-115.03239
1606000000,-4.3681135,-114.96569
1607000000,-4.368319,-115.14957
1608000000,-4.3706551,-115.17676
1609000000,-4.3515873,-115.47502
1610000000,-4.3630238,-115.42171
1611000000,-4.3579764,-115.55213
1612000000,-4.3660259,-115.59637
1613000000,-4.3527703,-115.64618
1614000000,-4.3721695,-115.5865
1615000000,-4.3620992,-115.56947
1616000000,-4.3335509,-115.77319
1617000000,-4.3484483,-115.73977
1618000000,-4.3496203,-116.11671
1619000000,-4.3251939,-116.15727
1620000000,-4.3204045,-116.22883
1621000000,-4.2915397,-116.19044
1622000000,-4.3196535,-116.1192
1623000000,-4.3056421,-116.41329
1624000000,-4.2997284,-116.48475
1625000000,-4.319056,-116.71368
1626000000,-4.3505421,-116.4959
1627000000,-4.3062968,-116.68491
1628000000,-4.3176923,-116.64138
1629000000,-4.3270907,-117.02708
1630000000,-4.3117237,-116.967
1631000000,-4.3159237,-117.01729
1632000000,-4.2976065,-117.12896
1633000000,-4.2823625,-117.17819
1634000000,-4.2805834,-117.20978
1635000000,-4.2733798,-117.44922
1636000000,-4.2704229,-117.63897
1637000000,-4.2684412,-117.39289
1638000000,-4.2794375,-117.67517
1639000000,-4.276361,-117.80003
1640000000,-4.3008142,-117.9183
1641000000,-4.2662907,-117.81773
1642000000,-4.2652259,-117.96179
1643000000,-4.2770219,-118.04249
1644000000,-4.2748032,-118.15146
1645000000,-4.2683821,-118.23093
1646000000,-4.2844276,-118.42573
1647000000,-4.2573714,-118.40413
1648000000,-4.2549467,-118.49178
1649000000,-4.2654982,-118.66332
1650000000,-4.2376018,-118.63735
1651000000,-4.2501078,-118.71216
1652000000,-4.2424073,-118.77135
1653000000,-4.2576456,-119.00159
1654000000,-4.2637782,-119.14582
1655000000,-4.2342768,-119.04301
1656000000,-4.2363954,-119.03211
1657000000,-4.2530956,-119.22514
1658000000,-4.2477393,-119.24534
1659000000,-4.2119994,-119.24973
1660000000,-4.2477365,-119.49054
1661000000,-4.2228103,-119.51846
1662000000,-4.2437096,-119.57444
1663000000,-4.221241,-119.43531
1664000000,-4.2169743,-119.7029
1665000000,-4.2083144,-119.67941
1666000000,-4.1821952,-119.95188
1667000000,-4.2037649,-119.92567
1668000000,-4.2336144,-119.94492
1669000000,-4.2127938,-120.07268
1670000000,-4.2124257,-120.34773
1671000000,-4.2134094,-120.54752
1672000000,-4.2038355,-120.53558
1673000000,-4.211309,-120.68653
1674000000,-4.184453,-120.77222
1675000000,-4.1766067,-120.75456
1676000000,-4.2027535,-120.77724
1677000000,-4.1773329,-120.9184
1678000000,-4.1785126,-120.93421
1679000000,-4.1887908,-121.09229
1680000000,-4.1681089,-121.07142
1681000000,-4.1810646,-121.00147
1682000000,-4.1639071,-121.19877
1683000000,-4.1384058,-121.3801
1684000000,-4.1608806,-121.31953
1685000000,-4.1911273,-121.42644
1686000000,-4.1923552,-121.67017
1687000000,-4.1506333,-121.73841
1688000000,-4.1945763,-121.7271
1689000000,-4.1527238,-121.79237
1690000000,-4.171433,-121.86977
1691000000,-4.1392727,-121.97702
1692000000,-4.1528826,-122.13814
1693000000,-4.1795912,-122.34229
1694000000,-4.1359324,-122.3627
1695000000,-4.1577563,-122.47852
1696000000,-4.1240191,-122.48019
1697000000,-4.1373572,-122.46088
1698000000,-4.1447258,-122.75352
1699000000,-4.1098804,-122.7389
1700000000,-4.1385131,-122.73965
1701000000,-4.1219325,-122.8849
1702000000,-4.1149349,-123.07221
1703000000,-4.116406,-123.09689
1704000000,-4.1232281,-123.19408
1705000000,-4.1301298,-123.31949
1706000000,-4.1186042,-123.36903
1707000000,-4.1214876,-123.36858
1708000000,-4.0790939,-123.52558
1709000000,-4.1118851,-123.72026
1710000000,-4.1130681,-123.75745
1711000000,-4.1105342,-123.62737
1712000000,-4.0780931,-123.71195
1713000000,-4.0922933,-124.03307
1714000000,-4.075871,-124.15615
1715000000,-4.0793791,-124.23513
1716000000,-4.1166921,-124.19384
1717000000,-4.0641041,-124.15183
1718000000,-4.1008639,-124.30147
1719000000,-4.099236,-124.45464
1720000000,-4.0925932,-124.41474
1721000000,-4.0825834,-124.50991
1722000000,-4.0829649,-124.63589
1723000000,-4.0750518,-124.66571
1724000000,-4.0664406,-124.79482
1725000000,-4.0852833,-124.89246
1726000000,-4.0684829,-125.14893
1727000000,-4.0758429,-125.07339
1728000000,-4.0419583,-125.17944
1729000000,-4.062048,-125.27917
1730000000,-4.0675607,-125.44711
1731000000,-4.0492544,-125.34205
1732000000,-4.0439129,-125.57859
1733000000,-4.0358267,-125.76675
1734000000,-4.0538349,-125.79168
1735000000,-4.0541658,-125.61704
1736000000,-4.027432,-125.89687
1737000000,-4.0564961,-126.00758
1738000000,-4.0296025,-126.13863
1739000000,-4.0197649,-125.97144
1740000000,-4.0416431,-126.27116
1741000000,-4.0334983,-126.21629
1742000000,-4.0428309,-126.4389
1743000000,-4.0383277,-126.66492
1744000000,-4.011364,-126.52673
1745000000,-3.9713092,-126.73251
1746000000,-4.016242,-126.76447
1747000000,-4.0208039,-126.95755
1748000000,-4.0549502,-126.96597
1749000000,-4.0397277,-126.96192
1750000000,-3.9738126,-127.13981
1751000000,-4.0095453,-127.40448
1752000000,-4.0039773,-127.37691
1753000000,-3.9952714,-127.31443
1754000000,-3.9991481,-127.52708
1755000000,-3.99455,-127.52489
1756000000,-4.0176296,-127.61726
1757000000,-3.9789674,-127.89953
1758000000,-4.0047941,-127.93359
1759000000,-4.0136819,-127.91869
1760000000,-3.9688737,-128.10204
1761000000,-3.9627621,-128.08307
1762000000,-3.9756737,-128.14616
1763000000,-4.0028853,-128.18687
1764000000,-3.9842196,-128.48651
1765000000,-3.9528522,-128.48691
1766000000,-3.9905245,-128.55154
1767000000,-3.9830256,-128.65715
1768000000,-3.9610319,-128.6665
1769000000,-3.9413657,-128.7291
1770000000,-3.9572906,-128.86848
1771000000,-3.9537611,-129.14162
1772000000,-3.9304879,-129.07335
1773000000,-3.9504299,-129.04549
1774000000,-3.9449382,-129.20598
1775000000,-3.9372461,-129.19485
1776000000,-3.9421947,-129.46222
1777000000,-3.9513686,-129.59859
1778000000,-3.9249794,-129.4966
1779000000,-3.9271307,-129.61488
1780000000,-3.929534,-129.69669
1781000000,-3.9527371,-129.69624
1782000000,-3.9401231,-130.02188
1783000000,-3.9369709,-130.02322
1784000000,-3.9277997,-130.0191
1785000000,-3.9087343,-130.13339
1786000000,-3.9135056,-130.20932
1787000000,-3.9018013,-130.38507
1788000000,-3.9201639,-130.26604
1789000000,-3.9312184,-130.63918
1790000000,-3.9277947,-130.75813
1791000000,-3.9000916,-130.76132
1792000000,-3.8946829,-130.85059
1793000000,-3.9064648,-130.80521
1794000000,-3.875443,-130.94838
1795000000,-3.9030385,-131.04639
1796000000,-3.9005637,-131.25432
1797000000,-3.9061933,-131.32256
1798000000,-3.9055057,-131.27725
1799000000,-3.9040821,-131.4404
1800000000,-3.8867881,-131.61807
1801000000,-3.8997746,-131.69354
1802000000,-3.8588223,-131.72292
1803000000,-3.8909502,-131.90265
1804000000,-3.8928883,-132.02046
1805000000,-3.8724763,-132.10172
1806000000,-3.8531003,-132.08261
1807000000,-3.8912091,-132.13547
1808000000,-3.8638978,-132.21057
1809000000,-3.8828497,-132.59744
1810000000,-3.8960273,-132.48085
1811000000,-3.8382211,-132.70647
1812000000,-3.8519635,-132.67575
1813000000,-3.8752697,-132.73918
1814000000,-3.8497753,-132.87093
1815000000,-3.8731494,-132.9679
1816000000,-3.8771844,-132.95445
1817000000,-3.8525269,-133.00403
1818000000,-3.8384364,-133.17545
1819000000,-3.8797247,-133.19928
1820000000,-3.8435955,-133.38338
1821000000,-3.8415515,-133.34625
1822000000,-3.847014,-133.60373
1823000000,-3.8408527,-133.55698
1824000000,-3.8223841,-133.55875
1825000000,-3.825351,-133.64204
1826000000,-3.8586004,-133.79019
1827000000,-3.7947483,-134.03523
1828000000,-3.8200743,-134.08501
1829000000,-3.8362942,-134.04445
1830000000,-3.8257465,-134.17436
1831000000,-3.7899616,-134.18877
1832000000,-3.8375762,-134.39122
1833000000,-3.8349931,-134.33765
1834000000,-3.8279352,-134.36047
1835000000,-3.7914855,-134.90762
1836000000,-3.8064969,-134.68425
1837000000,-3.8213158,-134.78635
1838000000,-3.8109605,-134.96066
1839000000,-3.8232791,-134.98483
1840000000,-3.8085835,-135.01833
1841000000,-3.8110054,-135.12071
1842000000,-3.7955029,-135.27594
1843000000,-3.7935617,-135.38318
1844000000,-3.8214777,-135.44989
1845000000,-3.7936721,-135.52731
1846000000,-3.7855582,-135.81157
1847000000,-3.818429,-135.73608
1848000000,-3.793762,-135.78456
1849000000,-3.7522681,-135.92982
1850000000,-3.8179901,-135.8119
1851000000,-3.7647305,-135.97067
1852000000,-3.8121259,-136.26318
1853000000,-3.7712276,-136.30231
1854000000,-3.8145401,-136.21919
1855000000,-3.7676134,-136.51193
1856000000,-3.7931018,-136.61693
1857000000,-3.7571657,-136.71138
1858000000,-3.7520328,-136.8259
1859000000,-3.7826762,-136.73265
1860000000,-3.7781849,-137.02299
1861000000,-3.7956617,-137.20058
1862000000,-3.7551084,-137.08807
1863000000,-3.7676005,-137.0813
1864000000,-3.7512434,-137.16179
1865000000,-3.7698345,-137.35542
1866000000,-3.751246,-137.47183
1867000000,-3.7517993,-137.63316
1868000000,-3.7698135,-137.51224
1869000000,-3.7698147,-137.71277
1870000000,-3.7689946,-137.83078
1871000000,-3.719075,-137.88123
1872000000,-3.7092023,-138.089
1873000000,-3.7575624,-138.01373
1874000000,-3.7498808,-138.0092
1875000000,-3.7496147,-138.3203
1876000000,-3.7025435,-138.23041
1877000000,-3.7381642,-138.39188
1878000000,-3.7230456,-138.59735
1879000000,-3.7408187,-138.7226
1880000000,-3.7156672,-138.94144
1881000000,-3.7082076,-138.67738
1882000000,-3.7499127,-138.95053
1883000000,-3.7154181,-139.09341
1884000000,-3.7068121,-139.01375
1885000000,-3.7315888,-139.42564
1886000000,-3.7151151,-139.45061
1887000000,-3.7152393,-139.49863
1888000000,-3.7190211,-139.52306
1889000000,-3.6875262,-139.65147
1890000000,-3.741961,-139.70232
1891000000,-3.6995921,-139.90269
1892000000,-3.7281802,-139.90408
1893000000,-3.6845045,-139.87697
1894000000,-3.6877215,-140.04221
1895000000,-3.6947107,-140.20853
1896000000,-3.6890895,-140.20927
1897000000,-3.6910689,-140.26746
1898000000,-3.7255366,-140.4505
1899000000,-3.6976492,-140.67369
1900000000,-3.6946917,-140.58049
1901000000,-3.690028,-140.62581
1902000000,-3.6914799,-140.64702
1903000000,-3.6630771,-140.8631
1904000000,-3.6891201,-140.99619
1905000000,-3.6947138,-141.03052
1906000000,-3.6969857,-141.13773
1907000000,-3.662303,-141.25992
1908000000,-3.6728117,-141.2941
1909000000,-3.651835,-141.32315
1910000000,-3.6742907,-141.50269
1911000000,-3.6379354,-141.80722
1912000000,-3.6902387,-141.61696
1913000000,-3.67554,-141.78448
1914000000,-3.6800256,-141.93787
1915000000,-3.6450131,-142.05284
1916000000,-3.6515434,-141.96254
1917000000,-3.6577048,-141.99316
1918000000,-3.6816971,-142.25595
1919000000,-3.6553156,-142.43962
1920000000,-3.6426721,-142.26802
1921000000,-3.6735909,-142.51369
1922000000,-3.6306489,-142.71199
1923000000,-3.6503134,-142.77414
1924000000,-3.6442814,-142.77562
1925000000,-3.6634536,-143.00133
1926000000,-3.6304824,-143.0992
1927000000,-3.6279712,-143.27293
1928000000,-3.6424773,-143.15619
1929000000,-3.6240888,-143.29092
1930000000,-3.6502695,-143.48866
1931000000,-3.6292911,-143.42355
1932000000,-3.6580665,-143.49237
1933000000,-3.6446695,-143.47655
1934000000,-3.608706,-143.70749
1935000000,-3.636229,-143.83827
1936000000,-3.6274288,-143.98141
1937000000,-3.6300497,-143.95903
1938000000,-3.6505075,-144.25011
1939000000,-3.6263084,-144.26006
1940000000,-3.6490445,-144.25012
1941000000,-3.6342485,-144.32576
1942000000,-3.6212983,-144.49327
1943000000,-3.6225691,-144.72079
1944000000,-3.6253169,-144.62569
1945000000,-3.5916612,-144.9256
1946000000,-3.6120856,-144.98289
1947000000,-3.6143024,-145.09897
1948000000,-3.6285319,-145.12958
1949000000,-3.6172698,-145.09259
1950000000,-3.5919387,-145.2908
1951000000,-3.6179152,-145.19514
1952000000,-3.5917151,-145.1678
1953000000,-3.6285076,-145.5327
1954000000,-3.5814536,-145.73328
1955000000,-3.6018338,-145.68187
1956000000,-3.6321294,-145.56569
1957000000,-3.6076193,-146.06511
1958000000,-3.5985296,-146.11278
1959000000,-3.6081319,-146.05458
1960000000,-3.6007729,-146.20003
1961000000,-3.6024957,-146.23466
1962000000,-3.6110172,-146.51033
1963000000,-3.6238413,-146.53041
1964000000,-3.6053021,-146.71812
1965000000,-3.5680296,-146.66171
1966000000,-3.5815086,-146.72571
1967000000,-3.5690107,-146.90268
1968000000,-3.5983412,-147.10861
1969000000,-3.5427914,-147.08325
1970000000,-3.5862203,-147.24294
1971000000,-3.5659668,-147.30946
1972000000,-3.5741699,-147.53305
1973000000,-3.5457537,-147.31906
1974000000,-3.568815,-147.63591
1975000000,-3.557656,-147.73792
1976000000,-3.5476289,-147.83623
1977000000,-3.5685773,-147.65999
1978000000,-3.5599325,-147.8922
1979000000,-3.5845308,-148.0208
1980000000,-3.5367346,-147.94968
1981000000,-3.5708802,-148.21634
1982000000,-3.5759201,-148.35681
1983000000,-3.5671453,-148.46033
1984000000,-3.5537546,-148.4129
1985000000,-3.5616162,-148.58601
1986000000,-3.557627,-148.65723
1987000000,-3.5579889,-148.72499
1988000000,-3.523479,-149.02795
1989000000,-3.5721278,-148.77753
1990000000,-3.553082,-148.95586
1991000000,-3.5600963,-149.18129
1992000000,-3.5548766,-149.4919
1993000000,-3.5671427,-149.50636
1994000000,-3.545013,-149.27144
1995000000,-3.5418584,-149.54169
1996000000,-3.5411143,-149.61571
1997000000,-3.5364153,-149.75591
1998000000,-3.565176,-149.72313
1999000000,-3.5199223,-149.86913
2000000000,-3.5379264,-150.14093
2001000000,-3.5328658,-150.0208
2002000000,-3.517437,-150.06947
2003000000,-3.5585451,-150.39925
2004000000,-3.5242543,-150.47031
2005000000,-3.536586,-150.5085
2006000000,-3.529145,-150.7045
2007000000,-3.5218964,-150.3885
2008000000,-3.5280688,-150.6907
2009000000,-3.5021019,-150.68997
2010000000,-3.4984179,-151.03032
2011000000,-3.523459,-150.86531
2012000000,-3.5247235,-150.94722
2013000000,-3.5500917,-151.1532
2014000000,-3.5228412,-151.37376
2015000000,-3.5127318,-151.39252
2016000000,-3.5295048,-151.52271
2017000000,-3.5061777,-151.72528
2018000000,-3.4874718,-151.5799
2019000000,-3.5280759,-151.68971
2020000000,-3.515605,-151.87071
2021000000,-3.5346828,-152.00453
2022000000,-3.5394678,-152.09557
2023000000,-3.5188498,-152.15851
2024000000,-3.5157919,-152.15762
2025000000,-3.5232966,-152.64243
2026000000,-3.5264158,-152.34018
2027000000,-3.5062301,-152.7282
2028000000,-3.4950206,-152.70929
2029000000,-3.4820035,-152.75388
2030000000,-3.5190873,-152.80275
2031000000,-3.5152326,-152.84351
2032000000,-3.5056577,-153.0139
2033000000,-3.4652851,-153.09346
2034000000,-3.4854975,-153.15578
2035000000,-3.4860024,-153.25592
2036000000,-3.4989166,-153.44368
2037000000,-3.5007727,-153.51053
2038000000,-3.4738812,-153.63844
2039000000,-3.4668086,-153.63306
2040000000,-3.5248804,-153.78444
2041000000,-3.4869883,-153.87735
2042000000,-3.4510863,-154.00272
2043000000,-3.5090599,-154.09056
2044000000,-3.4851615,-154.14474
2045000000,-3.4776082,-154.30833
2046000000,-3.4618714,-154.28787
2047000000,-3.4689972,-154.36052
2048000000,-3.4884107,-154.603
2049000000,-3.4824424,-154.83356
2050000000,-3.4909949,-154.69196
2051000000,-3.4979801,-154.66441
2052000000,-3.4892876,-154.87335
2053000000,-3.4383132,-155.10153
2054000000,-3.4547591,-155.10661
2055000000,-3.4708395,-155.27155
2056000000,-3.4581676,-155.13564
2057000000,-3.4823582,-155.36594
2058000000,-3.4741755,-155.46436
2059000000,-3.4830453,-155.76033
2060000000,-3.4482419,-155.77342
2061000000,-3.4650562,-155.74438
2062000000,-3.4714077,-156.05513
2063000000,-3.4603868,-155.72809
2064000000,-3.4655271,-156.07686
2065000000,-3.4622271,-156.27621
2066000000,-3.4702253,-156.12914
2067000000,-3.4570875,-156.25818
2068000000,-3.4681609,-156.66187
2069000000,-3.4438949,-156.4503
2070000000,-3.4446235,-156.59503
2071000000,-3.4965975,-156.64845
2072000000,-3.449157,-156.80354
2073000000,-3.4695635,-156.95966
2074000000,-3.4508934,-156.87477
2075000000,-3.4742451,-157.29576
2076000000,-3.455585,-157.26581
2077000000,-3.4402335,-157.35242
2078000000,-3.4306793,-157.39772
2079000000,-3.4724541,-157.34581
2080000000,-3.4583356,-157.52505
2081000000,-3.4558718,-157.78456
2082000000,-3.455617,-157.76248
2083000000,-3.4650707,-157.98367
2084000000,-3.4606042,-158.04878
2085000000,-3.4715075,-158.10645
2086000000,-3.4521008,-158.13017
2087000000,-3.4414861,-158.36406
2088000000,-3.4250739,-158.34801
2089000000,-3.4467411,-158.30518
2090000000,-3.4173913,-158.52695
2091000000,-3.4433987,-158.72931
2092000000,-3.4589629,-158.71791
2093000000,-3.4659004,-158.93513
2094000000,-3.4114153,-158.90858
2095000000,-3.4579747,-159.14546
2096000000,-3.4081094,-159.23117
2097000000,-3.4407158,-159.22186
2098000000,-3.4183722,-159.40028
2099000000,-3.4400117,-159.35832
2100000000,-3.4467697,-159.50784
2101000000,-3.4427526,-159.65526
2102000000,-3.4232304,-159.59015
2103000000,-3.4582596,-159.82082
2104000000,-3.446629,-160.03345
2105000000,-3.429404,-159.88608
2106000000,-3.4368706,-160.11795
2107000000,-3.4391081,-160.10197
2108000000,-3.4422531,-160.34711
2109000000,-3.4105294,-160.18077
2110000000,-3.4607625,-160.53035
2111000000,-3.4213023,-160.64296
2112000000,-3.4177916,-160.64795
2113000000,-3.4587102,-160.82045
2114000000,-3.3982363,-160.93686
2115000000,-3.4024959,-161.11125
2116000000,-3.4274497,-160.93748
2117000000,-3.4237976,-161.10362
2118000000,-3.4041359,-161.18156
2119000000,-3.4207723,-161.42303
2120000000,-3.4254608,-161.26225
2121000000,-3.42346,-161.4017
2122000000,-3.4234812,-161.49855
2123000000,-3.4304788,-161.73944
2124000000,-3.4072936,-161.8611
2125000000,-3.4484141,-162.09074
2126000000,-3.3962898,-162.07115
2127000000,-3.4171469,-162.10577
2128000000,-3.4508626,-161.99557
2129000000,-3.4270439,-162.26587
2130000000,-3.437475,-162.31256
2131000000,-3.4243279,-162.50725
2132000000,-3.4381533,-162.5034
2133000000,-3.4141347,-162.60335
2134000000,-3.4375207,-162.86008
2135000000,-3.4080718,-162.93317
2136000000,-3.4143875,-163.05742
2137000000,-3.4050267,-162.92871
2138000000,-3.4396427,-163.03322
2139000000,-3.4192505,-163.25595
2140000000,-3.448885,-163.3358
2141000000,-3.4356205,-163.35751
2142000000,-3.4284253,-163.39088
2143000000,-3.4189012,-163.7067
2144000000,-3.4032681,-163.76906
2145000000,-3.4360693,-163.86307
2146000000,-3.424649,-164.13831
2147000000,-3.4420328,-164.03584
2148000000,-3.4167933,-163.93292
2149000000,-3.4140217,-164.01883
2150000000,-3.3930285,-164.34666
2151000000,-3.376888,-164.43292
2152000000,-3.417012,-164.44086
2153000000,-3.4199059,-164.645
2154000000,-3.4206362,-164.84554
2155000000,-3.4356675,-164.7813
2156000000,-3.4120913,-164.78688
2157000000,-3.4075012,-164.84805
2158000000,-3.4047256,-164.97382
2159000000,-3.4256647,-164.85741
2160000000,-3.4204273,-165.16447
2161000000,-3.4273164,-165.30244
2162000000,-3.4017386,-165.47476
2163000000,-3.4230218,-165.42
2164000000,-3.3977265,-165.37358
2165000000,-3.4412363,-165.5704
2166000000,-3.419924,-165.79205
2167000000,-3.4225955,-165.79866
2168000000,-3.4058449,-165.94949
2169000000,-3.4327013,-165.98595
2170000000,-3.3870707,-166.23851
2171000000,-3.3951683,-166.29019
2172000000,-3.4152982,-166.26039
2173000000,-3.4054079,-166.84331
2174000000,-3.4113152,-166.69357
2175000000,-3.3961713,-166.65111
2176000000,-3.4334219,-166.87109
2177000000,-3.4233754,-166.77679
2178000000,-3.3954179,-167.00122
2179000000,-3.4313159,-166.96436
2180000000,-3.417028,-166.93854
2181000000,-3.3901834,-167.16168
2182000000,-3.4354844,-167.38432
2183000000,-3.4250453,-167.29376
2184000000,-3.4411838,-167.59512
2185000000,-3.3875768,-167.56198
2186000000,-3.3888674,-167.56923
2187000000,-3.4337335,-167.86902
2188000000,-3.4443779,-167.83446
2189000000,-3.4168236,-168.03271
2190000000,-3.3916619,-167.916
2191000000,-3.400882,-168.12143
2192000000,-3.4096,-168.14832
2193000000,-3.42978,-168.27324
2194000000,-3.4296119,-168.40813
2195000000,-3.4159431,-168.39473
2196000000,-3.3901987,-168.52473
2197000000,-3.3973329,-168.97157
2198000000,-3.3560839,-168.88628
2199000000,-3.4046242,-168.99574
2200000000,-3.4074335,-169.05724
2201000000,-3.4014914,-169.2038
2202000000,-3.433924,-169.31984
2203000000,-3.4087014,-169.42384
2204000000,-3.3758748,-169.5229
2205000000,-3.4219391,-169.5123
2206000000,-3.4316201,-169.28235
2207000000,-3.3971212,-169.6561
2208000000,-3.3908284,-169.79834
2209000000,-3.4449697,-170.00685
2210000000,-3.4228828,-170.03519
2211000000,-3.4181271,-169.88943
2212000000,-3.4409082,-170.17435
2213000000,-3.4064806,-170.06271
2214000000,-3.4161828,-170.32457
2215000000,-3.4032099,-170.42616
2216000000,-3.4249713,-170.52419
2217000000,-3.3968918,-170.69261
2218000000,-3.4043751,-170.72723
2219000000,-3.3932464,-170.75459
2220000000,-3.4283493,-170.89862
2221000000,-3.4065707,-170.83405
2222000000,-3.4154923,-170.96223
2223000000,-3.4204793,-171.30302
2224000000,-3.4035077,-171.28293
2225000000,-3.4218349,-171.43246
2226000000,-3.4253874,-171.39545
2227000000,-3.4403718,-171.54343
2228000000,-3.3752265,-171.65515
2229000000,-3.4229531,-171.73395
2230000000,-3.4154716,-171.99185
2231000000,-3.3782027,-171.9668
2232000000,-3.4479141,-172.12537
2233000000,-3.4316535,-172.15015
2234000000,-3.4110284,-171.9866
2235000000,-3.3861639,-172.31865
2236000000,-3.3961198,-172.23819
2237000000,-3.4199038,-172.44063
2238000000,-3.3724926,-172.54947
2239000000,-3.4087238,-172.63586
2240000000,-3.4028783,-172.63556
2241000000,-3.4036911,-172.6478
2242000000,-3.3942282,-172.89619
2243000000,-3.4407427,-172.92604
2244000000,-3.4171906,-173.05002
2245000000,-3.4191394,-173.13678
2246000000,-3.4064403,-173.18916
2247000000,-3.4126763,-173.21664
2248000000,-3.3841252,-173.60963
2249000000,-3.415077,-173.42671
2250000000,-3.4056849,-173.75386
2251000000,-3.3934345,-173.58316
2252000000,-3.4207103,-173.78915
2253000000,-3.4148319,-173.73239
2254000000,-3.3969994,-173.97502
2255000000,-3.4314394,-174.17853
2256000000,-3.4366441,-174.19678
2257000000,-3.4163861,-174.29323
2258000000,-3.4457181,-174.41162
2259000000,-3.4149134,-174.44615
2260000000,-3.3935513,-174.60298
2261000000,-3.4051073,-174.5459
2262000000,-3.4037147,-174.66446
2263000000,-3.4008098,-174.92111
2264000000,-3.4206359,-174.87897
2265000000,-3.4071474,-174.94452
2266000000,-3.4121974,-175.01578
2267000000,-3.4220223,-175.30328
2268000000,-3.4218676,-175.4174
2269000000,-3.4305398,-175.40408
2270000000,-3.4177971,-175.40195
2271000000,-3.4155829,-175.48877
2272000000,-3.3868906,-175.64156
2273000000,-3.435262,-175.71965
2274000000,-3.4345331,-175.78481
2275000000,-3.4125719,-175.69823
2276000000,-3.4322989,-176.10078
2277000000,-3.4220643,-176.2114
2278000000,-3.4159863,-175.98744
2279000000,-3.4261506,-176.16696
2280000000,-3.4206941,-176.32657
2281000000,-3.404937,-176.63721
2282000000,-3.4135246,-176.75862
2283000000,-3.392843,-176.62326
2284000000,-3.4180179,-176.93262
2285000000,-3.4187293,-176.97517
2286000000,-3.4042501,-177.17076
2287000000,-3.4242599,-177.23404
2288000000,-3.4176183,-176.97241
2289000000,-3.4296227,-177.15855
2290000000,-3.4064641,-177.29181
2291000000,-3.4315085,-177.43559
2292000000,-3.4527807,-177.45486
2293000000,-3.4241483,-177.74329
2294000000,-3.4016187,-177.62625
2295000000,-3.4114206,-177.64604
2296000000,-3.4471719,-178.21983
2297000000,-3.4101343,-177.82841
2298000000,-3.4011157,-177.96935
2299000000,-3.4110365,-178.21666
2300000000,-3.3999929,-178.43849
2301000000,-3.4273927,-178.49843
2302000000,-3.3953247,-178.44579
2303000000,-3.4473159,-178.5675
2304000000,-3.4522719,-178.44431
2305000000,-3.4075737,-178.61354
2306000000,-3.4432321,-178.61862
2307000000,-3.4369085,-179.01294
2308000000,-3.4082928,-178.92033
2309000000,-3.4310117,-178.95399
2310000000,-3.4128063,-179.14781
2311000000,-3.4175055,-179.17769
2312000000,-3.4440081,-179.37857
2313000000,-3.4053462,-179.64977
2314000000,-3.418942,-179.60287
2315000000,-3.4324832,-179.62741
2316000000,-3.4198818,-179.84714
2317000000,-3.4207978,-179.5551
2318000000,-3.4320703,-179.90559
2319000000,-3.420481,-180.07558
2320000000,-3.4029455,-179.90034
2321000000,-3.403434,-179.96222
2322000000,-3.4191823,-180.36671
2323000000,-3.3876126,-180.34772
2324000000,-3.4077442,-180.35583
2325000000,-3.4393356,-180.54431
2326000000,-3.4327259,-180.68997
2327000000,-3.4142554,-180.54034
2328000000,-3.4425182,-180.93874
2329000000,-3.434186,-180.66623
2330000000,-3.404072,-181.05222
2331000000,-3.4083264,-181.05995
2332000000,-3.4234438,-181.08263
2333000000,-3.4348466,-181.37914
2334000000,-3.3876088,-181.32454
2335000000,-3.4245379,-181.66032
2336000000,-3.4139295,-181.53644
2337000000,-3.4209282,-181.61615
2338000000,-3.4164431,-181.73792
2339000000,-3.4381251,-181.8584
2340000000,-3.3975437,-181.83797
2341000000,-3.4160945,-181.94931
2342000000,-3.4123132,-182.13448
2343000000,-3.3995423,-182.17006
2344000000,-3.4023976,-182.1674
2345000000,-3.4001613,-182.15158
2346000000,-3.4442446,-182.40248
2347000000,-3.4239995,-182.44847
2348000000,-3.4217844,-182.5215
2349000000,-3.4141407,-182.48869
2350000000,-3.4219916,-182.67136
2351000000,-3.4378264,-182.88065
2352000000,-3.4441338,-183.06689
2353000000,-3.4190505,-182.86673
2354000000,-3.4426775,-183.23279
2355000000,-3.4116628,-183.09879
2356000000,-3.4394438,-183.28601
2357000000,-3.4254882,-183.24031
2358000000,-3.4288628,-183.53098
2359000000,-3.4578066,-183.61963
2360000000,-3.4284966,-183.66476
2361000000,-3.4449544,-183.74426
2362000000,-3.4404869,-183.6689
2363000000,-3.4149504,-183.798
2364000000,-3.4057853,-183.93951
2365000000,-3.4606466,-183.99759
2366000000,-3.4203954,-184.14989
2367000000,-3.4468412,-184.2569
2368000000,-3.3877027,-184.20709
2369000000,-3.4184124,-184.40923
2370000000,-3.4146087,-184.46774
2371000000,-3.4145889,-184.52234
2372000000,-3.4659662,-184.98788
2373000000,-3.4309111,-185.19221
2374000000,-3.450685,-184.90671
2375000000,-3.4104786,-184.95963
2376000000,-3.3713641,-184.91786
2377000000,-3.3896816,-185.3679
2378000000,-3.4714799,-185.41255
2379000000,-3.4176531,-185.55083
2380000000,-3.4267449,-185.57292
2381000000,-3.4113786,-185.76126
2382000000,-3.4484744,-185.77034
2383000000,-3.4340544,-186.05876
2384000000,-3.4365439,-185.85266
2385000000,-3.4443595,-186.00887
2386000000,-3.4144664,-186.20132
2387000000,-3.4287622,-185.99368
2388000000,-3.4168234,-186.25041
2389000000,-3.4249706,-186.2392
2390000000,-3.4328215,-186.5526
2391000000,-3.4224129,-186.56618
2392000000,-3.3872399,-186.59985
2393000000,-3.4429975,-186.68689
2394000000,-3.4617012,-186.69604
2395000000,-3.4129064,-186.79808
2396000000,-3.4298799,-187.05458
2397000000,-3.4527199,-186.96457
2398000000,-3.4266284,-187.04889
2399000000,-3.4258909,-187.12335
2400000000,-3.4118083,-187.24002
2401000000,-3.4232304,-187.28932
2402000000,-3.4431043,-187.38097
2403000000,-3.4252777,-187.66536
2404000000,-3.4161203,-187.6232
2405000000,-3.4342833,-187.73172
2406000000,-3.4609089,-187.85738
2407000000,-3.4253495,-187.92542
2408000000,-3.421258,-188.00404
2409000000,-3.419517,-187.95204
2410000000,-3.4252348,-188.41031
2411000000,-3.4210932,-188.21111
2412000000,-3.4427865,-188.27722
2413000000,-3.401598,-188.47075
2414000000,-3.433665,-188.58801
2415000000,-3.4574683,-188.75476
2416000000,-3.4147978,-188.9209
2417000000,-3.4410379,-188.64667
2418000000,-3.3887136,-189.0546
2419000000,-3.4322567,-188.98972
2420000000,-3.4155555,-189.02643
2421000000,-3.4089592,-189.20023
2422000000,-3.4263163,-189.34604
2423000000,-3.4189782,-189.18848
2424000000,-3.4388058,-189.53885
2425000000,-3.4177773,-189.69128
2426000000,-3.4526298,-189.63847
2427000000,-3.4080729,-189.67334
2428000000,-3.3651848,-189.78996
2429000000,-3.4117033,-190.01489
2430000000,-3.4161878,-189.85783
2431000000,-3.4384356,-190.01729
2432000000,-3.4281621,-190.22386
2433000000,-3.4230318,-190.37692
2434000000,-3.4131484,-190.39531
2435000000,-3.4339433,-190.37444
2436000000,-3.4256606,-190.39085
2437000000,-3.4281676,-190.53491
2438000000,-3.4039748,-190.73853
2439000000,-3.436583,-190.55884
2440000000,-3.4388597,-190.94977
2441000000,-3.3861938,-190.9117
2442000000,-3.4271023,-191.03696
2443000000,-3.4367986,-191.00351
2444000000,-3.4452698,-191.15541
2445000000,-3.4601531,-191.2429
2446000000,-3.418649,-191.52159
2447000000,-3.4368801,-191.6613
2448000000,-3.4434087,-191.867
2449000000,-3.4195695,-191.68988
2450000000,-3.4328792,-192.01054
2451000000,-3.4067183,-191.86195
2452000000,-3.4170861,-192.00632
2453000000,-3.407115,-191.95001
2454000000,-3.4050047,-192.13152
2455000000,-3.4330397,-192.27173
2456000000,-3.4036639,-192.26688
2457000000,-3.440237,-192.31276
2458000000,-3.4008932,-192.47156
2459000000,-3.4449804,-192.67509
2460000000,-3.4098511,-192.76706
2461000000,-3.4124141,-192.78914
2462000000,-3.4327328,-192.97511
2463000000,-3.4329586,-193.14938
2464000000,-3.4226511,-193.24571
2465000000,-3.4057355,-193.11601
2466000000,-3.4166768,-193.34392
2467000000,-3.4096904,-193.21744
2468000000,-3.4051998,-193.33177
2469000000,-3.4135659,-193.56535
2470000000,-3.4032032,-193.47733
2471000000,-3.4325347,-193.66626
2472000000,-3.4280975,-193.86911
2473000000,-3.4017339,-193.9574
2474000000,-3.4363248,-194.05159
2475000000,-3.4314935,-194.21671
2476000000,-3.4437337,-194.32016
2477000000,-3.4374492,-194.16783
2478000000,-3.4202564,-194.30772
2479000000,-3.4229279,-194.49924
2480000000,-3.4469399,-194.48419
2481000000,-3.4346497,-194.69926
2482000000,-3.4220054,-194.54865
2483000000,-3.3993609,-194.83623
2484000000,-3.4289882,-194.76582
2485000000,-3.4236937,-194.89455
2486000000,-3.4325628,-195.00961
2487000000,-3.4406981,-195.18684
2488000000,-3.4252648,-195.24252
2489000000,-3.4210184,-195.50449
2490000000,-3.4214282,-195.30783
2491000000,-3.4314919,-195.65482
2492000000,-3.416234,-195.72217
2493000000,-3.408915,-195.70341
2494000000,-3.4467988,-195.6496
2495000000,-3.426527,-195.79214
2496000000,-3.4268038,-196.17699
2497000000,-3.4193213,-196.15489
2498000000,-3.4261768,-196.21492
2499000000,-3.419903,-196.29529
2500000000,-3.4315233,-196.4326
2501000000,-3.4043691,-196.4752
2502000000,-3.3952942,-196.57475
2503000000,-3.4502809,-196.66968
2504000000,-3.4082108,-196.70935
2505000000,-3.4186559,-196.69434
2506000000,-3.4247091,-196.81567
2507000000,-3.4169066,-197.04703
2508000000,-3.406234,-196.79039
2509000000,-3.40909,-197.28442
2510000000,-3.4110618,-197.03627
2511000000,-3.4100559,-197.29677
2512000000,-3.4116039,-197.38052
2513000000,-3.3967915,-197.3165
2514000000,-3.3854661,-197.71416
2515000000,-3.4333923,-197.65393
2516000000,-3.3937266,-197.92162
2517000000,-3.4113386,-197.80655
2518000000,-3.4335899,-197.92555
2519000000,-3.4085913,-198.12082
2520000000,-3.4081037,-198.27466
2521000000,-3.4158111,-198.20038
2522000000,-3.4278955,-198.30481
2523000000,-3.4027989,-198.22749
2524000000,-3.4148283,-198.70221
2525000000,-3.4074876,-198.1046
2526000000,-3.4467933,-198.67146
2527000000,-3.4449191,-198.7912
2528000000,-3.3984365,-198.87509
2529000000,-3.4194024,-198.94917
2530000000,-3.4155354,-199.19185
2531000000,-3.410347,-199.41103
2532000000,-3.4476659,-199.09456
2533000000,-3.4365191,-199.59232
2534000000,-3.4243374,-199.6143
2535000000,-3.4285359,-199.83202
2536000000,-3.4226947,-199.59831
2537000000,-3.4365146,-199.75304
2538000000,-3.4047606,-199.86159
2539000000,-3.4007957,-200.01991
2540000000,-3.3954279,-199.77942
2541000000,-3.4060133,-200.19865
2542000000,-3.3925884,-200.07626
2543000000,-3.4011595,-200.30803
2544000000,-3.4026945,-200.44023
2545000000,-3.3943028,-200.52811
2546000000,-3.4124434,-200.54732
2547000000,-3.4178343,-200.65805
2548000000,-3.3979909,-200.80486
2549000000,-3.4113684,-200.98083
2550000000,-3.3973243,-200.82542
2551000000,-3.3824778,-201.07042
2552000000,-3.4146707,-201.13487
2553000000,-3.3842621,-201.14453
2554000000,-3.4099143,-201.19507
2555000000,-3.3883119,-201.22942
2556000000,-3.3882153,-201.56638
2557000000,-3.4042494,-201.5863
2558000000,-3.4282479,-201.61746
2559000000,-3.4175313,-201.66302
2560000000,-3.4033711,-201.81749
2561000000,-3.4083664,-201.92212
2562000000,-3.39485,-201.97189
2563000000,-3.4006264,-202.36678
2564000000,-3.4195223,-202.10797
2565000000,-3.417316,-202.3242
2566000000,-3.4115958,-202.33368
2567000000,-3.430423,-202.51758
2568000000,-3.3865845,-202.45552
2569000000,-3.3867056,-202.70125
2570000000,-3.3907473,-202.88037
2571000000,-3.4151056,-202.87897
2572000000,-3.4184456,-203.27507
2573000000,-3.4163251,-203.10217
2574000000,-3.3963828,-203.08545
2575000000,-3.4218383,-202.93491
2576000000,-3.39309,-203.51518
2577000000,-3.4179533,-203.52861
2578000000,-3.372776,-203.24387
2579000000,-3.3914814,-203.69382
2580000000,-3.3983557,-203.76108
2581000000,-3.3980613,-203.91338
2582000000,-3.4097586,-203.96559
2583000000,-3.4177244,-203.76163
2584000000,-3.3788981,-204.13057
2585000000,-3.4188707,-204.08463
2586000000,-3.415597,-204.10461
2587000000,-3.3909917,-204.19769
2588000000,-3.4046547,-204.54263
2589000000,-3.4336245,-204.5293
2590000000,-3.3968251,-204.69751
2591000000,-3.382262,-204.82202
2592000000,-3.416919,-204.76421
2593000000,-3.4154367,-204.78076
2594000000,-3.402528,-204.96655
2595000000,-3.3994803,-205.00328
2596000000,-3.3817861,-205.09346
2597000000,-3.3661561,-205.52081
2598000000,-3.3809268,-205.47763
2599000000,-3.3956118,-205.5023
2600000000,-3.4138324,-205.69334
2601000000,-3.4094064,-205.64713
2602000000,-3.4239838,-205.8102
2603000000,-3.4049175,-205.78079
2604000000,-3.4339762,-205.95863
2605000000,-3.4363952,-205.90663
2606000000,-3.3846614,-206.21992
2607000000,-3.4119442,-206.07349
2608000000,-3.3808289,-206.25017
2609000000,-3.3914008,-206.37816
2610000000,-3.3912253,-206.64911
2611000000,-3.3975048,-206.66408
2612000000,-3.3941426,-206.68689
2613000000,-3.4347456,-206.93742
2614000000,-3.4366195,-206.82794
2615000000,-3.4070399,-206.93185
2616000000,-3.3996539,-206.7513
2617000000,-3.4317958,-206.90131
2618000000,-3.464813,-207.47554
2619000000,-3.4264641,-207.23207
2620000000,-3.3933747,-207.57677
2621000000,-3.4087305,-207.52312
2622000000,-3.383642,-207.6908
2623000000,-3.3870816,-207.76247
2624000000,-3.3900704,-207.79985
2625000000,-3.4179881,-208.07143
2626000000,-3.3758435,-207.98038
2627000000,-3.3779376,-208.15875
2628000000,-3.4018338,-208.17102
2629000000,-3.4195518,-208.15538
2630000000,-3.4035923,-208.30574
2631000000,-3.4048982,-208.59561
2632000000,-3.3974411,-208.41104
2633000000,-3.4246955,-208.54533
2634000000,-3.4025259,-209.02888
2635000000,-3.3875992,-208.79025
2636000000,-3.3902676,-209.2269
2637000000,-3.3687894,-209.1743
2638000000,-3.394228,-208.89636
2639000000,-3.4125991,-209.25935
2640000000,-3.4271579,-209.34206
2641000000,-3.4077151,-209.46399
2642000000,-3.3877749,-209.57304
2643000000,-3.4077194,-209.72868
2644000000,-3.4213676,-209.77559
2645000000,-3.4112666,-209.64195
2646000000,-3.4337859,-209.97789
2647000000,-3.3948119,-210.15186
2648000000,-3.3857617,-210.03526
2649000000,-3.4312437,-209.91594
2650000000,-3.3741856,-210.14574
2651000000,-3.4083457,-210.51178
2652000000,-3.4005218,-210.43956
2653000000,-3.3999445,-210.67999
2654000000,-3.4165845,-210.61523
2655000000,-3.3741243,-210.49496
2656000000,-3.4014139,-210.90308
2657000000,-3.4232759,-210.94382
2658000000,-3.4205306,-210.90102
2659000000,-3.3963258,-211.04015
2660000000,-3.4488752,-211.27661
2661000000,-3.4115438,-211.31877
2662000000,-3.4066749,-211.32378
2663000000,-3.3821516,-211.53438
2664000000,-3.4123428,-211.59235
2665000000,-3.4055543,-211.5442
2666000000,-3.4104345,-211.72037
2667000000,-3.4113736,-211.99437
2668000000,-3.398104,-211.94911
2669000000,-3.408458,-212.00449
2670000000,-3.4049146,-212.21249
2671000000,-3.4158342,-212.41666
2672000000,-3.3579066,-212.23523
2673000000,-3.4036674,-212.5052
2674000000,-3.4208455,-212.59084
2675000000,-3.3939795,-212.57266
2676000000,-3.4100108,-212.65593
2677000000,-3.3970692,-213.03625
2678000000,-3.409518,-212.7816
2679000000,-3.3978372,-213.02638
2680000000,-3.4143987,-212.96263
2681000000,-3.4126363,-213.24146
2682000000,-3.4363768,-213.11259
2683000000,-3.4104304,-213.38025
2684000000,-3.4067121,-213.4733
2685000000,-3.3762753,-213.70554
2686000000,-3.4248927,-213.4821
2687000000,-3.4018781,-213.87318
2688000000,-3.444355,-213.99486
2689000000,-3.4113455,-213.95764
2690000000,-3.4390032,-214.07338
2691000000,-3.3991792,-214.24998
2692000000,-3.4121368,-214.44977
2693000000,-3.4321187,-214.24686
2694000000,-3.395503,-214.49182
2695000000,-3.437186,-214.60555
2696000000,-3.4414167,-214.87906
2697000000,-3.4365346,-214.96431
2698000000,-3.4420819,-214.97861
2699000000,-3.4453948,-214.8671
2700000000,-3.4171314,-215.0923
2701000000,-3.4168315,-215.15157
2702000000,-3.3988142,-215.28474
2703000000,-3.4315226,-215.31877
2704000000,-3.4281294,-215.35237
2705000000,-3.4104826,-215.45
2706000000,-3.4044178,-215.50206
2707000000,-3.4319665,-215.68419
2708000000,-3.398118,-215.84857
2709000000,-3.3868353,-216.1265
2710000000,-3.4264729,-216.05649
2711000000,-3.4389474,-215.82214
2712000000,-3.4288418,-216.05951
2713000000,-3.3931017,-216.28442
2714000000,-3.4229131,-216.55046
2715000000,-3.42665,-216.38586
2716000000,-3.4625077,-216.64706
2717000000,-3.4319141,-216.63634
2718000000,-3.4064,-216.88637
2719000000,-3.4268844,-217.09802
2720000000,-3.4433043,-216.72728
2721000000,-3.415906,-216.98413
2722000000,-3.4007874,-217.10518
2723000000,-3.4343922,-217.28204
2724000000,-3.4203403,-217.28325
2725000000,-3.4486563,-217.30225
2726000000,-3.4253228,-217.49646
2727000000,-3.44891,-217.72343
2728000000,-3.4444578,-217.69814
2729000000,-3.439187,-217.83078
2730000000,-3.4017539,-217.84142
2731000000,-3.4136145,-218.02594
2732000000,-3.4162724,-218.31732
2733000000,-3.4407773,-218.26424
2734000000,-3.4253101,-218.35414
2735000000,-3.4237187,-218.55807
2736000000,-3.4291089,-218.3371
2737000000,-3.4070287,-218.81778
2738000000,-3.4479768,-218.53304
2739000000,-3.3987465,-218.82274
2740000000,-3.4172835,-219.02811
2741000000,-3.4350946,-218.88239
2742000000,-3.4055889,-219.03148
2743000000,-3.4075994,-219.26686
2744000000,-3.4416094,-219.33588
2745000000,-3.4231906,-219.45096
2746000000,-3.438585,-219.58099
2747000000,-3.4581163,-219.41077
2748000000,-3.4377747,-219.85997
2749000000,-3.432457,-219.68309
2750000000,-3.4204247,-219.7999
2751000000,-3.4646456,-220.18143
2752000000,-3.4265866,-220.0265
2753000000,-3.4373164,-220.09186
2754000000,-3.4381647,-220.30591
2755000000,-3.453486,-220.27415
2756000000,-3.4368658,-220.26596
2757000000,-3.4323816,-220.39627
2758000000,-3.4346085,-220.56735
2759000000,-3.4563324,-220.86452
2760000000,-3.435112,-220.64075
2761000000,-3.4572239,-220.90219
2762000000,-3.4346974,-221.05986
2763000000,-3.466892,-221.21198
2764000000,-3.4559927,-221.1467
2765000000,-3.451231,-221.34264
2766000000,-3.4256117,-221.33434
2767000000,-3.4190121,-221.44518
2768000000,-3.4380617,-221.58301
2769000000,-3.431407,-221.66035
2770000000,-3.459831,-221.73216
2771000000,-3.4699337,-221.98366
2772000000,-3.456816,-221.80402
2773000000,-3.4691565,-221.96207
2774000000,-3.4492505,-222.37166
2775000000,-3.4359405,-222.28076
2776000000,-3.4896507,-222.40771
2777000000,-3.4378464,-222.58223
2778000000,-3.4960687,-222.61235
2779000000,-3.4521303,-222.57375
2780000000,-3.4512482,-222.71918
2781000000,-3.4508893,-222.93019
2782000000,-3.4693596,-222.83505
2783000000,-3.473279,-222.79683
2784000000,-3.4496939,-223.00772
2785000000,-3.4529948,-223.31564
2786000000,-3.4232101,-223.22797
2787000000,-3.4771338,-223.37427
2788000000,-3.4437151,-223.61548
2789000000,-3.4251161,-223.71896
2790000000,-3.4499009,-223.74725
2791000000,-3.5031569,-223.85378
2792000000,-3.4625638,-223.9913
2793000000,-3.4764595,-223.99835
2794000000,-3.4611366,-224.11905
2795000000,-3.4611914,-224.17955
2796000000,-3.4917269,-224.45813
2797000000,-3.4463294,-224.1888
2798000000,-3.4965978,-224.4796
2799000000,-3.4428272,-224.52119
2800000000,-3.4656456,-224.6889
2801000000,-3.4738345,-224.58481
2802000000,-3.4818499,-224.88258
2803000000,-3.4716978,-224.82089
2804000000,-3.4743681,-225.0248
2805000000,-3.5019741,-225.13408
2806000000,-3.4990826,-225.23698
2807000000,-3.4721956,-225.3282
2808000000,-3.4643667,-225.34271
2809000000,-3.4717314,-225.36954
2810000000,-3.4601879,-225.76004
2811000000,-3.484159,-225.71176
2812000000,-3.483897,-225.91014
2813000000,-3.5051012,-225.92984
2814000000,-3.4947882,-225.83113
2815000000,-3.482352,-226.24838
2816000000,-3.4689572,-226.08038
2817000000,-3.4656641,-226.36963
2818000000,-3.5084844,-226.22833
2819000000,-3.4886432,-226.58632
2820000000,-3.5337276,-226.72279
2821000000,-3.5106695,-226.59866
2822000000,-3.5010018,-226.83954
2823000000,-3.480854,-226.96132
2824000000,-3.5020804,-226.93587
2825000000,-3.4735222,-227.02597
2826000000,-3.4820974,-227.12141
2827000000,-3.5051963,-227.34894
2828000000,-3.4513841,-227.43694
2829000000,-3.4638119,-227.32758
2830000000,-3.4980819,-227.446
2831000000,-3.5120673,-227.77267
2832000000,-3.4775503,-227.89281
2833000000,-3.5110452,-227.95795
2834000000,-3.4704506,-228.05231
2835000000,-3.4717047,-228.03212
2836000000,-3.493798,-228.17702
2837000000,-3.4958742,-228.06091
2838000000,-3.5010118,-228.33435
2839000000,-3.53145,-228.50586
2840000000,-3.5213223,-228.53534
2841000000,-3.5342503,-228.4807
2842000000,-3.4901786,-228.71472
2843000000,-3.4982219,-228.74278
2844000000,-3.5064056,-228.94585
2845000000,-3.4914274,-229.08887
2846000000,-3.4831972,-229.07709
2847000000,-3.4930577,-229.42543
2848000000,-3.5290258,-229.28473
2849000000,-3.5375955,-229.37926
2850000000,-3.5152168,-229.3992
2851000000,-3.5127435,-229.58891
2852000000,-3.5063334,-229.66743
2853000000,-3.5179975,-229.97058
2854000000,-3.5191712,-229.98323
2855000000,-3.4999101,-230.17024
2856000000,-3.5469623,-229.96078
2857000000,-3.505378,-230.25824
2858000000,-3.5349941,-230.37367
2859000000,-3.5310574,-230.43854
2860000000,-3.5404053,-230.5826
2861000000,-3.5409336,-230.68565
2862000000,-3.525099,-230.53575
2863000000,-3.5271087,-230.6561
2864000000,-3.5475237,-230.78592
2865000000,-3.4942563,-230.89725
2866000000,-3.5619521,-231.11096
2867000000,-3.5569651,-231.2769
2868000000,-3.5574584,-231.42162
2869000000,-3.5645251,-231.44836
2870000000,-3.4732294,-231.43648
2871000000,-3.5310571,-231.58691
2872000000,-3.561136,-231.49855
2873000000,-3.5437734,-231.94374
2874000000,-3.5349014,-231.99831
2875000000,-3.5615301,-231.86665
2876000000,-3.544812,-231.91934
2877000000,-3.5702491,-232.18781
2878000000,-3.5660961,-232.34541
2879000000,-3.5616446,-232.4111
2880000000,-3.5802763,-232.31638
2881000000,-3.56407,-232.58754
2882000000,-3.5368655,-232.63445
2883000000,-3.573638,-232.68846
2884000000,-3.5615499,-232.55365
2885000000,-3.5824635,-233.1534
2886000000,-3.5497487,-233.11813
2887000000,-3.570925,-233.16946
2888000000,-3.5940809,-233.39142
2889000000,-3.5462341,-233.32036
2890000000,-3.5650654,-233.37024
2891000000,-3.5853307,-233.56195
2892000000,-3.5392947,-233.6376
2893000000,-3.5763676,-233.71124
2894000000,-3.584281,-233.92281
2895000000,-3.5539656,-233.97772
2896000000,-3.6109619,-234.13364
2897000000,-3.5923157,-234.12672
2898000000,-3.5880675,-234.16998
2899000000,-3.5761211,-234.32735
2900000000,-3.5821862,-234.31999
2901000000,-3.5873511,-234.57761
2902000000,-3.5730948,-234.49315
2903000000,-3.5866394,-234.77029
2904000000,-3.5721176,-234.83311
2905000000,-3.5830786,-234.73361
2906000000,-3.6056724,-234.88486
2907000000,-3.6148145,-235.213
2908000000,-3.6074507,-235.1597
2909000000,-3.5949099,-235.07596
2910000000,-3.5540156,-235.47119
2911000000,-3.6195872,-235.58791
2912000000,-3.5962882,-235.45222
2913000000,-3.5911491,-235.70221
2914000000,-3.5612946,-235.79082
2915000000,-3.6236265,-235.81546
2916000000,-3.6455865,-236.08841
2917000000,-3.6127136,-235.91214
2918000000,-3.6216507,-236.15182
2919000000,-3.6228936,-236.28146
2920000000,-3.5557976,-236.10472
2921000000,-3.5995419,-236.56366
2922000000,-3.6311646,-236.62366
2923000000,-3.5991755,-236.57573
2924000000,-3.608429,-236.71881
2925000000,-3.6365621,-236.71622
2926000000,-3.6109812,-236.87572
2927000000,-3.6480114,-237.0591
2928000000,-3.6150632,-237.08661
2929000000,-3.6464188,-237.16971
2930000000,-3.6510112,-237.38312
2931000000,-3.6346142,-237.40866
2932000000,-3.626472,-237.36598
2933000000,-3.6780419,-237.51842
2934000000,-3.5979755,-237.66635
2935000000,-3.6489556,-237.85762
2936000000,-3.5966785,-237.78362
2937000000,-3.6089444,-238.05843
2938000000,-3.6502459,-237.93254
2939000000,-3.6294172,-238.44991
2940000000,-3.6393263,-238.26389
2941000000,-3.6448348,-238.02948
2942000000,-3.6603477,-238.49977
2943000000,-3.6495225,-238.57272
2944000000,-3.6316247,-238.78096
2945000000,-3.6421566,-239.06136
2946000000,-3.6408603,-238.87857
2947000000,-3.659102,-239.01985
2948000000,-3.6605866,-239.06544
2949000000,-3.7042892,-239.23024
2950000000,-3.6249402,-239.33336
2951000000,-3.7166834,-239.35898
2952000000,-3.6750889,-239.38152
2953000000,-3.6531863,-239.53358
2954000000,-3.6761713,-239.74016
2955000000,-3.6776562,-239.89925
2956000000,-3.6253495,-239.76988
2957000000,-3.6582787,-240.13371
2958000000,-3.6845527,-240.05518
2959000000,-3.6775019,-240.1447
2960000000,-3.6839755,-240.26147
2961000000,-3.6757832,-240.45695
2962000000,-3.6864288,-240.63008
2963000000,-3.7101762,-240.54956
2964000000,-3.6833456,-240.43449
2965000000,-3.7003407,-240.61882
2966000000,-3.7015424,-240.67314
2967000000,-3.683768,-240.67114
2968000000,-3.6821301,-241.0688
2969000000,-3.7000949,-241.05132
2970000000,-3.7322142,-241.15034
2971000000,-3.7139177,-241.16994
2972000000,-3.6901934,-241.51254
2973000000,-3.6883821,-241.33154
2974000000,-3.7131877,-241.72928
2975000000,-3.7151985,-241.48508
2976000000,-3.7171638,-241.85342
2977000000,-3.7220805,-241.80064
2978000000,-3.698823,-242.01244
2979000000,-3.7206247,-241.79192
2980000000,-3.6997013,-242.18864
2981000000,-3.6957064,-242.19995
2982000000,-3.704927,-242.26018
2983000000,-3.7061257,-242.37251
2984000000,-3.7254364,-242.38864
2985000000,-3.7405205,-242.67747
2986000000,-3.7306972,-242.83072
2987000000,-3.7161229,-242.8589
2988000000,-3.7613938,-243.09184
2989000000,-3.7161527,-243.34439
2990000000,-3.7266788,-243.19949
2991000000,-3.7369125,-243.2211
2992000000,-3.7201948,-243.27377
2993000000,-3.7626581,-243.34399
2994000000,-3.7391026,-243.451
2995000000,-3.7550659,-243.71071
2996000000,-3.7381413,-243.67168
2997000000,-3.7353351,-243.93335
2998000000,-3.7333732,-244.00925
2999000000,-3.7536459,-243.88731
3000000000,-3.7800555,-244.05673
3001000000,-3.7617321,-244.13947
3002000000,-3.7696178,-244.25017
3003000000,-3.7648113,-244.4101
3004000000,-3.7703643,-244.44313
3005000000,-3.7755947,-244.5569
3006000000,-3.7828231,-244.67186
3007000000,-3.761157,-244.66019
3008000000,-3.7868636,-244.71661
3009000000,-3.7874436,-244.98599
3010000000,-3.7935648,-245.09023
3011000000,-3.7985468,-245.13759
3012000000,-3.7340419,-245.02754
3013000000,-3.818831,-245.34119
3014000000,-3.808706,-245.48993
3015000000,-3.7945096,-245.42761
3016000000,-3.8044639,-245.74971
3017000000,-3.8030574,-245.78941
3018000000,-3.8123016,-245.74199
3019000000,-3.8149424,-245.95168
3020000000,-3.7848728,-246.01859
3021000000,-3.7843046,-245.92375
3022000000,-3.8055339,-246.19414
3023000000,-3.7971883,-246.26453
3024000000,-3.8093815,-246.48181
3025000000,-3.8174915,-246.38362
3026000000,-3.8331981,-246.58931
3027000000,-3.8232706,-246.52448
3028000000,-3.8421886,-246.73433
3029000000,-3.8091474,-246.97169
3030000000,-3.8086278,-247.03172
3031000000,-3.8385828,-247.27432
3032000000,-3.8127685,-247.10255
3033000000,-3.8409901,-247.1669
3034000000,-3.8244514,-247.44893
3035000000,-3.8060436,-247.39426
3036000000,-3.8465481,-247.34615
3037000000,-3.8424165,-247.81596
3038000000,-3.8537743,-247.68321
3039000000,-3.8700478,-247.81259
3040000000,-3.8444817,-247.89825
3041000000,-3.8648646,-247.96234
3042000000,-3.8485737,-247.9857
3043000000,-3.8565106,-248.21841
3044000000,-3.8702543,-248.25211
3045000000,-3.8418739,-248.27782
3046000000,-3.8697073,-248.5719
3047000000,-3.9099767,-248.67378
3048000000,-3.863873,-248.81071
3049000000,-3.8669698,-248.85306
3050000000,-3.86292,-248.81989
3051000000,-3.8651843,-248.86084
3052000000,-3.8865478,-248.99141
3053000000,-3.9000139,-248.97517
3054000000,-3.9046423,-249.3313
3055000000,-3.8889084,-249.37456
3056000000,-3.9130645,-249.38124
3057000000,-3.9236891,-249.44223
3058000000,-3.8872249,-249.67828
3059000000,-3.8902369,-249.76045
3060000000,-3.9216793,-249.73373
3061000000,-3.9298327,-249.92513
3062000000,-3.9497662,-249.98544
3063000000,-3.9240825,-250.07071
3064000000,-3.9176016,-250.05176
3065000000,-3.9341781,-250.46152
3066000000,-3.9000783,-250.41078
3067000000,-3.924382,-250.19551
3068000000,-3.938096,-250.68062
3069000000,-3.9642529,-250.7872
3070000000,-3.9243996,-250.71764
3071000000,-3.9658034,-250.78392
3072000000,-3.9516413,-251.01161
3073000000,-3.9440401,-251.07661
3074000000,-3.9491775,-251.10101
3075000000,-3.9389997,-251.2796
3076000000,-3.961129,-251.2831
3077000000,-3.9260581,-251.38335
3078000000,-3.9640858,-251.44173
3079000000,-3.9708257,-251.61688
3080000000,-3.9533651,-251.77881
3081000000,-3.9654891,-251.82443
3082000000,-3.9446695,-252.18846
3083000000,-3.9796653,-251.97433
3084000000,-3.9501171,-251.88135
3085000000,-3.9609361,-251.87241
3086000000,-3.977212,-252.26906
3087000000,-3.995496,-252.30418
3088000000,-4.0184035,-252.29582
3089000000,-3.9790142,-252.56046
3090000000,-3.9764311,-252.86394
3091000000,-3.9988167,-252.75749
3092000000,-3.9814751,-252.7999
3093000000,-4.0423589,-253.01923
3094000000,-3.9955878,-253.09567
3095000000,-4.0171251,-253.16681
3096000000,-4.0003128,-253.07408
3097000000,-4.0312986,-253.4415
3098000000,-4.0251808,-253.28217
3099000000,-4.0152578,-253.48494
3100000000,-4.0436144,-253.47762
3101000000,-4.0134435,-253.72069
3102000000,-4.0221305,-253.64359
3103000000,-4.0435972,-253.7603
3104000000,-4.0080595,-253.93408
3105000000,-3.998909,-254.02103
3106000000,-4.0482998,-254.05196
3107000000,-4.0373878,-254.26189
3108000000,-4.0290365,-254.30685
3109000000,-4.0388517,-254.13293
3110000000,-4.0491438,-254.48268
3111000000,-4.076139,-254.5643
3112000000,-4.0210872,-254.88062
3113000000,-4.0646014,-254.75858
3114000000,-4.0636802,-254.97473
3115000000,-4.0766172,-254.88666
3116000000,-4.063417,-254.9299
3117000000,-4.0719972,-255.18019
3118000000,-4.0535712,-255.37778
3119000000,-4.0273457,-255.29411
3120000000,-4.056076,-255.41534
3121000000,-4.0636268,-255.29884
3122000000,-4.0674934,-255.63617
3123000000,-4.0509853,-255.88937
3124000000,-4.0597897,-255.69676
3125000000,-4.0677485,-255.93875
3126000000,-4.0831418,-256.0184
3127000000,-4.0913544,-256.20203
3128000000,-4.0870547,-256.00604
3129000000,-4.1206398,-256.19241
3130000000,-4.098103,-256.49374
3131000000,-4.1030884,-256.59726
3132000000,-4.0992942,-256.55115
3133000000,-4.1130991,-256.59543
3134000000,-4.0878906,-256.72571
3135000000,-4.1231694,-256.97845
3136000000,-4.1483865,-256.98151
3137000000,-4.1166544,-256.99429
3138000000,-4.1032262,-257.1535
3139000000,-4.1338024,-257.30783
3140000000,-4.1215801,-257.30261
3141000000,-4.1496172,-257.33508
3142000000,-4.108284,-257.42978
3143000000,-4.1565342,-257.58054
3144000000,-4.1347814,-257.68246
3145000000,-4.1720986,-257.76752
3146000000,-4.1458788,-257.84921
3147000000,-4.1386609,-257.83942
3148000000,-4.1637359,-257.9823
3149000000,-4.1499939,-257.99387
3150000000,-4.149529,-258.271
3151000000,-4.150197,-258.27805
3152000000,-4.1808829,-258.2782
3153000000,-4.1816659,-258.59006
3154000000,-4.1609378,-258.64523
3155000000,-4.1835618,-258.58994
3156000000,-4.1689816,-258.45685
3157000000,-4.1884689,-258.94272
3158000000,-4.206274,-258.9314
3159000000,-4.189837,-259.03275
3160000000,-4.2121625,-259.18628
3161000000,-4.1876144,-259.23297
3162000000,-4.1916661,-259.06711
3163000000,-4.1715026,-259.45123
3164000000,-4.2129579,-259.45013
3165000000,-4.2151003,-259.51984
3166000000,-4.2096977,-259.6907
3167000000,-4.2303457,-259.87292
3168000000,-4.2219367,-259.88885
3169000000,-4.1887002,-260.04538
3170000000,-4.1914911,-259.92596
3171000000,-4.2093015,-259.97491
3172000000,-4.2455673,-260.14157
3173000000,-4.2091236,-260.36438
3174000000,-4.2493701,-260.28702
3175000000,-4.2106905,-260.38788
3176000000,-4.234766,-260.7114
3177000000,-4.2357454,-260.62189
3178000000,-4.2274337,-260.66769
3179000000,-4.2622294,-260.99426
3180000000,-4.2754683,-260.60327
3181000000,-4.26964,-260.97485
3182000000,-4.2544422,-261.02319
3183000000,-4.2546821,-261.15649
3184000000,-4.2485948,-261.29623
3185000000,-4.2651467,-261.54553
3186000000,-4.235373,-261.43866
3187000000,-4.274859,-261.47723
3188000000,-4.3077402,-261.46729
3189000000,-4.2701421,-261.69629
3190000000,-4.2877183,-261.83884
3191000000,-4.2910628,-261.91708
3192000000,-4.3137422,-261.87177
3193000000,-4.2941685,-262.1265
3194000000,-4.3221307,-262.20206
3195000000,-4.2794514,-262.47519
3196000000,-4.2974343,-262.53015
3197000000,-4.2938571,-262.25577
3198000000,-4.2846107,-262.40747
3199000000,-4.2916498,-262.66553
3200000000,-4.2868667,-262.95798
3201000000,-4.319746,-263.02637
3202000000,-4.3114777,-262.89764
3203000000,-4.3192945,-262.73734
3204000000,-4.2591963,-263.09018
3205000000,-4.3351078,-262.95831
3206000000,-4.3294282,-263.17004
3207000000,-4.3639693,-263.47305
3208000000,-4.2913465,-263.33469
3209000000,-4.3487239,-263.64648
3210000000,-4.3271136,-263.43549
3211000000,-4.3359509,-263.75314
3212000000,-4.3429866,-263.6824
3213000000,-4.3501511,-263.94586
3214000000,-4.37326,-263.89511
3215000000,-4.3582911,-264.05328
3216000000,-4.3437338,-264.32513
3217000000,-4.3867812,-264.28149
3218000000,-4.4041286,-264.2887
3219000000,-4.3635092,-264.36105
3220000000,-4.3739853,-264.65759
3221000000,-4.3806019,-264.47141
3222000000,-4.3859081,-264.51407
3223000000,-4.3838305,-264.73492
3224000000,-4.3885522,-264.78882
3225000000,-4.3654404,-264.93134
3226000000,-4.4158401,-265.11896
3227000000,-4.4077215,-264.8732
3228000000,-4.3898602,-265.15671
3229000000,-4.3907404,-265.45526
3230000000,-4.3998208,-265.48022
3231000000,-4.3856626,-265.53152
3232000000,-4.4050918,-265.48163
3233000000,-4.4040246,-265.71323
3234000000,-4.3909855,-265.9028
3235000000,-4.4255385,-265.82736
3236000000,-4.4299083,-265.97394
3237000000,-4.4249291,-265.73569
3238000000,-4.4277449,-266.18051
3239000000,-4.4347205,-265.96231
3240000000,-4.4630599,-266.3074
3241000000,-4.4574671,-266.34152
3242000000,-4.4083014,-266.48163
3243000000,-4.4396501,-266.65723
3244000000,-4.4517589,-266.28906
3245000000,-4.4309111,-266.64859
3246000000,-4.4884934,-266.45355
3247000000,-4.4446816,-266.79016
3248000000,-4.4834986,-267.02335
3249000000,-4.4534607,-267.01489
3250000000,-4.4804301,-267.13574
3251000000,-4.4830394,-267.16028
3252000000,-4.5022569,-267.44177
3253000000,-4.5086694,-267.37604
3254000000,-4.5230942,-267.38589
3255000000,-4.512939,-267.4014
3256000000,-4.5461035,-267.41534
3257000000,-4.5170889,-267.72211
3258000000,-4.5280967,-267.70865
3259000000,-4.5384264,-267.87927
3260000000,-4.5261693,-268.13416
3261000000,-4.543478,-268.04501
3262000000,-4.4963045,-268.07144
3263000000,-4.5529695,-268.22659
3264000000,-4.5334396,-268.19107
3265000000,-4.5043821,-268.33606
3266000000,-4.5413251,-268.47696
3267000000,-4.5426049,-268.63419
3268000000,-4.5397005,-268.59821
3269000000,-4.5255027,-268.59299
3270000000,-4.5429249,-268.91434
3271000000,-4.5688844,-268.78671
3272000000,-4.5663667,-269.03336
3273000000,-4.5562534,-269.0777
3274000000,-4.5624342,-269.03531
3275000000,-4.5490971,-269.22659
3276000000,-4.5423174,-269.43439
3277000000,-4.5394073,-269.41794
3278000000,-4.5859594,-269.44247
3279000000,-4.6036921,-269.74878
3280000000,-4.5749068,-269.70886
3281000000,-4.5827727,-269.71597
3282000000,-4.5700202,-269.94095
3283000000,-4.5805964,-269.94214
3284000000,-4.6036677,-269.85355
3285000000,-4.5965734,-269.89517
3286000000,-4.5998201,-270.09509
3287000000,-4.6084437,-270.21872
3288000000,-4.6081991,-270.42868
3289000000,-4.6440921,-270.371
3290000000,-4.6301856,-270.58102
3291000000,-4.6270685,-270.80377
3292000000,-4.6350255,-270.40201
3293000000,-4.6332922,-270.68466
3294000000,-4.6142435,-270.81274
3295000000,-4.6380949,-270.79825
3296000000,-4.6529036,-270.99771
3297000000,-4.6316023,-271.06506
3298000000,-4.6514654,-271.35535
3299000000,-4.6850848,-271.34805
3300000000,-4.6569691,-271.49362
3301000000,-4.6677232,-271.40665
3302000000,-4.6657543,-271.43686
3303000000,-4.6580157,-271.51669
3304000000,-4.6510501,-271.72931
3305000000,-4.6388597,-271.7243
3306000000,-4.6664734,-271.93808
3307000000,-4.6737814,-272.0813
3308000000,-4.6627283,-271.9924
3309000000,-4.691237,-271.94312
3310000000,-4.6881585,-272.34189
3311000000,-4.6981444,-272.35297
3312000000,-4.6875405,-272.46603
3313000000,-4.7142639,-272.58087
3314000000,-4.6995091,-272.4707
3315000000,-4.6991277,-272.80786
3316000000,-4.6819563,-272.50085
3317000000,-4.7262955,-272.95959
3318000000,-4.7099261,-272.93597
3319000000,-4.7329893,-272.92477
3320000000,-4.7199769,-272.75537
3321000000,-4.7187114,-273.20938
3322000000,-4.7127075,-273.19278
3323000000,-4.7452917,-273.19357
3324000000,-4.731226,-273.3064
3325000000,-4.738905,-273.56729
3326000000,-4.7270923,-273.61371
3327000000,-4.7083411,-273.4234
3328000000,-4.7685094,-273.56918
3329000000,-4.7374997,-273.93167
3330000000,-4.7392354,-273.81589
3331000000,-4.7199368,-274.03409
3332000000,-4.7621403,-274.03168
3333000000,-4.7829041,-274.14407
3334000000,-4.7716203,-274.18747
3335000000,-4.8083129,-274.26398
3336000000,-4.7865672,-274.32736
3337000000,-4.7532372,-274.60281
3338000000,-4.7800493,-274.47034
3339000000,-4.8182206,-274.54968
3340000000,-4.7935882,-274.52765
3341000000,-4.7926354,-274.62033
3342000000,-4.7841992,-274.74805
3343000000,-4.7897224,-274.98721
3344000000,-4.7946329,-275.15805
3345000000,-4.796874,-275.21298
3346000000,-4.8242698,-275.31128
3347000000,-4.811574,-275.10806
3348000000,-4.8220625,-275.30713
3349000000,-4.8375044,-275.35724
3350000000,-4.8200579,-275.5849
3351000000,-4.8164296,-275.57074
3352000000,-4.8191557,-275.55984
3353000000,-4.8361702,-275.72412
3354000000,-4.8031907,-275.64505
3355000000,-4.8488045,-275.94305
3356000000,-4.8343139,-275.93674
3357000000,-4.8351178,-275.85355
3358000000,-4.8795576,-276.10483
3359000000,-4.8749466,-276.1409
3360000000,-4.8380585,-276.3703
3361000000,-4.8057532,-276.59256
3362000000,-4.8261242,-276.32907
3363000000,-4.8524051,-276.69128
3364000000,-4.8607879,-276.42068
3365000000,-4.8767514,-276.73172
3366000000,-4.8696613,-276.82773
3367000000,-4.8936071,-276.86475
3368000000,-4.848454,-276.99789
3369000000,-4.8935232,-277.04581
3370000000,-4.8859921,-277.12881
3371000000,-4.9001737,-277.08511
3372000000,-4.8843036,-277.35977
3373000000,-4.9015226,-277.47324
3374000000,-4.9119096,-277.26254
3375000000,-4.9436288,-277.4826
3376000000,-4.8865075,-277.60391
3377000000,-4.9382348,-277.47821
3378000000,-4.9142389,-277.7251
3379000000,-4.9236422,-277.67828
3380000000,-4.9006281,-278.04654
3381000000,-4.9320116,-278.04617
3382000000,-4.9425774,-278.10831
3383000000,-4.9291592,-278.21582
3384000000,-4.9554596,-278.25909
3385000000,-4.9350734,-278.14362
3386000000,-4.9635367,-278.37195
3387000000,-4.9733143,-278.71921
3388000000,-4.962533,-278.6178
3389000000,-4.9306622,-278.73312
3390000000,-4.9705863,-278.75708
3391000000,-4.9738684,-278.79596
3392000000,-4.9501696,-278.73734
3393000000,-4.952806,-278.83356
3394000000,-4.9547634,-279.08707
3395000000,-4.9379811,-279.16418
3396000000,-4.9754272,-279.15244
3397000000,-4.9823694,-279.48239
3398000000,-4.9934187,-279.58365
3399000000,-4.9863076,-279.51663
3400000000,-4.9539661,-279.61417
3401000000,-4.966187,-279.7482
3402000000,-4.9870596,-279.65457
3403000000,-5.009686,-279.84671
3404000000,-5.0108128,-280.04047
3405000000,-5.0282769,-279.94824
3406000000,-4.9897966,-279.90323
3407000000,-5.0017796,-280.12662
3408000000,-4.9819913,-279.97604
3409000000,-5.0418243,-280.41928
3410000000,-5.0290623,-280.10477
3411000000,-5.0389376,-280.30273
3412000000,-5.0247955,-280.5256
3413000000,-5.0346427,-280.58759
3414000000,-5.0405293,-280.55902
3415000000,-5.0398746,-280.66751
3416000000,-5.0609989,-280.90726
3417000000,-5.0406241,-280.80106
3418000000,-5.0578437,-281.15842
3419000000,-5.063416,-281.04782
3420000000,-5.0308623,-281.25546
3421000000,-5.0597515,-281.1738
3422000000,-5.0565329,-281.29456
3423000000,-5.059413,-281.43503
3424000000,-5.0607977,-281.57324
3425000000,-5.0774598,-281.39417
3426000000,-5.0755615,-281.63147
3427000000,-5.0681953,-281.85312
3428000000,-5.0951114,-281.69125
3429000000,-5.077456,-281.9664
3430000000,-5.0889606,-281.98569
3431000000,-5.091095,-282.004
3432000000,-5.1129527,-282.06732
3433000000,-5.0718694,-282.22641
3434000000,-5.1206493,-282.25714
3435000000,-5.1048679,-282.45697
3436000000,-5.0956879,-282.30389
3437000000,-5.1196818,-282.42657
3438000000,-5.1227055,-282.56519
3439000000,-5.1180215,-282.47543
3440000000,-5.134706,-282.77283
3441000000,-5.1091709,-282.83075
3442000000,-5.1286321,-282.96582
3443000000,-5.1336331,-283.08704
3444000000,-5.1536493,-283.09366
3445000000,-5.1586518,-282.95331
3446000000,-5.1595759,-283.18494
3447000000,-5.1447735,-283.37506
3448000000,-5.1526127,-283.33591
3449000000,-5.1448736,-283.16321
3450000000,-5.174859,-283.72733
3451000000,-5.186851,-283.57941
3452000000,-5.1691308,-283.59906
3453000000,-5.1587863,-283.76572
3454000000,-5.1923928,-283.76349
3455000000,-5.1860609,-284.00623
3456000000,-5.1864185,-283.91998
3457000000,-5.1904445,-284.11581
3458000000,-5.1873741,-284.24835
3459000000,-5.1947861,-284.16608
3460000000,-5.1943498,-284.22751
3461000000,-5.2064424,-284.42035
3462000000,-5.2329545,-284.46448
3463000000,-5.2149677,-284.45349
3464000000,-5.1928806,-284.61319
3465000000,-5.2015772,-284.55176
3466000000,-5.2397342,-284.70627
3467000000,-5.2228727,-284.77771
3468000000,-5.2094989,-285.0108
3469000000,-5.2426882,-285.06372
3470000000,-5.2323098,-284.98697
3471000000,-5.2389784,-285.07236
3472000000,-5.2406421,-285.0311
3473000000,-5.2232132,-285.35669
3474000000,-5.2483931,-285.34323
3475000000,-5.2404003,-285.28198
3476000000,-5.2622671,-285.64194
3477000000,-5.2353439,-285.53226
3478000000,-5.2799335,-285.75732
3479000000,-5.2549171,-285.56888
3480000000,-5.2647147,-285.73752
3481000000,-5.270781,-285.95062
3482000000,-5.2927222,-285.96097
3483000000,-5.2702026,-286.2236
3484000000,-5.2900991,-286.2088
3485000000,-5.2826805,-286.15033
3486000000,-5.2761431,-286.367
3487000000,-5.3261642,-286.46982
3488000000,-5.2685423,-286.34915
3489000000,-5.2939873,-286.59418
3490000000,-5.283978,-286.72958
3491000000,-5.2897806,-286.84268
3492000000,-5.3079243,-286.81366
3493000000,-5.3080506,-286.77036
3494000000,-5.310461,-286.71106
3495000000,-5.314733,-286.95242
3496000000,-5.3080544,-287.05066
3497000000,-5.3551707,-287.21805
3498000000,-5.3161974,-287.28162
3499000000,-5.304543,-287.3718
3500000000,-5.3124018,-287.28067
3501000000,-5.328095,-287.37579
3502000000,-5.3344712,-287.67657
3503000000,-5.3570862,-287.56729
3504000000,-5.3567705,-287.62891
3505000000,-5.3581161,-287.63672
3506000000,-5.3380246,-287.85193
3507000000,-5.3383327,-287.88193
3508000000,-5.3270855,-288.02921
3509000000,-5.3469772,-287.87173
3510000000,-5.3670578,-288.20694
3511000000,-5.3812785,-288.1637
3512000000,-5.3648868,-288.24127
3513000000,-5.364212,-288.26572
3514000000,-5.3636956,-288.55798
3515000000,-5.3608928,-288.43875
3516000000,-5.3807707,-288.58618
3517000000,-5.3569751,-288.49591
3518000000,-5.3637133,-288.69254
3519000000,-5.4203558,-288.85098
3520000000,-5.4075184,-288.86435
3521000000,-5.3909659,-289.05692
3522000000,-5.4130521,-289.05988
3523000000,-5.400003,-289.27298
3524000000,-5.3887973,-289.14536
3525000000,-5.4003806,-289.11267
3526000000,-5.4275928,-289.4118
3527000000,-5.4036736,-289.32959
3528000000,-5.4344096,-289.54126
3529000000,-5.434453,-289.53979
3530000000,-5.4366031,-289.51425
3531000000,-5.4294581,-289.72467
3532000000,-5.442389,-289.76559
3533000000,-5.4570351,-290.02411
3534000000,-5.4489794,-289.89636
3535000000,-5.4528451,-290.03296
3536000000,-5.4541006,-290.06342
3537000000,-5.4411635,-289.96356
3538000000,-5.453949,-290.48444
3539000000,-5.4486599,-290.47195
3540000000,-5.4815474,-290.44403
3541000000,-5.464952,-290.73737
3542000000,-5.4367309,-290.55743
3543000000,-5.4610496,-290.46039
3544000000,-5.4428544,-290.62582
3545000000,-5.4592338,-290.75674
3546000000,-5.4522934,-290.77676
3547000000,-5.4898553,-290.92096
3548000000,-5.4894743,-290.9957
3549000000,-5.4850106,-291.17108
3550000000,-5.5050445,-291.08612
3551000000,-5.5199857,-291.35947
3552000000,-5.4839382,-291.09906
3553000000,-5.4655995,-291.39911
3554000000,-5.5055375,-291.40823
3555000000,-5.4928842,-291.58899
3556000000,-5.5401268,-291.52759
3557000000,-5.5079703,-291.6843
3558000000,-5.5256739,-291.69858
3559000000,-5.5225224,-291.81937
3560000000,-5.5464067,-291.73624
3561000000,-5.5175495,-291.92932
3562000000,-5.5444608,-292.04932
3563000000,-5.5345726,-292.14038
3564000000,-5.5435586,-292.04218
3565000000,-5.5447211,-292.29324
3566000000,-5.5296717,-292.11829
3567000000,-5.5313454,-292.25787
3568000000,-5.5624027,-292.45001
3569000000,-5.5448298,-292.52502
3570000000,-5.5972872,-292.42596
3571000000,-5.5590534,-292.83023
3572000000,-5.5672269,-292.56345
3573000000,-5.5874357,-292.74084
3574000000,-5.5443525,-292.82651
3575000000,-5.5678835,-292.98666
3576000000,-5.5772243,-293.08963
3577000000,-5.5802588,-292.88428
3578000000,-5.6191669,-293.16589
3579000000,-5.5865455,-293.44086
3580000000,-5.5717664,-293.38156
3581000000,-5.592587,-293.3392
3582000000,-5.6135178,-293.42337
3583000000,-5.6029172,-293.43213
3584000000,-5.6215343,-293.50409
3585000000,-5.5889978,-293.56967
3586000000,-5.607883,-293.86066
3587000000,-5.5811782,-293.85483
3588000000,-5.588316,-293.81464
3589000000,-5.5878916,-293.87604
3590000000,-5.6091566,-294.24274
3591000000,-5.6203542,-293.98666
3592000000,-5.6314015,-294.25238
3593000000,-5.6255965,-294.31039
3594000000,-5.629086,-294.23239
3595000000,-5.6301017,-294.41513
3596000000,-5.6490169,-294.47803
3597000000,-5.6487174,-294.67072
3598000000,-5.6486654,-294.63016
3599000000,-5.6302199,-294.76074
3600000000,-5.6498585,-294.72433
3601000000,-5.6487093,-294.90665
3602000000,-5.6433191,-295.04489
3603000000,-5.6354671,-295.19101
3604000000,-5.6280293,-295.23615
3605000000,-5.6537919,-295.06476
3606000000,-5.6502895,-295.28339
3607000000,-5.6392627,-295.30063
3608000000,-5.6514125,-295.31805
3609000000,-5.6521649,-295.42908
3610000000,-5.6832695,-295.48782
3611000000,-5.6713738,-295.49582
3612000000,-5.6842818,-295.67505
3613000000,-5.6838422,-295.89233
3614000000,-5.6701965,-295.67215
3615000000,-5.6954312,-296.01944
3616000000,-5.7151189,-295.84598
3617000000,-5.6975417,-295.99982
3618000000,-5.7095785,-296.03903
3619000000,-5.6702232,-296.18195
3620000000,-5.6967635,-296.32855
3621000000,-5.7039394,-296.41946
3622000000,-5.7181911,-296.53812
3623000000,-5.7075276,-296.55096
3624000000,-5.7299047,-296.40707
3625000000,-5.746305,-296.41278
3626000000,-5.714292,-296.83035
3627000000,-5.708765,-296.64716
3628000000,-5.736948,-296.74139
3629000000,-5.7176051,-296.83908
3630000000,-5.7440295,-296.92999
3631000000,-5.7348585,-297.14944
3632000000,-5.760613,-296.83234
3633000000,-5.7224054,-297.33679
3634000000,-5.7450385,-297.37006
3635000000,-5.7610803,-297.25137
3636000000,-5.7555275,-297.4624
3637000000,-5.7816491,-297.55545
3638000000,-5.7694726,-297.4715
3639000000,-5.7602401,-297.70218
3640000000,-5.7811694,-297.74515
3641000000,-5.7659578,-297.7901
3642000000,-5.7905354,-297.61676
3643000000,-5.7870936,-297.8714
3644000000,-5.7959318,-297.84421
3645000000,-5.7788272,-298.09213
3646000000,-5.7593803,-298.28329
3647000000,-5.8007092,-298.33719
3648000000,-5.787147,-298.28854
3649000000,-5.7748399,-298.24258
3650000000,-5.7938542,-298.3078
3651000000,-5.8207197,-298.6171
3652000000,-5.7861929,-298.57358
3653000000,-5.8030419,-298.75842
3654000000,-5.8168139,-298.69873
3655000000,-5.8005877,-298.84503
3656000000,-5.7971482,-298.69919
3657000000,-5.7955089,-298.74771
3658000000,-5.8101177,-299.11459
3659000000,-5.8184114,-299.02112
3660000000,-5.82025,-299.11838
3661000000,-5.8420858,-299.17776
3662000000,-5.8351531,-299.23145
3663000000,-5.8325782,-299.45993
3664000000,-5.8329234,-299.25269
3665000000,-5.8503008,-299.24792
3666000000,-5.8380184,-299.51044
3667000000,-5.8709273,-299.80637
3668000000,-5.8378072,-299.59317
3669000000,-5.8459325,-299.67819
3670000000,-5.8537154,-299.76196
3671000000,-5.8408771,-299.82666
3672000000,-5.8551102,-299.81003
3673000000,-5.8571415,-299.91306
3674000000,-5.8550725,-300.13974
3675000000,-5.8740339,-300.25281
3676000000,-5.8456674,-300.16498
3677000000,-5.8681245,-300.00931
3678000000,-5.8643847,-300.41003
3679000000,-5.8704329,-300.42099
3680000000,-5.8881478,-300.49557
3681000000,-5.8984361,-300.49121
3682000000,-5.8801851,-300.68829
3683000000,-5.8775363,-300.54929
3684000000,-5.8945847,-300.74857
3685000000,-5.9243555,-300.88916
3686000000,-5.9102979,-301.1998
3687000000,-5.8954406,-301.10538
3688000000,-5.8967552,-301.05975
3689000000,-5.888279,-301.29742
3690000000,-5.913394,-301.32242
3691000000,-5.9051795,-301.2287
3692000000,-5.9266229,-301.30869
3693000000,-5.9021592,-301.55484
3694000000,-5.8944492,-301.61566
3695000000,-5.9420776,-301.59238
3696000000,-5.8976974,-301.67627
3697000000,-5.9247942,-301.76862
3698000000,-5.9494562,-301.86392
3699000000,-5.9278045,-301.91467
3700000000,-5.9360995,-301.91562
3701000000,-5.9490438,-302.04456
3702000000,-5.9664483,-302.04855
3703000000,-5.9731688,-301.90659
3704000000,-5.9799161,-302.23172
3705000000,-5.9605856,-302.32892
3706000000,-5.9283195,-302.27759
3707000000,-5.9389873,-302.42581
3708000000,-5.940239,-302.38223
3709000000,-5.9297562,-302.57358
3710000000,-5.9658713,-302.38339
3711000000,-5.9501491,-302.70129
3712000000,-5.9689922,-302.87201
3713000000,-5.9736247,-302.74673
3714000000,-5.9837809,-302.8031
3715000000,-5.964931,-303.12381
3716000000,-5.9722629,-303.03381
3717000000,-5.9712291,-303.09537
3718000000,-5.9720349,-303.20959
3719000000,-5.9705706,-303.31924
3720000000,-5.9968691,-303.33972
3721000000,-5.9885178,-303.46841
3722000000,-6.0078788,-303.38409
3723000000,-6.0256796,-303.57254
3724000000,-5.9912229,-303.63705
3725000000,-5.9856915,-303.68259
3726000000,-6.0261617,-303.75787
3727000000,-6.0290565,-303.80197
3728000000,-6.0237598,-304.00137
3729000000,-6.013906,-303.98138
3730000000,-6.0176558,-304.05154
3731000000,-6.0061917,-304.07114
3732000000,-6.0289288,-304.11935
3733000000,-6.0257883,-304.06607
3734000000,-6.0303144,-304.23428
3735000000,-6.0264482,-304.3363
3736000000,-6.0342283,-304.43256
3737000000,-6.0449929,-304.54373
3738000000,-6.0467353,-304.49664
3739000000,-5.9953275,-304.5834
3740000000,-6.0599236,-304.60568
3741000000,-6.0480704,-304.84021
3742000000,-6.0556231,-304.75284
3743000000,-6.0379758,-304.94305
3744000000,-6.0718479,-305.02042
3745000000,-6.0705018,-305.09552
3746000000,-6.0442123,-305.21054
3747000000,-6.0512433,-305.20209
3748000000,-6.0678797,-305.29694
3749000000,-6.0654097,-305.32822
3750000000,-6.0786357,-305.47714
3751000000,-6.0761485,-305.42038
3752000000,-6.0924935,-305.68735
3753000000,-6.0729003,-305.53708
3754000000,-6.0940399,-305.68704
3755000000,-6.0888667,-305.66263
3756000000,-6.0748653,-305.85211
3757000000,-6.0834994,-305.84814
3758000000,-6.1198716,-305.98553
3759000000,-6.0881805,-305.90588
3760000000,-6.1155477,-306.09534
3761000000,-6.1341224,-306.02374
3762000000,-6.1292019,-306.35382
3763000000,-6.1114841,-306.21381
3764000000,-6.1299543,-306.50366
3765000000,-6.1137743,-306.46136
3766000000,-6.1299686,-306.34927
3767000000,-6.0972304,-306.37692
3768000000,-6.1474199,-306.78836
3769000000,-6.094873,-306.59982
3770000000,-6.1135621,-306.82465
3771000000,-6.1301355,-306.91382
3772000000,-6.1301064,-307.00345
3773000000,-6.1317949,-307.09598
3774000000,-6.130836,-307.12289
3775000000,-6.1547041,-307.15939
3776000000,-6.1213889,-307.25177
3777000000,-6.1288624,-307.39954
3778000000,-6.1620374,-307.53442
3779000000,-6.1424689,-307.35733
3780000000,-6.1621017,-307.39203
3781000000,-6.1675539,-307.70984
3782000000,-6.1475739,-307.61365
3783000000,-6.1656432,-307.66595
3784000000,-6.1586261,-307.74747
3785000000,-6.1558199,-307.83798
3786000000,-6.1598935,-307.87958
3787000000,-6.1622915,-307.83136
3788000000,-6.1627212,-308.16333
3789000000,-6.1812873,-308.13791
3790000000,-6.1724262,-308.05017
3791000000,-6.1774087,-308.03851
3792000000,-6.1850452,-308.34033
3793000000,-6.1826921,-308.20081
3794000000,-6.2024822,-308.29343
3795000000,-6.2140198,-308.24442
3796000000,-6.1846757,-308.55103
3797000000,-6.1850581,-308.46057
3798000000,-6.2005825,-308.55789
3799000000,-6.1846027,-308.79288
3800000000,-6.1744719,-308.69168
3801000000,-6.1524906,-308.7413
3802000000,-6.1989827,-308.79489
3803000000,-6.203042,-308.90189
3804000000,-6.1878567,-309.12717
3805000000,-6.2242985,-309.11819
3806000000,-6.2290983,-309.24014
3807000000,-6.2299633,-309.14914
3808000000,-6.2060599,-309.46475
3809000000,-6.2074318,-309.33182
3810000000,-6.2254024,-309.55182
3811000000,-6.1991796,-309.48834
3812000000,-6.2164598,-309.64777
3813000000,-6.2437673,-309.55206
3814000000,-6.2361507,-309.96866
3815000000,-6.2254744,-309.67175
3816000000,-6.2391543,-310.13876
3817000000,-6.2186375,-310.0141
3818000000,-6.2403026,-310.1174
3819000000,-6.2221656,-309.98157
3820000000,-6.2310529,-310.08392
3821000000,-6.2255363,-310.17548
3822000000,-6.2267547,-310.28152
3823000000,-6.2732463,-310.30688
3824000000,-6.2559557,-310.42105
3825000000,-6.2659788,-310.59225
3826000000,-6.2581086,-310.5452
3827000000,-6.2472153,-310.54449
3828000000,-6.2462397,-310.6217
3829000000,-6.2676582,-310.63947
3830000000,-6.2573557,-310.79297
3831000000,-6.2726173,-310.87961
3832000000,-6.2446532,-310.93381
3833000000,-6.2620406,-310.80936
3834000000,-6.2426219,-311.00092
3835000000,-6.2599111,-311.04413
3836000000,-6.2760181,-311.14429
3837000000,-6.2634673,-311.18546
3838000000,-6.2833323,-311.27859
3839000000,-6.2703547,-311.34583
3840000000,-6.2810111,-311.32086
3841000000,-6.3098726,-311.71246
3842000000,-6.2984424,-311.70105
3843000000,-6.3025098,-311.83627
3844000000,-6.2596912,-311.53748
3845000000,-6.2857442,-311.84183
3846000000,-6.291328,-311.96716
3847000000,-6.2816496,-311.92535
3848000000,-6.3061037,-311.95267
3849000000,-6.2782726,-312.05243
3850000000,-6.2989225,-312.04437
3851000000,-6.3175697,-312.17035
3852000000,-6.2980204,-312.28867
3853000000,-6.3373904,-312.55258
3854000000,-6.3412552,-312.40991
3855000000,-6.3165016,-312.27017
3856000000,-6.3135448,-312.45087
3857000000,-6.3385515,-312.50864
3858000000,-6.308763,-312.65411
3859000000,-6.3557086,-312.69284
3860000000,-6.3367476,-312.74915
3861000000,-6.3232508,-312.84735
3862000000,-6.3228698,-312.9733
3863000000,-6.3179207,-312.8735
3864000000,-6.3428664,-313.07062
3865000000,-6.3547854,-313.18576
3866000000,-6.3311448,-313.17337
3867000000,-6.3345962,-313.21457
3868000000,-6.3519087,-313.3475
3869000000,-6.3704572,-313.60626
3870000000,-6.3273945,-313.48181
3871000000,-6.3433833,-313.59149
3872000000,-6.3632879,-313.44803
3873000000,-6.3529539,-313.42758
3874000000,-6.3443894,-313.6564
3875000000,-6.3798413,-313.74045
3876000000,-6.3541021,-313.98703
3877000000,-6.3539758,-313.79071
3878000000,-6.3988671,-314.03513
3879000000,-6.3767529,-313.98398
3880000000,-6.3461409,-314.18311
3881000000,-6.3612523,-314.39111
3882000000,-6.3830132,-314.16418
3883000000,-6.3551373,-314.33612
3884000000,-6.3890672,-314.32864
3885000000,-6.3633695,-314.54138
3886000000,-6.4148736,-314.52316
3887000000,-6.3844934,-314.59265
3888000000,-6.3548036,-314.61081
3889000000,-6.4084253,-314.74097
3890000000,-6.3763194,-314.79077
3891000000,-6.3928642,-314.89252
3892000000,-6.3925004,-314.87772
3893000000,-6.4170814,-315.03131
3894000000,-6.3834977,-314.90939
3895000000,-6.4277668,-315.04901
3896000000,-6.4067392,-315.047
3897000000,-6.388711,-315.3175
3898000000,-6.4243398,-315.28601
3899000000,-6.4001813,-315.35434
3900000000,-6.4221692,-315.5343
3901000000,-6.4206705,-315.56308
3902000000,-6.4295096,-315.52136
3903000000,-6.4398789,-315.80969
3904000000,-6.4284248,-315.8194
3905000000,-6.4166026,-315.81601
3906000000,-6.4100752,-315.75925
3907000000,-6.4333539,-315.51825
3908000000,-6.4437089,-315.90958
3909000000,-6.4222136,-315.97717
3910000000,-6.4230165,-316.11459
3911000000,-6.4321146,-316.18317
3912000000,-6.4209452,-316.18536
3913000000,-6.4428101,-316.13446
3914000000,-6.4374113,-316.39703
3915000000,-6.4437628,-316.34335
3916000000,-6.4465694,-316.40091
3917000000,-6.4323044,-316.54675
3918000000,-6.4590788,-316.49228
3919000000,-6.4773006,-316.60217
3920000000,-6.4704638,-316.81836
3921000000,-6.4417987,-316.80133
3922000000,-6.4564209,-316.77469
3923000000,-6.4569311,-316.84769
3924000000,-6.4845695,-316.96005
3925000000,-6.4638252,-316.97055
3926000000,-6.4531832,-317.16708
3927000000,-6.4804397,-317.26611
3928000000,-6.4453807,-317.24362
3929000000,-6.4662476,-317.21014
3930000000,-6.4954848,-317.25803
3931000000,-6.4568062,-317.44806
3932000000,-6.4626918,-317.61133
3933000000,-6.4669447,-317.56647
3934000000,-6.4915166,-317.77258
3935000000,-6.4536681,-317.60431
3936000000,-6.5041127,-317.70215
3937000000,-6.4904776,-318.04068
3938000000,-6.4704976,-317.85773
3939000000,-6.5229354,-318.1076
3940000000,-6.4855723,-318.15726
3941000000,-6.5011625,-317.89972
3942000000,-6.5175147,-318.18616
3943000000,-6.4849901,-318.15457
3944000000,-6.5015912,-318.29739
3945000000,-6.5022707,-318.41513
3946000000,-6.4861355,-318.43893
3947000000,-6.4952612,-318.47952
3948000000,-6.5142746,-318.63589
3949000000,-6.4867849,-318.66632
3950000000,-6.5216832,-318.76788
3951000000,-6.4917245,-318.67499
3952000000,-6.5006013,-318.69543
3953000000,-6.4986329,-318.81604
3954000000,-6.5174246,-318.78818
3955000000,-6.5034719,-318.83505
3956000000,-6.4926438,-318.9726
3957000000,-6.5135937,-319.10925
3958000000,-6.5173492,-319.32205
3959000000,-6.4972281,-319.31952
3960000000,-6.5210037,-319.35284
3961000000,-6.5189662,-319.34409
3962000000,-6.5281672,-319.39456
3963000000,-6.5199361,-319.5036
3964000000,-6.5034742,-319.52307
3965000000,-6.5021949,-319.56503
3966000000,-6.4986968,-319.83301
3967000000,-6.5147624,-319.68179
3968000000,-6.56073,-320.00586
3969000000,-6.5307393,-319.77719
3970000000,-6.5423346,-320.0296
3971000000,-6.5403504,-320.10315
3972000000,-6.5789275,-320.02982
3973000000,-6.5510497,-320.3082
3974000000,-6.5369925,-320.19235
3975000000,-6.5493894,-320.28271
3976000000,-6.5649152,-320.18008
3977000000,-6.5249448,-320.5701
3978000000,-6.5860343,-320.37711
3979000000,-6.5352025,-320.72223
3980000000,-6.5610161,-320.68726
3981000000,-6.5775652,-320.8894
3982000000,-6.5811915,-320.72055
3983000000,-6.5807872,-320.75793
3984000000,-6.5630102,-320.7999
3985000000,-6.5573301,-321.0817
3986000000,-6.5683484,-320.96252
3987000000,-6.5746422,-321.01007
3988000000,-6.5688562,-321.0094
3989000000,-6.551456,-321.20251
3990000000,-6.5303173,-321.37057
3991000000,-6.5919428,-321.25665
3992000000,-6.5461869,-321.30093
3993000000,-6.5805898,-321.52209
3994000000,-6.5790849,-321.50729
3995000000,-6.5852351,-321.52533
3996000000,-6.5901933,-321.70413
3997000000,-6.5704603,-321.68579
3998000000,-6.570457,-321.74524
3999000000,-6.6022997,-322.10541
4000000000,-6.5939012,-322.01855
4001000000,-6.571238,-321.91992
4002000000,-6.5773506,-322.08487
4003000000,-6.6040392,-322.01065
4004000000,-6.6025648,-322.05878
4005000000,-6.5946651,-322.11658
4006000000,-6.5991426,-322.30304
4007000000,-6.6337113,-322.49741
4008000000,-6.5941796,-322.34912
4009000000,-6.6405396,-322.59558
4010000000,-6.6119514,-322.6098
4011000000,-6.5978255,-322.53534
4012000000,-6.6105781,-322.64053
4013000000,-6.6226969,-322.72626
4014000000,-6.6280222,-322.78439
4015000000,-6.6367292,-322.96887
4016000000,-6.5932989,-322.92813
4017000000,-6.6196728,-322.89468
4018000000,-6.6179824,-323.06018
4019000000,-6.6323357,-323.13428
4020000000,-6.6279526,-323.01242
4021000000,-6.6042905,-323.20563
4022000000,-6.6061244,-323.25708
4023000000,-6.6417828,-323.40967
4024000000,-6.629951,-323.38815
4025000000,-6.6005888,-323.4967
4026000000,-6.6300006,-323.47018
4027000000,-6.6489453,-323.60297
4028000000,-6.6635556,-323.61688
4029000000,-6.6557064,-323.87875
4030000000,-6.631186,-324.01852
4031000000,-6.6510882,-324.06964
4032000000,-6.6142311,-323.95917
4033000000,-6.6358757,-323.99786
4034000000,-6.6171007,-324.02554
4035000000,-6.64081,-323.99393
4036000000,-6.6640649,-324.34412
4037000000,-6.650095,-324.25128
4038000000,-6.6378384,-324.30261
4039000000,-6.6510797,-324.47772
4040000000,-6.6461091,-324.50714
4041000000,-6.6798763,-324.83749
4042000000,-6.651587,-324.75195
4043000000,-6.6750317,-324.6496
4044000000,-6.6750803,-324.77213
4045000000,-6.654089,-324.85706
4046000000,-6.6496415,-324.77518
4047000000,-6.6391597,-324.68008
4048000000,-6.6709347,-325.03787
4049000000,-6.652379,-325.01651
4050000000,-6.6561031,-324.97168
4051000000,-6.6685958,-325.26871
4052000000,-6.6607456,-325.32343
4053000000,-6.6606002,-325.38034
4054000000,-6.6702471,-325.36722
4055000000,-6.6747103,-325.51132
4056000000,-6.658493,-325.55341
4057000000,-6.6419702,-325.5563
4058000000,-6.6833105,-325.79987
4059000000,-6.668272,-325.6283
4060000000,-6.6972895,-325.68805
4061000000,-6.7018251,-325.87198
4062000000,-6.6808929,-325.89838
4063000000,-6.6671858,-325.88388
4064000000,-6.6834769,-325.95099
4065000000,-6.6941533,-326.00601
4066000000,-6.6774468,-326.25641
4067000000,-6.6419959,-325.99271
4068000000,-6.6826673,-326.18158
4069000000,-6.7167082,-326.49802
4070000000,-6.6836562,-326.39072
4071000000,-6.6981983,-326.56412
4072000000,-6.7215862,-326.46948
4073000000,-6.7032771,-326.44943
4074000000,-6.7044377,-326.64526
4075000000,-6.6925502,-326.61374
4076000000,-6.7122917,-326.78476
4077000000,-6.6922894,-326.79153
4078000000,-6.7362342,-326.71204
4079000000,-6.7039781,-326.98001
4080000000,-6.6963944,-327.12341
4081000000,-6.6995625,-326.94363
4082000000,-6.7335267,-327.10562
4083000000,-6.6877608,-327.14301
4084000000,-6.6837316,-327.18695
4085000000,-6.6949377,-327.40497
4086000000,-6.7016816,-327.37735
4087000000,-6.7311358,-327.45898
4088000000,-6.7367749,-327.7373
4089000000,-6.7236857,-327.71164
4090000000,-6.7216973,-327.64841
4091000000,-6.7251897,-327.71912
4092000000,-6.7250018,-327.55981
4093000000,-6.7121477,-327.86795
4094000000,-6.7310772,-327.99991
4095000000,-6.7297029,-328.17664
4096000000,-6.7386913,-327.99811
4097000000,-6.7413163,-328.13358
4098000000,-6.7502117,-328.10751
4099000000,-6.7529092,-328.41
4100000000,-6.7664971,-328.24829
4101000000,-6.723824,-328.2973
4102000000,-6.7219596,-328.31104
4103000000,-6.7652946,-328.44635
4104000000,-6.7413015,-328.48428
4105000000,-6.7587614,-328.64941
4106000000,-6.7424569,-328.53873
4107000000,-6.7417011,-328.71506
4108000000,-6.749969,-328.65829
4109000000,-6.7294674,-328.8895
4110000000,-6.7362518,-328.64163
4111000000,-6.7248306,-328.80737
4112000000,-6.7636232,-328.93961
4113000000,-6.7691031,-329.07086
4114000000,-6.7423601,-329.10345
4115000000,-6.7254391,-329.16614
4116000000,-6.7462635,-329.18436
4117000000,-6.7491336,-329.42892
4118000000,-6.7590857,-329.40433
4119000000,-6.7379165,-329.34796
4120000000,-6.7601314,-329.54269
4121000000,-6.7560825,-329.77054
4122000000,-6.7428493,-329.73822
4123000000,-6.7596369,-329.82837
4124000000,-6.7240176,-329.75803
4125000000,-6.759954,-329.90512
4126000000,-6.7342358,-329.82486
4127000000,-6.7654219,-330.04868
4128000000,-6.7506504,-330.1098
4129000000,-6.7449622,-330.32474
4130000000,-6.7709036,-330.22311
4131000000,-6.7704167,-330.25485
4132000000,-6.7726507,-330.30511
4133000000,-6.7734685,-330.29987
4134000000,-6.7577038,-330.55182
4135000000,-6.7638693,-330.3284
4136000000,-6.7707753,-330.55106
4137000000,-6.7909513,-330.6998
4138000000,-6.7738695,-330.64334
4139000000,-6.774744,-330.75247
4140000000,-6.8091397,-330.85904
4141000000,-6.7622862,-330.81644
4142000000,-6.773695,-330.89679
4143000000,-6.7946944,-330.91388
4144000000,-6.7873893,-331.0712
4145000000,-6.7457423,-331.36453
4146000000,-6.7759924,-331.19888
4147000000,-6.7710032,-331.10989
4148000000,-6.761169,-331.20691
4149000000,-6.7640862,-331.17706
4150000000,-6.7882104,-331.53995
4151000000,-6.7811031,-331.52502
4152000000,-6.7932882,-331.55408
4153000000,-6.7718439,-331.3847
4154000000,-6.7971401,-331.68881
4155000000,-6.7945652,-331.54227
4156000000,-6.7909265,-331.79602
4157000000,-6.8028831,-331.97177
4158000000,-6.8099093,-331.94312
4159000000,-6.8041415,-331.93243
4160000000,-6.8002291,-332.09064
4161000000,-6.8122735,-332.2818
4162000000,-6.8149958,-331.98511
4163000000,-6.8112626,-332.30502
4164000000,-6.770875,-332.16199
4165000000,-6.7739158,-332.30777
4166000000,-6.804657,-332.46072
4167000000,-6.8036928,-332.54794
4168000000,-6.8305335,-332.45392
4169000000,-6.7983203,-332.62479
4170000000,-6.8123569,-332.81604
4171000000,-6.7889762,-332.715
4172000000,-6.7941051,-332.83228
4173000000,-6.7974172,-332.97668
4174000000,-6.8026643,-332.89178
4175000000,-6.8142958,-332.81708
4176000000,-6.791883,-332.89771
4177000000,-6.7955818,-333.12579
4178000000,-6.8041015,-333.10092
4179000000,-6.7746768,-333.33499
4180000000,-6.7891321,-333.40921
4181000000,-6.8211055,-333.31729
4182000000,-6.7912912,-333.44519
4183000000,-6.8050966,-333.21188
4184000000,-6.8420544,-333.64816
4185000000,-6.7919803,-333.54279
4186000000,-6.8067441,-333.57858
4187000000,-6.8280339,-333.8446
4188000000,-6.8024726,-333.6806
4189000000,-6.8098221,-333.72443
4190000000,-6.8010049,-333.79132
4191000000,-6.8001909,-333.92764
4192000000,-6.7861514,-334.07269
4193000000,-6.7906847,-334.12656
4194000000,-6.806458,-334.1044
4195000000,-6.8016996,-334.24185
4196000000,-6.796896,-334.19495
4197000000,-6.8185782,-334.30457
4198000000,-6.8357286,-334.49274
4199000000,-6.808763,-334.52188
4200000000,-6.8096066,-334.47147
4201000000,-6.7771759,-334.65891
4202000000,-6.8029785,-334.51297
4203000000,-6.8217654,-334.67526
4204000000,-6.7964869,-334.85153
4205000000,-6.8347335,-334.98001
4206000000,-6.8200431,-334.92072
4207000000,-6.8310413,-335.05109
4208000000,-6.8215837,-334.91904
4209000000,-6.7924709,-335.19806
4210000000,-6.7783041,-335.2829
4211000000,-6.8128595,-335.29626
4212000000,-6.8215523,-335.39526
4213000000,-6.8424544,-335.50073
4214000000,-6.8201976,-335.53671
4215000000,-6.8151097,-335.53314
4216000000,-6.8118296,-335.66171
4217000000,-6.8161335,-335.63275
4218000000,-6.7999301,-335.75293
4219000000,-6.7894974,-335.75223
4220000000,-6.8022838,-335.86066
4221000000,-6.7952285,-335.90729
4222000000,-6.8035798,-335.8555
4223000000,-6.8017416,-336.03003
4224000000,-6.808383,-336.01617
4225000000,-6.8217416,-336.1926
4226000000,-6.8202186,-336.086
4227000000,-6.8149023,-336.19507
4228000000,-6.8174777,-336.28549
4229000000,-6.8252044,-336.39355
4230000000,-6.8427114,-336.36096
4231000000,-6.8399019,-336.45013
4232000000,-6.8043795,-336.48575
4233000000,-6.8334122,-336.60214
4234000000,-6.829668,-336.81271
4235000000,-6.837646,-336.81763
4236000000,-6.8260517,-336.75214
4237000000,-6.8236599,-336.81299
4238000000,-6.84268,-336.98361
4239000000,-6.8325334,-337.01965
4240000000,-6.8099627,-336.97675
4241000000,-6.8301783,-337.11044
4242000000,-6.8362789,-337.17697
4243000000,-6.8206229,-337.3215
4244000000,-6.8047605,-337.45938
4245000000,-6.8356113,-337.47577
4246000000,-6.8120627,-337.43643
4247000000,-6.8367887,-337.61987
4248000000,-6.8346143,-337.54153
4249000000,-6.8258572,-337.61438
4250000000,-6.8436971,-337.7724
4251000000,-6.8067632,-337.77576
4252000000,-6.823688,-337.83224
4253000000,-6.8380561,-337.81561
4254000000,-6.8223543,-337.98346
4255000000,-6.8220015,-338.03638
4256000000,-6.8188009,-338.0224
4257000000,-6.8103852,-338.23285
4258000000,-6.8341422,-338.11292
4259000000,-6.8323412,-338.39786
4260000000,-6.8159823,-338.49026
4261000000,-6.8234167,-338.2933
4262000000,-6.8454657,-338.40637
4263000000,-6.8265724,-338.5831
4264000000,-6.8318024,-338.54263
4265000000,-6.8546948,-338.45291
4266000000,-6.8558531,-338.60297
4267000000,-6.82375,-338.74283
4268000000,-6.8379993,-338.85468
4269000000,-6.8235145,-338.95789
4270000000,-6.8217154,-338.98111
4271000000,-6.8232665,-339.03503
4272000000,-6.8255754,-339.10834
4273000000,-6.8336372,-339.38596
4274000000,-6.8464236,-338.97134
4275000000,-6.814117,-339.13925
4276000000,-6.8312497,-339.34488
4277000000,-6.8184986,-339.41833
4278000000,-6.8494539,-339.35486
4279000000,-6.8233151,-339.63202
4280000000,-6.7995553,-339.82135
4281000000,-6.8371201,-339.57306
4282000000,-6.842063,-339.6405
4283000000,-6.8447948,-339.80365
4284000000,-6.8296089,-339.82477
4285000000,-6.8468461,-339.88461
4286000000,-6.8349857,-340.02716
4287000000,-6.8617659,-339.97177
4288000000,-6.83569,-340.01318
4289000000,-6.8332839,-340.17474
4290000000,-6.823288,-340.25101
4291000000,-6.8138518,-340.2215
4292000000,-6.8141003,-340.45422
4293000000,-6.8608766,-340.41772
4294000000,-6.8314776,-340.49908
4295000000,-6.8126674,-340.61996
4296000000,-6.8495765,-340.56656
4297000000,-6.8578734,-340.80151
4298000000,-6.8200383,-340.88324
4299000000,-6.8369846,-340.82401
4300000000,-6.8466654,-340.83713
4301000000,-6.8475909,-340.82654
4302000000,-6.8505936,-341.00696
4303000000,-6.8429728,-341.03036
4304000000,-6.8438578,-341.19965
4305000000,-6.823463,-341.28198
4306000000,-6.8162045,-341.27072
4307000000,-6.8145027,-341.36829
4308000000,-6.8234897,-341.40842
4309000000,-6.8092217,-341.48605
4310000000,-6.840229,-341.40967
4311000000,-6.8355989,-341.59256
4312000000,-6.84517,-341.5538
4313000000,-6.8491664,-341.66443
4314000000,-6.8256249,-341.79388
4315000000,-6.8444581,-341.84683
4316000000,-6.8091955,-341.72964
4317000000,-6.8167567,-342.04977
4318000000,-6.8236623,-341.9512
4319000000,-6.8227863,-342.29471
4320000000,-6.8308578,-341.90424
4321000000,-6.8119988,-342.22006
4322000000,-6.8440614,-342.38681
4323000000,-6.7992344,-342.37637
4324000000,-6.8239889,-342.3316
4325000000,-6.8154845,-342.45856
4326000000,-6.8535862,-342.43845
4327000000,-6.8113737,-342.74789
4328000000,-6.8190527,-342.52054
4329000000,-6.849226,-342.85095
4330000000,-6.8461151,-342.7673
4331000000,-6.8232703,-342.61713
4332000000,-6.8342466,-342.84329
4333000000,-6.8194237,-342.88712
4334000000,-6.8231549,-343.06158
4335000000,-6.8213496,-343.09067
4336000000,-6.8484302,-343.16168
4337000000,-6.8488159,-343.26746
4338000000,-6.8190384,-343.38333
4339000000,-6.8225555,-343.3078
4340000000,-6.8050051,-343.41702
4341000000,-6.8172555,-343.54016
4342000000,-6.8057752,-343.71494
4343000000,-6.8058167,-343.58905
4344000000,-6.8174911,-343.73599
4345000000,-6.8606591,-343.84912
4346000000,-6.8127513,-343.80872
4347000000,-6.8094888,-344.00195
4348000000,-6.808742,-344.02048
4349000000,-6.7863245,-344.02554
4350000000,-6.830483,-343.92673
4351000000,-6.8164368,-344.22089
4352000000,-6.8395433,-344.15204
4353000000,-6.8204284,-344.12659
4354000000,-6.8080964,-344.41791
4355000000,-6.8244362,-344.51132
4356000000,-6.8120995,-344.53168
4357000000,-6.8160706,-344.60535
4358000000,-6.8320947,-344.67166
4359000000,-6.7982564,-344.7149
4360000000,-6.8262882,-344.47586
4361000000,-6.8166566,-344.91953
4362000000,-6.8267794,-344.78976
4363000000,-6.7983356,-344.88647
4364000000,-6.8335533,-344.9761
4365000000,-6.8092046,-345.20819
4366000000,-6.7867966,-345.10263
4367000000,-6.8028889,-345.13904
4368000000,-6.8034925,-345.25427
4369000000,-6.8099985,-345.32254
4370000000,-6.8046503,-345.36075
4371000000,-6.8316889,-345.47318
4372000000,-6.837616,-345.51913
4373000000,-6.8074212,-345.59729
4374000000,-6.8299513,-345.55869
4375000000,-6.7871227,-345.76709
4376000000,-6.8237357,-345.83493
4377000000,-6.8262467,-345.879
4378000000,-6.8077731,-345.76593
4379000000,-6.8061433,-345.9819
4380000000,-6.8014345,-346.07187
4381000000,-6.8023024,-346.15308
4382000000,-6.7914047,-346.17245
4383000000,-6.7898803,-346.30856
4384000000,-6.7792578,-346.25311
4385000000,-6.8060832,-346.51196
4386000000,-6.8154802,-346.49762
4387000000,-6.8036599,-346.44608
4388000000,-6.8146811,-346.44016
4389000000,-6.7869158,-346.68094
4390000000,-6.7965994,-346.52039
4391000000,-6.8157535,-346.89975
4392000000,-6.8039093,-346.84406
4393000000,-6.7834592,-346.91907
4394000000,-6.8029356,-346.92273
4395000000,-6.8299627,-346.87323
4396000000,-6.8201671,-346.965
4397000000,-6.8081264,-347.17297
4398000000,-6.7946939,-347.18149
4399000000,-6.7845769,-347.34787
4400000000,-6.7906833,-347.37891
4401000000,-6.7942643,-347.34149
4402000000,-6.7659941,-347.46677
4403000000,-6.8000779,-347.52771
4404000000,-6.7988391,-347.63519
4405000000,-6.7968631,-347.58173
4406000000,-6.7924786,-347.76682
4407000000,-6.7762728,-347.83282
4408000000,-6.8193674,-348.01422
4409000000,-6.77806,-347.99442
4410000000,-6.7564754,-348.03522
4411000000,-6.7846489,-348.28745
4412000000,-6.7938418,-348.28897
4413000000,-6.7902346,-348.39078
4414000000,-6.7748404,-348.36255
4415000000,-6.7734685,-348.38333
4416000000,-6.8022261,-348.44678
4417000000,-6.7553468,-348.51028
4418000000,-6.7589264,-348.5755
4419000000,-6.7670045,-348.70761
4420000000,-6.7548304,-348.96725
4421000000,-6.7806478,-348.62296
4422000000,-6.7768345,-348.90448
4423000000,-6.7820597,-348.92929
4424000000,-6.786634,-349.11078
4425000000,-6.7748623,-349.17883
4426000000,-6.7951746,-348.9407
4427000000,-6.7779446,-349.19742
4428000000,-6.8018031,-349.17249
4429000000,-6.7635541,-349.30951
4430000000,-6.7740817,-349.4949
4431000000,-6.7741747,-349.31253
4432000000,-6.7981257,-349.45337
4433000000,-6.7455235,-349.56943
4434000000,-6.7838326,-349.59537
4435000000,-6.7585368,-349.56949
4436000000,-6.7722354,-349.73041
4437000000,-6.7552981,-349.73376
4438000000,-6.7748504,-349.93027
4439000000,-6.7772632,-349.95593
4440000000,-6.7627578,-350.00916
4441000000,-6.7699361,-350.23395
4442000000,-6.7956696,-350.20239
4443000000,-6.7646351,-350.23752
4444000000,-6.7476096,-350.23325
4445000000,-6.7435846,-350.36621
4446000000,-6.7796607,-350.50439
4447000000,-6.7738581,-350.51514
4448000000,-6.7603278,-350.61127
4449000000,-6.7695713,-350.5806
4450000000,-6.7548294,-350.78473
4451000000,-6.7992158,-350.75558
4452000000,-6.754952,-350.75421
4453000000,-6.7640114,-350.94412
4454000000,-6.7534375,-350.97864
4455000000,-6.7427168,-351.05521
4456000000,-6.745048,-351.14713
4457000000,-6.7501211,-351.23135
4458000000,-6.7530942,-351.20215
4459000000,-6.7619514,-351.3338
4460000000,-6.7248974,-351.33591
4461000000,-6.7445111,-351.32208
4462000000,-6.7453003,-351.57297
4463000000,-6.7206917,-351.67487
4464000000,-6.7274141,-351.72263
4465000000,-6.7535877,-351.72037
4466000000,-6.7447677,-351.85635
4467000000,-6.7685361,-351.72183
4468000000,-6.7346945,-351.95636
4469000000,-6.7257042,-351.91769
4470000000,-6.7352996,-352.02328
4471000000,-6.7295308,-352.19687
4472000000,-6.7558422,-352.3804
4473000000,-6.7407718,-352.30374
4474000000,-6.7349133,-352.43625
4475000000,-6.7376399,-352.44049
4476000000,-6.746521,-352.53488
4477000000,-6.7394776,-352.59842
4478000000,-6.7336607,-352.67462
4479000000,-6.7246275,-352.58896
4480000000,-6.7192116,-352.89438
4481000000,-6.7503896,-352.84525
4482000000,-6.734983,-352.90369
4483000000,-6.750464,-352.83618
4484000000,-6.7282906,-352.96115
4485000000,-6.7494016,-353.09552
4486000000,-6.7205954,-353.26144
4487000000,-6.723371,-353.14468
4488000000,-6.7207417,-353.40158
4489000000,-6.7123113,-353.38464
4490000000,-6.7233877,-353.38068
4491000000,-6.705472,-353.6369
4492000000,-6.7205005,-353.66437
4493000000,-6.6902781,-353.85437
4494000000,-6.7139707,-353.784
4495000000,-6.7118635,-353.53976
4496000000,-6.7158666,-353.9053
4497000000,-6.7306685,-354.0856
4498000000,-6.7285657,-353.8598
4499000000,-6.7143345,-354.00919
4500000000,-6.7474713,-354.30176
4501000000,-6.7030649,-354.26453
4502000000,-6.684876,-354.4075
4503000000,-6.6976948,-354.5199
4504000000,-6.7138295,-354.38818
4505000000,-6.7097726,-354.39877
4506000000,-6.7269831,-354.77649
4507000000,-6.7246599,-354.78961
4508000000,-6.6843638,-354.6792
4509000000,-6.7033706,-354.87003
4510000000,-6.6878152,-354.85162
4511000000,-6.7151628,-355.1394
4512000000,-6.7015166,-355.0824
4513000000,-6.694643,-355.1192
4514000000,-6.6922407,-355.30948
4515000000,-6.7147536,-355.31387
4516000000,-6.7022424,-355.45731
4517000000,-6.6882448,-355.55356
4518000000,-6.6887565,-355.53348
4519000000,-6.6982417,-355.57782
4520000000,-6.6885428,-355.54028
4521000000,-6.711391,-355.62299
4522000000,-6.7074418,-355.82925
4523000000,-6.6828723,-355.91107
4524000000,-6.7072449,-355.8197
4525000000,-6.703773,-355.97617
4526000000,-6.727807,-355.84381
4527000000,-6.6951241,-356.12881
4528000000,-6.6885977,-355.96658
4529000000,-6.677505,-356.33887
4530000000,-6.6672955,-356.272
4531000000,-6.7022319,-356.46326
4532000000,-6.7125192,-356.29492
4533000000,-6.674695,-356.31842
4534000000,-6.68539,-356.60016
4535000000,-6.6902051,-356.63733
4536000000,-6.6739888,-356.71344
4537000000,-6.6737719,-356.7869
4538000000,-6.6630569,-356.96851
4539000000,-6.6697578,-356.92691
4540000000,-6.6403255,-356.98148
4541000000,-6.6798959,-357.17969
4542000000,-6.6825233,-357.12476
4543000000,-6.6403928,-357.22327
4544000000,-6.6553102,-357.29483
4545000000,-6.6783824,-357.32608
4546000000,-6.666182,-357.42792
4547000000,-6.6567998,-357.59052
4548000000,-6.6497169,-357.52042
4549000000,-6.6728907,-357.85724
4550000000,-6.6663966,-357.73917
4551000000,-6.6701117,-357.67572
4552000000,-6.6696539,-357.75705
4553000000,-6.6683784,-357.82877
4554000000,-6.6833997,-357.9335
4555000000,-6.6479154,-358.06808
4556000000,-6.6406536,-358.0567
4557000000,-6.660533,-358.18399
4558000000,-6.6458135,-358.17725
4559000000,-6.6519036,-358.4274
4560000000,-6.6501036,-358.41611
4561000000,-6.6426377,-358.61591
4562000000,-6.6448555,-358.64471
4563000000,-6.6591511,-358.69595
4564000000,-6.6359386,-358.58569
4565000000,-6.6284456,-358.67151
4566000000,-6.6521726,-358.88519
4567000000,-6.6287837,-358.81018
4568000000,-6.6254239,-358.62189
4569000000,-6.6343374,-359.02393
4570000000,-6.6491723,-358.96887
4571000000,-6.6313753,-359.20166
4572000000,-6.6257272,-359.35489
4573000000,-6.6363134,-359.39368
4574000000,-6.5945945,-359.34326
4575000000,-6.6511555,-359.51633
4576000000,-6.6258039,-359.5166
4577000000,-6.6206951,-359.51666
4578000000,-6.6512318,-359.61444
4579000000,-6.6199341,-359.84409
4580000000,-6.6152744,-359.82291
4581000000,-6.640728,-359.98288
4582000000,-6.6353106,-360.04752
4583000000,-6.6309466,-359.93491
4584000000,-6.603404,-360.28088
4585000000,-6.618793,-360.20447
4586000000,-6.6114302,-360.31458
4587000000,-6.5908456,-360.35941
4588000000,-6.6210933,-360.36932
4589000000,-6.6286669,-360.29718
4590000000,-6.6278563,-360.45746
4591000000,-6.6346354,-360.61618
4592000000,-6.6054964,-360.64233
4593000000,-6.6259665,-360.64471
4594000000,-6.6284552,-360.68625
4595000000,-6.598433,-360.8674
4596000000,-6.6129713,-361.0502
4597000000,-6.605093,-360.95667
4598000000,-6.5722508,-361.00778
4599000000,-6.589334,-361.05551
4600000000,-6.6084728,-361.1839
4601000000,-6.6072063,-361.28857
4602000000,-6.6126814,-361.30804
4603000000,-6.5830951,-361.3793
4604000000,-6.593152,-361.5983
4605000000,-6.5887418,-361.51163
4606000000,-6.6018753,-361.64624
4607000000,-6.5780921,-361.54016
4608000000,-6.5676274,-361.7955
4609000000,-6.5880752,-361.81525
4610000000,-6.5964632,-361.91196
4611000000,-6.5675035,-362.03244
4612000000,-6.5876427,-362.05518
4613000000,-6.5794792,-362.17188
4614000000,-6.5736108,-362.20468
4615000000,-6.5772595,-362.22992
4616000000,-6.5739465,-362.34113
4617000000,-6.5620451,-362.49814
4618000000,-6.5999227,-362.37448
4619000000,-6.5762892,-362.65152
4620000000,-6.5741119,-362.68976
4621000000,-6.5560741,-362.70175
4622000000,-6.5728106,-362.89941
4623000000,-6.5733948,-362.81152
4624000000,-6.569232,-363.08215
4625000000,-6.5726666,-362.93124
4626000000,-6.5524406,-363.16461
4627000000,-6.5604367,-363.16055
4628000000,-6.5455861,-363.24011
4629000000,-6.5546598,-363.36234
4630000000,-6.5887465,-363.47665
4631000000,-6.5844345,-363.43518
4632000000,-6.5341272,-363.50763
4633000000,-6.5732722,-363.62222
4634000000,-6.540534,-363.72464
4635000000,-6.5433278,-363.70789
4636000000,-6.5482364,-363.9556
4637000000,-6.544713,-363.93152
4638000000,-6.5760226,-363.91147
4639000000,-6.5540295,-363.93976
4640000000,-6.5533128,-364.16327
4641000000,-6.5498571,-364.06647
4642000000,-6.5477118,-364.32419
4643000000,-6.5623803,-364.48886
4644000000,-6.5451446,-364.45258
4645000000,-6.5616059,-364.4747
4646000000,-6.5279045,-364.61063
4647000000,-6.5391469,-364.62939
4648000000,-6.5164599,-364.83908
4649000000,-6.5275769,-364.76575
4650000000,-6.5373082,-364.87045
4651000000,-6.5272903,-364.91699
4652000000,-6.5400057,-365.13535
4653000000,-6.544673,-365.02457
4654000000,-6.5328193,-364.95938
4655000000,-6.5395756,-365.24551
4656000000,-6.5099244,-365.50266
4657000000,-6.5368409,-365.39172
4658000000,-6.522357,-365.38596
4659000000,-6.5066733,-365.52304
4660000000,-6.5233946,-365.5899
4661000000,-6.5064592,-365.6882
4662000000,-6.5333424,-365.8645
4663000000,-6.4894118,-365.86551
4664000000,-6.5064511,-365.89603
4665000000,-6.4982724,-366.03329
4666000000,-6.4880557,-365.99698
4667000000,-6.5080132,-366.2056
4668000000,-6.5130877,-366.16095
4669000000,-6.5315881,-366.2135
4670000000,-6.4924579,-366.25754
4671000000,-6.5109043,-366.44019
4672000000,-6.5198746,-366.59131
4673000000,-6.5034952,-366.58859
4674000000,-6.500773,-366.58237
4675000000,-6.4713011,-366.66187
4676000000,-6.5075965,-366.87631
4677000000,-6.4881396,-366.69983
4678000000,-6.4870315,-366.87512
4679000000,-6.4873629,-366.90176
4680000000,-6.4966006,-367.18378
4681000000,-6.4791946,-367.05734
4682000000,-6.5057096,-367.33621
4683000000,-6.4752135,-367.15503
4684000000,-6.4812179,-367.33804
4685000000,-6.4820619,-367.46262
4686000000,-6.4926624,-367.53717
4687000000,-6.4702649,-367.45343
4688000000,-6.4905901,-367.51035
4689000000,-6.4747448,-367.63947
4690000000,-6.4863358,-367.86377
4691000000,-6.4935646,-367.82394
4692000000,-6.4727159,-367.82867
4693000000,-6.4784427,-368.06964
4694000000,-6.4577889,-368.04059
4695000000,-6.4646373,-368.22876
4696000000,-6.4569306,-368.35361
4697000000,-6.4997692,-368.39651
4698000000,-6.4358091,-368.30063
4699000000,-6.4640756,-368.37393
4700000000,-6.4439201,-368.63397
4701000000,-6.4736438,-368.59387
4702000000,-6.4601779,-368.66501
4703000000,-6.4733062,-368.77414
4704000000,-6.4615731,-368.84753
4705000000,-6.4386134,-368.84613
4706000000,-6.4517665,-369.10886
4707000000,-6.4386468,-369.07449
4708000000,-6.4385762,-369.07211
4709000000,-6.4324903,-369.29678
4710000000,-6.4361706,-369.40195
4711000000,-6.4417219,-369.28802
4712000000,-6.4415903,-369.45288
4713000000,-6.4531136,-369.62097
4714000000,-6.4385762,-369.68158
4715000000,-6.4413586,-369.60623
4716000000,-6.4430795,-369.73248
4717000000,-6.4295859,-369.85629
4718000000,-6.4233098,-369.75107
4719000000,-6.4685903,-370.10623
4720000000,-6.4569211,-370.14478
4721000000,-6.4327283,-370.09622
4722000000,-6.4305825,-370.0636
4723000000,-6.4213982,-370.23584
4724000000,-6.396194,-370.25348
4725000000,-6.3941946,-370.54605
4726000000,-6.4275646,-370.39328
4727000000,-6.4289932,-370.73151
4728000000,-6.4253511,-370.6084
4729000000,-6.4015856,-370.75418
4730000000,-6.421608,-370.76974
4731000000,-6.4026918,-370.94241
4732000000,-6.4159575,-370.85318
4733000000,-6.4194236,-370.88092
4734000000,-6.3920002,-371.14517
4735000000,-6.3932958,-371.15488
4736000000,-6.418437,-371.25473
4737000000,-6.3900099,-371.32697
4738000000,-6.3935413,-371.45114
4739000000,-6.3989277,-371.40375
4740000000,-6.3833823,-371.51477
4741000000,-6.381124,-371.62073
4742000000,-6.3798428,-371.54764
4743000000,-6.4189262,-371.78723
4744000000,-6.3927431,-371.97849
4745000000,-6.3755202,-372.01382
4746000000,-6.3657722,-372.14407
4747000000,-6.3616271,-372.16809
4748000000,-6.356535,-372.25284
4749000000,-6.3748059,-372.29095
4750000000,-6.3848615,-372.19165
4751000000,-6.406323,-372.38278
4752000000,-6.3663363,-372.52078
4753000000,-6.3693933,-372.71158
4754000000,-6.3586264,-372.67245
4755000000,-6.386117,-372.70807
4756000000,-6.3630366,-372.75919
4757000000,-6.3527064,-372.81601
4758000000,-6.3701863,-372.96637
4759000000,-6.3448453,-372.98163
4760000000,-6.3520436,-372.91479
4761000000,-6.3662457,-373.07559
4762000000,-6.3738728,-373.18637
4763000000,-6.3649869,-373.26788
4764000000,-6.3566847,-373.55371
4765000000,-6.3591003,-373.4902
4766000000,-6.3572187,-373.52075
4767000000,-6.3610315,-373.62164
4768000000,-6.3581433,-373.65152
4769000000,-6.3508735,-373.7782
4770000000,-6.3581696,-373.84158
4771000000,-6.3528414,-373.70932
4772000000,-6.3388882,-374.0621
4773000000,-6.3362083,-374.10672
4774000000,-6.3391523,-374.18698
4775000000,-6.3006287,-374.31537
4776000000,-6.3533349,-374.36469
4777000000,-6.3448648,-374.35803
4778000000,-6.320323,-374.44055
4779000000,-6.3312588,-374.27991
4780000000,-6.306304,-374.7652
4781000000,-6.3373709,-374.86353
4782000000,-6.2926974,-374.71832
4783000000,-6.3305655,-374.78732
4784000000,-6.3237104,-374.9599
4785000000,-6.3093324,-375.23111
4786000000,-6.336596,-375.24683
4787000000,-6.2829185,-375.24789
4788000000,-6.3132782,-375.2814
4789000000,-6.3298841,-375.29083
4790000000,-6.3012481,-375.49402
4791000000,-6.3211546,-375.39145
4792000000,-6.3109312,-375.35352
4793000000,-6.2836719,-375.72583
4794000000,-6.2811918,-375.61893
4795000000,-6.2961316,-375.65979
4796000000,-6.3195367,-375.88544
4797000000,-6.2848563,-375.82285
4798000000,-6.2839222,-376.02237
4799000000,-6.2852521,-376.0946
4800000000,-6.2899518,-376.08594
4801000000,-6.2947259,-376.35239
4802000000,-6.2866077,-376.31754
4803000000,-6.2763538,-376.49823
4804000000,-6.2866182,-376.36749
4805000000,-6.2797208,-376.52258
4806000000,-6.2854075,-376.63821
4807000000,-6.2910585,-376.75754
4808000000,-6.2742887,-376.84146
4809000000,-6.3011942,-376.89319
4810000000,-6.2781239,-377.00824
4811000000,-6.2849545,-377.0498
4812000000,-6.2580142,-377.1459
4813000000,-6.256391,-377.18057
4814000000,-6.2406263,-377.11639
4815000000,-6.2587066,-377.24179
4816000000,-6.2692494,-377.42978
4817000000,-6.2538829,-377.6257
4818000000,-6.2806816,-377.40918
4819000000,-6.2605581,-377.90848
4820000000,-6.2807622,-377.75143
4821000000,-6.2462163,-377.90549
4822000000,-6.2561512,-378.03601
4823000000,-6.2402954,-377.98355
4824000000,-6.2718687,-378.07468
4825000000,-6.2897058,-378.16852
4826000000,-6.2487268,-378.29449
4827000000,-6.2493882,-378.22003
4828000000,-6.238111,-378.4758
4829000000,-6.2406449,-378.58765
4830000000,-6.2464652,-378.39398
4831000000,-6.2525101,-378.74451
4832000000,-6.233397,-378.70349
4833000000,-6.2292581,-378.60007
4834000000,-6.2398381,-378.89032
4835000000,-6.2147555,-378.86887
4836000000,-6.2172065,-378.89587
4837000000,-6.2455831,-379.01483
4838000000,-6.1913481,-379.12573
4839000000,-6.2391729,-379.32782
4840000000,-6.2135568,-379.28934
4841000000,-6.2110085,-379.51816
4842000000,-6.2127547,-379.52304
4843000000,-6.2126989,-379.54446
4844000000,-6.1817026,-379.51755
4845000000,-6.1964059,-379.73285
4846000000,-6.203825,-379.96271
4847000000,-6.2318749,-379.86273
4848000000,-6.2086515,-380.07999
4849000000,-6.1838222,-380.15976
4850000000,-6.2112803,-380.04346
4851000000,-6.2158122,-380.31512
4852000000,-6.1918368,-380.27695
4853000000,-6.18292,-380.33667
4854000000,-6.1909075,-380.45499
4855000000,-6.1584835,-380.46161
4856000000,-6.1705437,-380.65936
4857000000,-6.1704049,-380.65182
4858000000,-6.1775103,-380.87091
4859000000,-6.1993198,-380.93265
4860000000,-6.1936884,-380.78189
4861000000,-6.1578536,-381.02731
4862000000,-6.1826439,-381.12158
4863000000,-6.1759601,-381.07813
4864000000,-6.1649237,-380.99786
4865000000,-6.1963062,-381.39667
4866000000,-6.1628919,-381.40146
4867000000,-6.1703587,-381.55722
4868000000,-6.1698513,-381.40836
4869000000,-6.1508346,-381.81866
4870000000,-6.1984611,-381.66464
4871000000,-6.17275,-381.83817
4872000000,-6.1926055,-381.923
4873000000,-6.1428294,-382.07123
4874000000,-6.1498637,-382.03351
4875000000,-6.1510906,-382.12543
4876000000,-6.1363297,-382.08524
4877000000,-6.1316347,-382.40604
4878000000,-6.1142616,-382.39166
4879000000,-6.1179414,-382.46182
4880000000,-6.1194434,-382.54782
4881000000,-6.1435022,-382.67529
4882000000,-6.1328187,-382.64978
4883000000,-6.1106405,-382.7272
4884000000,-6.1116586,-383.01755
4885000000,-6.1449471,-382.94965
4886000000,-6.1195107,-383.21164
4887000000,-6.1204834,-383.21094
4888000000,-6.1027846,-383.3743
4889000000,-6.1398869,-383.40643
4890000000,-6.0847292,-383.20349
4891000000,-6.1156554,-383.40555
4892000000,-6.1031842,-383.62683
4893000000,-6.0992293,-383.78448
4894000000,-6.1269774,-383.72476
4895000000,-6.0952988,-383.82166
4896000000,-6.0872154,-383.89526
4897000000,-6.1071181,-383.91501
4898000000,-6.097784,-383.93179
4899000000,-6.0721545,-383.98221
4900000000,-6.1292682,-384.07428
4901000000,-6.0883899,-384.44415
4902000000,-6.0832376,-384.23532
4903000000,-6.0871878,-384.39862
4904000000,-6.0848131,-384.30728
4905000000,-6.0557828,-384.62512
4906000000,-6.0755129,-384.68536
4907000000,-6.0710306,-384.67743
4908000000,-6.0672426,-384.95544
4909000000,-6.071826,-384.86072
4910000000,-6.055625,-385.12915
4911000000,-6.0709753,-385.05048
4912000000,-6.0521979,-385.22256
4913000000,-6.0684061,-385.40005
4914000000,-6.0704246,-385.47888
4915000000,-6.061244,-385.61523
4916000000,-6.075685,-385.76367
4917000000,-6.045989,-385.46265
4918000000,-6.0390196,-385.77646
4919000000,-6.0391679,-385.97357
4920000000,-6.0389805,-386.06299
4921000000,-6.0183315,-386.01843
4922000000,-6.0284634,-386.13708
4923000000,-6.0389881,-386.35202
4924000000,-6.0184121,-386.35992
4925000000,-6.0341015,-386.45154
4926000000,-6.0179386,-386.52304
4927000000,-6.0266223,-386.64923
4928000000,-6.0354347,-386.43887
4929000000,-6.0011034,-386.78354
4930000000,-6.0122852,-386.85324
4931000000,-6.0019579,-386.98172
4932000000,-6.0069489,-387.13095
4933000000,-6.0061936,-387.15573
4934000000,-6.0064969,-387.04709
4935000000,-5.987618,-387.26489
4936000000,-6.023849,-387.45392
4937000000,-5.9882588,-387.48376
4938000000,-6.0250254,-387.58356
4939000000,-6.017313,-387.59772
4940000000,-6.0135255,-387.76819
4941000000,-6.0050797,-387.85495
4942000000,-6.0093288,-388.11008
4943000000,-6.0112162,-388.01727
4944000000,-5.996346,-387.93845
4945000000,-5.9973054,-388.42883
4946000000,-5.99156,-388.29712
4947000000,-6.0085855,-388.3287
4948000000,-6.0052576,-388.50458
4949000000,-5.9877872,-388.51202
4950000000,-6.0031281,-388.64899
4951000000,-6.0082755,-388.85638
4952000000,-5.9947095,-388.72293
4953000000,-5.9897528,-389.15823
4954000000,-5.9673066,-388.96115
4955000000,-6.0056329,-389.16132
4956000000,-5.9919481,-389.11356
4957000000,-5.9835033,-389.3418
4958000000,-5.9792194,-389.41113
4959000000,-5.9813089,-389.46469
4960000000,-5.9810915,-389.79477
4961000000,-5.95821,-389.61713
4962000000,-5.9819288,-389.83466
4963000000,-5.9879918,-389.76144
4964000000,-5.9722567,-389.86075
4965000000,-5.9758406,-390.11734
4966000000,-5.9641948,-390.1683
4967000000,-5.9783201,-390.04663
4968000000,-5.9860959,-390.41443
4969000000,-5.9573503,-390.43396
4970000000,-5.9591451,-390.47891
4971000000,-5.9747434,-390.61984
4972000000,-5.9682178,-390.72708
4973000000,-5.9765892,-390.7915
4974000000,-5.9746461,-390.94305
4975000000,-5.9700503,-390.89127
4976000000,-5.9610915,-390.90283
4977000000,-5.9771643,-391.14056
4978000000,-5.9274836,-391.33505
4979000000,-5.9713707,-391.53528
4980000000,-5.9706669,-391.45981
4981000000,-5.9557948,-391.37787
4982000000,-5.9213605,-391.43286
4983000000,-5.9576287,-391.62427
4984000000,-5.9618483,-391.78122
4985000000,-5.9811339,-391.81717
4986000000,-5.9324088,-391.8483
4987000000,-5.970427,-391.92984
4988000000,-5.9668069,-391.92523
4989000000,-5.9342732,-392.10019
4990000000,-5.9737778,-392.28128
4991000000,-5.9763741,-392.23679
4992000000,-5.9475718,-392.48807
4993000000,-5.9673853,-392.45886
4994000000,-5.9662156,-392.5238
4995000000,-5.9383869,-392.54599
4996000000,-5.9423881,-392.84875
4997000000,-5.9418607,-392.73929
4998000000,-5.9382038,-392.745
4999000000,-5.9348021,-393.00281
5000000000,-5.9306173,-393.11996
END

