!CSV A.01.01
!Agilent Technologies,E8362C,MY49020225,A.09.42.22
!Agilent E8362C: A.09.42.22
!Date: Tuesday, March 08, 2016 15:32:06
!Source: Standard

BEGIN CH1_DATA
Freq(Hz),S22 Log Mag(dB),S22 Phase(°)
1000000000,-11.280647,93.208702
1001000000,-11.36977,93.071213
1002000000,-11.385002,92.945663
1003000000,-11.357979,93.17524
1004000000,-11.371806,92.734291
1005000000,-11.389421,92.825523
1006000000,-11.392499,92.496857
1007000000,-11.442576,92.649269
1008000000,-11.415813,92.2929
1009000000,-11.440481,92.400818
1010000000,-11.455206,92.471672
1011000000,-11.496253,92.052727
1012000000,-11.529275,92.361053
1013000000,-11.525167,92.018089
1014000000,-11.551148,91.756912
1015000000,-11.549329,91.545105
1016000000,-11.569324,91.569298
1017000000,-11.614557,91.330521
1018000000,-11.597887,91.334946
1019000000,-11.611734,91.643692
1020000000,-11.645055,91.219177
1021000000,-11.666297,91.085144
1022000000,-11.662101,90.998253
1023000000,-11.646029,91.036949
1024000000,-11.685839,90.68988
1025000000,-11.705967,90.611534
1026000000,-11.711898,90.674759
1027000000,-11.723287,90.526611
1028000000,-11.802462,90.516434
1029000000,-11.798717,90.382645
1030000000,-11.7865,90.111786
1031000000,-11.835199,90.089363
1032000000,-11.8603,89.955162
1033000000,-11.840949,90.075829
1034000000,-11.854129,89.755043
1035000000,-11.841393,89.540863
1036000000,-11.887704,89.43412
1037000000,-11.884132,89.448357
1038000000,-11.901299,89.30439
1039000000,-11.88764,89.206947
1040000000,-11.945582,88.910477
1041000000,-11.96596,88.946106
1042000000,-11.958803,89.05188
1043000000,-11.982185,88.988411
1044000000,-12.008701,88.774261
1045000000,-12.037574,88.611366
1046000000,-12.083485,88.289116
1047000000,-12.049566,88.405991
1048000000,-12.083457,88.561111
1049000000,-12.115697,88.182388
1050000000,-12.095337,88.033081
1051000000,-12.054017,87.848694
1052000000,-12.145887,87.892784
1053000000,-12.142615,87.827019
1054000000,-12.176166,87.818939
1055000000,-12.167747,87.57563
1056000000,-12.201579,87.291824
1057000000,-12.235111,87.352127
1058000000,-12.245527,87.471603
1059000000,-12.235051,87.041283
1060000000,-12.277065,87.000954
1061000000,-12.303508,86.985466
1062000000,-12.315252,87.135315
1063000000,-12.311833,86.776039
1064000000,-12.359063,86.789383
1065000000,-12.356015,86.830055
1066000000,-12.367072,86.442276
1067000000,-12.391583,86.350777
1068000000,-12.420533,86.205078
1069000000,-12.438151,86.222168
1070000000,-12.480651,86.201515
1071000000,-12.448228,86.061874
1072000000,-12.509725,86.079109
1073000000,-12.499591,85.875725
1074000000,-12.565337,85.849472
1075000000,-12.553945,85.236313
1076000000,-12.550935,85.576134
1077000000,-12.603423,85.078766
1078000000,-12.593076,85.513321
1079000000,-12.606758,85.221481
1080000000,-12.655972,85.046921
1081000000,-12.692805,84.899101
1082000000,-12.687546,85.173912
1083000000,-12.72039,84.650124
1084000000,-12.737967,84.903336
1085000000,-12.768561,84.839478
1086000000,-12.752562,84.584419
1087000000,-12.766071,84.311928
1088000000,-12.83617,83.977524
1089000000,-12.805174,84.269615
1090000000,-12.818909,83.997978
1091000000,-12.849269,84.014008
1092000000,-12.891203,83.77758
1093000000,-12.905173,83.556068
1094000000,-12.913608,83.598663
1095000000,-12.918027,83.33876
1096000000,-12.990315,83.143761
1097000000,-13.001334,83.182076
1098000000,-12.990685,83.200729
1099000000,-13.000329,82.945122
1100000000,-13.063787,82.763054
1101000000,-13.032912,82.988533
1102000000,-13.106128,82.530838
1103000000,-13.078469,82.616074
1104000000,-13.124392,82.402939
1105000000,-13.116248,82.617096
1106000000,-13.153909,82.339729
1107000000,-13.17885,82.390381
1108000000,-13.21907,82.042351
1109000000,-13.229396,82.021385
1110000000,-13.242981,81.712486
1111000000,-13.300749,82.024635
1112000000,-13.290686,81.489304
1113000000,-13.310237,81.539688
1114000000,-13.348265,81.376671
1115000000,-13.346729,81.276756
1116000000,-13.37287,81.001595
1117000000,-13.368466,81.385269
1118000000,-13.419305,81.078819
1119000000,-13.435119,80.766472
1120000000,-13.448902,80.718475
1121000000,-13.51543,80.699036
1122000000,-13.503929,80.65731
1123000000,-13.530619,80.750511
1124000000,-13.546482,80.280632
1125000000,-13.547588,80.129051
1126000000,-13.593624,80.125511
1127000000,-13.600655,80.07605
1128000000,-13.645657,79.844521
1129000000,-13.670936,79.852783
1130000000,-13.706757,80.017242
1131000000,-13.71509,79.427162
1132000000,-13.71752,79.871346
1133000000,-13.751586,79.243874
1134000000,-13.754881,78.967087
1135000000,-13.785212,79.249336
1136000000,-13.833132,78.956932
1137000000,-13.823071,78.868866
1138000000,-13.829426,78.807594
1139000000,-13.90237,78.756927
1140000000,-13.921273,78.592781
1141000000,-13.94909,78.636436
1142000000,-13.962859,78.456573
1143000000,-13.949276,78.314209
1144000000,-14.014745,78.027374
1145000000,-14.015103,78.1427
1146000000,-14.057835,77.792114
1147000000,-14.040915,77.862213
1148000000,-14.080016,77.551056
1149000000,-14.074581,77.496681
1150000000,-14.15172,77.651443
1151000000,-14.149512,77.597832
1152000000,-14.193211,77.254311
1153000000,-14.245227,77.208763
1154000000,-14.225039,77.052719
1155000000,-14.334568,77.047516
1156000000,-14.316264,76.866425
1157000000,-14.326306,76.74559
1158000000,-14.344043,76.598869
1159000000,-14.377217,76.562584
1160000000,-14.388079,76.573494
1161000000,-14.379897,76.293274
1162000000,-14.447491,76.245766
1163000000,-14.517336,76.011574
1164000000,-14.505057,76.125511
1165000000,-14.497372,76.120529
1166000000,-14.524496,75.781509
1167000000,-14.558489,75.755516
1168000000,-14.599392,75.510857
1169000000,-14.629166,75.696968
1170000000,-14.643111,75.463623
1171000000,-14.684739,75.201157
1172000000,-14.699851,75.216339
1173000000,-14.736844,75.159554
1174000000,-14.784904,74.930099
1175000000,-14.78251,75.073708
1176000000,-14.830959,74.809288
1177000000,-14.834679,74.705139
1178000000,-14.848782,74.516464
1179000000,-14.914859,74.300751
1180000000,-14.926134,74.537743
1181000000,-14.979813,74.381905
1182000000,-15.021842,74.223541
1183000000,-14.986027,74.032806
1184000000,-15.022136,74.255371
1185000000,-15.063628,73.886414
1186000000,-15.074021,73.932648
1187000000,-15.133344,73.762573
1188000000,-15.164326,73.841309
1189000000,-15.193095,73.361214
1190000000,-15.221097,73.234688
1191000000,-15.213277,73.292305
1192000000,-15.253966,73.230286
1193000000,-15.316069,72.918236
1194000000,-15.319004,73.080467
1195000000,-15.408396,72.70372
1196000000,-15.415642,73.001976
1197000000,-15.428439,72.421288
1198000000,-15.464396,72.393089
1199000000,-15.478719,72.453781
1200000000,-15.529302,72.155823
1201000000,-15.563667,72.232101
1202000000,-15.525178,71.883438
1203000000,-15.568213,71.88353
1204000000,-15.660727,71.838844
1205000000,-15.663119,71.598633
1206000000,-15.733595,71.647255
1207000000,-15.748971,71.654869
1208000000,-15.766316,71.480179
1209000000,-15.870885,71.553024
1210000000,-15.788723,71.071579
1211000000,-15.914862,71.012825
1212000000,-15.901609,71.335899
1213000000,-15.945704,70.990669
1214000000,-15.9285,70.989006
1215000000,-15.980162,70.579948
1216000000,-16.075905,70.756493
1217000000,-16.044891,70.84726
1218000000,-16.134657,70.317482
1219000000,-16.145931,70.587074
1220000000,-16.172037,70.277504
1221000000,-16.180277,70.365822
1222000000,-16.186668,70.423103
1223000000,-16.284023,70.467148
1224000000,-16.255322,70.287689
1225000000,-16.359943,70.057953
1226000000,-16.336536,69.891258
1227000000,-16.421535,69.680862
1228000000,-16.464907,69.981522
1229000000,-16.477255,69.597313
1230000000,-16.481773,69.312897
1231000000,-16.548128,69.629524
1232000000,-16.611876,69.349144
1233000000,-16.564123,69.307236
1234000000,-16.672022,69.125023
1235000000,-16.655109,69.04261
1236000000,-16.720268,69.341141
1237000000,-16.75005,69.017502
1238000000,-16.79896,68.994385
1239000000,-16.848015,68.790787
1240000000,-16.917322,68.609528
1241000000,-16.911995,68.537682
1242000000,-16.969549,68.60701
1243000000,-17.000874,68.38961
1244000000,-17.052986,68.700714
1245000000,-17.086409,68.403694
1246000000,-17.127186,68.347466
1247000000,-17.196243,68.113808
1248000000,-17.148483,68.057091
1249000000,-17.246237,67.998032
1250000000,-17.29995,67.978134
1251000000,-17.31732,67.570114
1252000000,-17.387466,67.502983
1253000000,-17.408966,67.617599
1254000000,-17.430849,67.756729
1255000000,-17.460934,67.453522
1256000000,-17.503323,67.698517
1257000000,-17.594774,67.459946
1258000000,-17.57247,67.222954
1259000000,-17.623083,67.298386
1260000000,-17.699793,67.154701
1261000000,-17.7146,67.055885
1262000000,-17.77951,67.021523
1263000000,-17.857983,67.111519
1264000000,-17.824207,67.064186
1265000000,-17.893436,66.704712
1266000000,-17.934483,67.021843
1267000000,-18.011362,66.712952
1268000000,-18.034552,66.927368
1269000000,-18.067307,66.611275
1270000000,-18.14418,66.617424
1271000000,-18.23222,66.311409
1272000000,-18.221853,66.412544
1273000000,-18.25071,66.282066
1274000000,-18.304745,66.333092
1275000000,-18.322912,66.277367
1276000000,-18.399338,66.122131
1277000000,-18.474781,66.358963
1278000000,-18.516912,66.181274
1279000000,-18.558952,65.727051
1280000000,-18.640078,65.962059
1281000000,-18.650591,65.920319
1282000000,-18.712334,66.095772
1283000000,-18.796473,65.722946
1284000000,-18.80665,65.786812
1285000000,-18.852057,65.884193
1286000000,-18.926706,65.429802
1287000000,-18.94805,65.503517
1288000000,-18.988865,65.690659
1289000000,-19.110224,65.561325
1290000000,-19.138926,65.299133
1291000000,-19.15913,65.350311
1292000000,-19.27035,65.355064
1293000000,-19.332682,65.492973
1294000000,-19.321844,64.945694
1295000000,-19.394478,65.293488
1296000000,-19.405001,65.013939
1297000000,-19.529402,65.271484
1298000000,-19.557791,65.018761
1299000000,-19.596342,64.614723
1300000000,-19.641722,65.006256
1301000000,-19.72143,65.066025
1302000000,-19.768248,64.833191
1303000000,-19.843069,64.890976
1304000000,-19.927155,64.965424
1305000000,-19.95446,64.793625
1306000000,-19.985481,64.754372
1307000000,-20.078335,64.569557
1308000000,-20.083889,64.943016
1309000000,-20.152834,64.433327
1310000000,-20.21418,64.476265
1311000000,-20.279533,64.451096
1312000000,-20.289795,64.500206
1313000000,-20.412819,64.079292
1314000000,-20.485506,64.628899
1315000000,-20.524815,64.566498
1316000000,-20.573143,64.705711
1317000000,-20.613356,64.395134
1318000000,-20.71233,64.798615
1319000000,-20.712034,64.36747
1320000000,-20.817146,64.56562
1321000000,-20.920809,64.253922
1322000000,-20.934464,64.452408
1323000000,-21.028557,64.790092
1324000000,-21.082533,64.399277
1325000000,-21.169157,64.426262
1326000000,-21.219404,64.627029
1327000000,-21.29562,64.333893
1328000000,-21.324833,64.336128
1329000000,-21.459431,64.852097
1330000000,-21.435225,64.42334
1331000000,-21.534023,64.450882
1332000000,-21.585371,64.574799
1333000000,-21.639921,64.653427
1334000000,-21.726717,64.074753
1335000000,-21.784113,64.722687
1336000000,-21.910629,64.700127
1337000000,-21.981472,64.126892
1338000000,-22.0261,65.03846
1339000000,-22.072611,64.945694
1340000000,-22.116028,65.244461
1341000000,-22.205385,65.012428
1342000000,-22.237411,64.929695
1343000000,-22.322208,64.990479
1344000000,-22.526218,65.021706
1345000000,-22.489025,65.017715
1346000000,-22.612688,64.960136
1347000000,-22.720034,65.559204
1348000000,-22.727083,65.605682
1349000000,-22.846153,65.793762
1350000000,-22.967678,65.936607
1351000000,-22.976955,65.892151
1352000000,-23.059504,65.7341
1353000000,-23.18115,66.007851
1354000000,-23.257257,66.248627
1355000000,-23.276482,66.384117
1356000000,-23.348831,66.488899
1357000000,-23.519405,66.68895
1358000000,-23.517687,66.82811
1359000000,-23.661623,66.892448
1360000000,-23.716825,66.398529
1361000000,-23.795485,67.478424
1362000000,-23.876486,66.942337
1363000000,-23.917189,67.041565
1364000000,-23.986734,67.224373
1365000000,-24.059328,67.099373
1366000000,-24.271334,67.530289
1367000000,-24.329529,67.841179
1368000000,-24.425592,68.072716
1369000000,-24.453419,68.430122
1370000000,-24.55637,68.305367
1371000000,-24.681988,68.640434
1372000000,-24.664534,68.627457
1373000000,-24.770298,68.260269
1374000000,-24.854435,69.054459
1375000000,-24.978476,69.739601
1376000000,-25.080236,69.529892
1377000000,-25.231382,70.13945
1378000000,-25.148081,70.583145
1379000000,-25.263313,70.687866
1380000000,-25.413347,70.711472
1381000000,-25.467026,71.589157
1382000000,-25.571651,70.76664
1383000000,-25.611774,71.884689
1384000000,-25.755175,72.733925
1385000000,-25.862926,72.73922
1386000000,-25.963451,72.491211
1387000000,-26.12122,73.163811
1388000000,-26.151781,73.762703
1389000000,-26.253677,73.911781
1390000000,-26.275478,74.66909
1391000000,-26.465433,74.905235
1392000000,-26.425508,74.840164
1393000000,-26.511206,76.304253
1394000000,-26.54652,75.719048
1395000000,-26.709524,76.601807
1396000000,-26.870735,76.779709
1397000000,-27.018906,77.696808
1398000000,-26.972008,78.132973
1399000000,-27.135208,79.169167
1400000000,-27.180939,79.51239
1401000000,-27.206116,80.051529
1402000000,-27.395731,80.727676
1403000000,-27.465075,80.946136
1404000000,-27.60721,82.555878
1405000000,-27.679842,82.500023
1406000000,-27.653509,82.634445
1407000000,-27.860994,83.392601
1408000000,-27.926081,84.226379
1409000000,-28.014908,85.232002
1410000000,-28.139765,85.718613
1411000000,-28.130251,86.740654
1412000000,-28.224926,87.11866
1413000000,-28.350636,88.125221
1414000000,-28.39114,88.668732
1415000000,-28.368324,89.546173
1416000000,-28.658514,90.635155
1417000000,-28.531378,90.854919
1418000000,-28.620831,92.829071
1419000000,-28.643827,92.42131
1420000000,-28.818178,93.547852
1421000000,-28.757711,94.677216
1422000000,-28.891798,95.460869
1423000000,-28.950607,96.262741
1424000000,-28.978767,97.5009
1425000000,-29.020809,98.147499
1426000000,-28.943411,98.75795
1427000000,-29.165709,99.399994
1428000000,-29.104935,101.32551
1429000000,-29.147909,101.60494
1430000000,-29.200155,102.82391
1431000000,-29.265549,103.65649
1432000000,-29.254229,104.52232
1433000000,-29.296383,105.94885
1434000000,-29.303511,107.33407
1435000000,-29.334171,108.23191
1436000000,-29.287457,108.64786
1437000000,-29.3029,109.26495
1438000000,-29.23387,109.88594
1439000000,-29.231535,111.64104
1440000000,-29.240511,112.23482
1441000000,-29.298523,113.31658
1442000000,-29.377037,113.77381
1443000000,-29.288355,115.49771
1444000000,-29.222897,116.34982
1445000000,-29.204588,117.04922
1446000000,-29.312159,117.44058
1447000000,-29.347025,118.57455
1448000000,-29.081247,120.81493
1449000000,-29.029892,120.43979
1450000000,-29.053091,122.66492
1451000000,-28.929501,123.38092
1452000000,-28.966309,124.08624
1453000000,-28.978352,124.33434
1454000000,-28.845104,124.80113
1455000000,-28.77264,126.31835
1456000000,-28.737015,127.74391
1457000000,-28.662424,128.16539
1458000000,-28.714098,129.15915
1459000000,-28.627424,130.22142
1460000000,-28.563942,130.3511
1461000000,-28.577784,131.22681
1462000000,-28.48457,131.41637
1463000000,-28.383718,131.70061
1464000000,-28.257549,133.18588
1465000000,-28.226137,133.76949
1466000000,-28.167366,134.467
1467000000,-28.04954,135.53032
1468000000,-28.064581,135.90448
1469000000,-27.926889,136.30258
1470000000,-27.950109,136.95158
1471000000,-27.71501,137.79121
1472000000,-27.620621,138.89616
1473000000,-27.596937,139.15846
1474000000,-27.568113,139.23891
1475000000,-27.357082,140.82446
1476000000,-27.35318,140.25793
1477000000,-27.422459,141.48114
1478000000,-27.244493,140.65814
1479000000,-27.166113,141.45488
1480000000,-27.110065,142.53201
1481000000,-27.055288,142.99055
1482000000,-26.95957,143.02943
1483000000,-26.878393,143.40958
1484000000,-26.767265,144.44949
1485000000,-26.684978,143.8837
1486000000,-26.557438,144.72217
1487000000,-26.544924,145.66083
1488000000,-26.465292,145.11954
1489000000,-26.328398,146.29228
1490000000,-26.351833,145.85149
1491000000,-26.169239,146.55098
1492000000,-26.138985,147.04456
1493000000,-26.053997,147.14618
1494000000,-25.981337,147.05215
1495000000,-25.848297,147.86392
1496000000,-25.724886,147.5939
1497000000,-25.596605,148.09433
1498000000,-25.609072,148.41609
1499000000,-25.506369,148.59236
1500000000,-25.49576,148.48376
1501000000,-25.336836,148.45691
1502000000,-25.327057,148.61749
1503000000,-25.224476,149.39246
1504000000,-25.148567,150.46353
1505000000,-25.097319,149.6646
1506000000,-24.96612,149.8846
1507000000,-24.80776,150.22816
1508000000,-24.820629,149.92999
1509000000,-24.693205,150.24417
1510000000,-24.672522,150.42543
1511000000,-24.531265,150.74403
1512000000,-24.463505,150.79004
1513000000,-24.399389,150.74428
1514000000,-24.405764,151.19734
1515000000,-24.32683,151.18686
1516000000,-24.24144,151.36475
1517000000,-24.109674,151.13217
1518000000,-23.942469,151.75897
1519000000,-23.909405,151.87309
1520000000,-23.884552,152.02019
1521000000,-23.780565,151.42114
1522000000,-23.74626,152.62926
1523000000,-23.619467,151.82164
1524000000,-23.563095,152.25624
1525000000,-23.544659,152.65192
1526000000,-23.499725,152.661
1527000000,-23.376225,152.31364
1528000000,-23.318165,152.81129
1529000000,-23.305811,152.66772
1530000000,-23.307112,152.7364
1531000000,-23.101048,152.80202
1532000000,-23.121157,153.16476
1533000000,-23.053314,152.84132
1534000000,-23.005732,153.08435
1535000000,-22.856232,152.84967
1536000000,-22.817251,153.5338
1537000000,-22.805183,153.30219
1538000000,-22.795326,152.96622
1539000000,-22.678003,153.24704
1540000000,-22.617176,153.29257
1541000000,-22.548536,153.27159
1542000000,-22.5457,153.39523
1543000000,-22.47715,153.4791
1544000000,-22.356668,153.35088
1545000000,-22.358871,153.48053
1546000000,-22.261318,153.12273
1547000000,-22.231646,153.54796
1548000000,-22.229057,153.0387
1549000000,-22.141359,152.88805
1550000000,-22.148331,152.86778
1551000000,-22.006231,153.32712
1552000000,-21.989944,153.28996
1553000000,-21.916151,153.18327
1554000000,-21.915609,153.54343
1555000000,-21.835159,153.29675
1556000000,-21.771988,153.53398
1557000000,-21.710388,152.94597
1558000000,-21.65983,152.98331
1559000000,-21.656796,152.8065
1560000000,-21.580418,152.86214
1561000000,-21.497852,152.62083
1562000000,-21.461737,152.37334
1563000000,-21.428989,152.79691
1564000000,-21.345343,152.55026
1565000000,-21.376083,151.99753
1566000000,-21.259197,152.50543
1567000000,-21.228655,152.62698
1568000000,-21.210497,152.27502
1569000000,-21.177877,152.40689
1570000000,-21.099461,152.24411
1571000000,-21.021347,152.09319
1572000000,-21.007624,152.36888
1573000000,-21.002888,151.86015
1574000000,-20.972771,151.69427
1575000000,-20.895851,152.0153
1576000000,-20.861307,151.77943
1577000000,-20.838821,151.92137
1578000000,-20.746992,151.60286
1579000000,-20.678938,151.78687
1580000000,-20.669645,151.40987
1581000000,-20.60652,151.35251
1582000000,-20.573141,151.08751
1583000000,-20.526419,151.04391
1584000000,-20.509232,151.32079
1585000000,-20.475166,151.03412
1586000000,-20.448374,150.78819
1587000000,-20.387442,151.08148
1588000000,-20.364197,150.63745
1589000000,-20.381235,150.84846
1590000000,-20.280821,150.63101
1591000000,-20.294394,150.3396
1592000000,-20.183455,150.39867
1593000000,-20.162729,150.18602
1594000000,-20.150562,149.91791
1595000000,-20.086514,150.21764
1596000000,-20.069401,149.84869
1597000000,-20.083,149.47128
1598000000,-19.974955,149.74121
1599000000,-19.938782,149.45277
1600000000,-19.934359,149.36046
1601000000,-19.886425,149.30292
1602000000,-19.818289,149.06784
1603000000,-19.798904,149.34074
1604000000,-19.771547,149.09685
1605000000,-19.738827,148.78221
1606000000,-19.682533,148.83797
1607000000,-19.725704,148.77283
1608000000,-19.629801,148.57187
1609000000,-19.642567,148.47943
1610000000,-19.597795,148.28192
1611000000,-19.529482,148.24095
1612000000,-19.519823,148.0705
1613000000,-19.554768,147.79128
1614000000,-19.476665,147.75331
1615000000,-19.349398,147.70419
1616000000,-19.384392,147.46877
1617000000,-19.349064,147.37399
1618000000,-19.345486,147.45387
1619000000,-19.285683,147.05621
1620000000,-19.275837,147.21735
1621000000,-19.245068,146.8877
1622000000,-19.241123,146.70338
1623000000,-19.171877,146.36143
1624000000,-19.166952,146.67465
1625000000,-19.119844,146.33162
1626000000,-19.101778,146.66988
1627000000,-19.059217,146.08188
1628000000,-19.057665,145.99811
1629000000,-19.04212,145.7924
1630000000,-19.019709,145.88664
1631000000,-19.00382,145.77625
1632000000,-18.894102,145.67693
1633000000,-18.921749,145.53186
1634000000,-18.891138,145.27193
1635000000,-18.80241,145.20358
1636000000,-18.779797,144.84892
1637000000,-18.826996,145.38333
1638000000,-18.770596,144.56082
1639000000,-18.701746,145.18321
1640000000,-18.701029,144.75125
1641000000,-18.698248,144.60049
1642000000,-18.671125,144.09492
1643000000,-18.63711,144.27319
1644000000,-18.652128,144.15541
1645000000,-18.622725,143.92055
1646000000,-18.627743,143.98645
1647000000,-18.554609,144.02687
1648000000,-18.530491,143.22748
1649000000,-18.516499,143.2402
1650000000,-18.444784,143.25171
1651000000,-18.448105,143.31862
1652000000,-18.47703,143.10052
1653000000,-18.391897,142.81364
1654000000,-18.398739,142.76987
1655000000,-18.377407,143.04834
1656000000,-18.392113,142.4608
1657000000,-18.355143,142.4816
1658000000,-18.346045,142.11555
1659000000,-18.360628,142.35857
1660000000,-18.312799,142.2343
1661000000,-18.273729,141.96092
1662000000,-18.2682,142.07603
1663000000,-18.299171,141.77666
1664000000,-18.271387,141.66739
1665000000,-18.247156,141.20605
1666000000,-18.194252,141.2859
1667000000,-18.173357,141.12601
1668000000,-18.162436,140.93929
1669000000,-18.121696,141.18233
1670000000,-18.159204,140.77562
1671000000,-18.116772,140.81953
1672000000,-18.132271,140.51073
1673000000,-18.047005,140.44612
1674000000,-18.028793,140.20131
1675000000,-18.05172,140.48183
1676000000,-18.038757,140.00066
1677000000,-17.987839,139.7574
1678000000,-18.012659,139.51289
1679000000,-17.964628,139.6373
1680000000,-17.958803,139.25128
1681000000,-17.96266,139.32422
1682000000,-17.963678,139.19119
1683000000,-17.889942,138.98462
1684000000,-17.904232,138.93559
1685000000,-17.871218,138.87804
1686000000,-17.863348,138.71884
1687000000,-17.831648,138.62378
1688000000,-17.837029,138.28493
1689000000,-17.804987,138.11978
1690000000,-17.798412,138.01868
1691000000,-17.82667,138.05673
1692000000,-17.772175,137.71458
1693000000,-17.746912,137.44382
1694000000,-17.731987,137.55063
1695000000,-17.722195,137.26445
1696000000,-17.725088,137.41542
1697000000,-17.669653,137.06088
1698000000,-17.710577,137.1089
1699000000,-17.70705,136.79053
1700000000,-17.670473,136.48271
1701000000,-17.647381,136.56511
1702000000,-17.670486,136.37135
1703000000,-17.669991,136.20692
1704000000,-17.627419,136.46922
1705000000,-17.640947,135.85915
1706000000,-17.564089,135.79156
1707000000,-17.555111,135.77361
1708000000,-17.597107,135.73904
1709000000,-17.609674,135.4705
1710000000,-17.511909,135.10341
1711000000,-17.524529,135.07057
1712000000,-17.539124,135.14348
1713000000,-17.546017,134.82965
1714000000,-17.540594,134.57547
1715000000,-17.51029,134.642
1716000000,-17.489086,134.25478
1717000000,-17.444668,134.22345
1718000000,-17.521078,134.2009
1719000000,-17.446318,134.05518
1720000000,-17.448086,134.01534
1721000000,-17.426523,133.95271
1722000000,-17.398098,133.88197
1723000000,-17.420481,133.6776
1724000000,-17.418022,133.24419
1725000000,-17.479208,133.26862
1726000000,-17.376066,133.04555
1727000000,-17.397053,133.23265
1728000000,-17.333586,133.05066
1729000000,-17.378567,132.53778
1730000000,-17.391758,132.54993
1731000000,-17.374281,132.3875
1732000000,-17.359108,132.35071
1733000000,-17.342527,132.09627
1734000000,-17.320356,131.86401
1735000000,-17.295986,131.78221
1736000000,-17.274723,131.77094
1737000000,-17.297262,131.72479
1738000000,-17.252693,131.80043
1739000000,-17.245468,131.16446
1740000000,-17.273897,131.14032
1741000000,-17.231571,131.00612
1742000000,-17.259228,130.88849
1743000000,-17.245289,131.01546
1744000000,-17.216915,130.72632
1745000000,-17.187626,130.60716
1746000000,-17.208834,130.28279
1747000000,-17.154463,130.23691
1748000000,-17.203854,130.42883
1749000000,-17.188601,130.56253
1750000000,-17.183125,129.85719
1751000000,-17.204809,129.90582
1752000000,-17.170265,129.54907
1753000000,-17.155516,129.51917
1754000000,-17.139885,129.35262
1755000000,-17.17589,129.27135
1756000000,-17.154366,129.08934
1757000000,-17.100695,129.02158
1758000000,-17.092506,129.01772
1759000000,-17.16543,128.83966
1760000000,-17.089182,128.92233
1761000000,-17.123898,128.67883
1762000000,-17.101265,128.57776
1763000000,-17.082695,128.39566
1764000000,-17.109594,128.51999
1765000000,-17.064766,128.46606
1766000000,-17.101103,128.0334
1767000000,-17.098818,127.92806
1768000000,-17.07095,127.84974
1769000000,-17.09903,127.74277
1770000000,-17.083771,127.44072
1771000000,-17.063683,127.47138
1772000000,-17.012264,127.2367
1773000000,-17.044735,127.2791
1774000000,-17.104012,127.22229
1775000000,-17.066347,127.08936
1776000000,-17.03446,126.82047
1777000000,-17.03112,126.79823
1778000000,-17.01683,126.43056
1779000000,-17.053352,126.50761
1780000000,-17.013819,126.2624
1781000000,-17.03264,126.30065
1782000000,-17.049026,126.11589
1783000000,-17.009094,126.07758
1784000000,-17.013052,125.84357
1785000000,-17.007942,125.81218
1786000000,-17.061672,125.7487
1787000000,-17.02384,125.50385
1788000000,-16.977474,125.25174
1789000000,-16.986448,125.13797
1790000000,-17.002821,125.15649
1791000000,-17.010962,124.98782
1792000000,-16.992538,124.91965
1793000000,-16.965065,124.67463
1794000000,-16.98102,124.73513
1795000000,-16.990072,124.60146
1796000000,-16.979849,124.4583
1797000000,-16.939926,124.25885
1798000000,-16.992393,123.9994
1799000000,-16.982836,123.95703
1800000000,-16.961681,124.06631
1801000000,-16.952953,123.79744
1802000000,-16.988222,123.48201
1803000000,-16.982815,123.46795
1804000000,-16.99132,123.26057
1805000000,-16.961588,123.07479
1806000000,-16.959131,123.03128
1807000000,-16.965258,122.85576
1808000000,-16.974298,122.80122
1809000000,-16.986879,122.91129
1810000000,-16.969505,122.67577
1811000000,-16.969452,122.50369
1812000000,-16.960537,122.54161
1813000000,-16.947113,122.0946
1814000000,-16.996746,122.23543
1815000000,-16.963928,122.03284
1816000000,-17.012154,121.81506
1817000000,-16.949928,121.83928
1818000000,-16.97434,121.59533
1819000000,-16.982969,121.39639
1820000000,-16.927731,121.58033
1821000000,-17.020714,121.33945
1822000000,-16.97201,121.15469
1823000000,-16.997871,120.9169
1824000000,-16.979435,120.93774
1825000000,-16.926834,120.71098
1826000000,-16.973984,120.55164
1827000000,-16.960094,120.71324
1828000000,-16.948019,120.30967
1829000000,-16.949135,120.36873
1830000000,-16.966393,120.31082
1831000000,-16.975878,120.14127
1832000000,-16.998348,119.8706
1833000000,-16.946375,119.79021
1834000000,-16.959795,119.62291
1835000000,-16.908327,119.71666
1836000000,-16.926867,119.43165
1837000000,-16.96834,119.27453
1838000000,-16.931496,119.11741
1839000000,-16.987402,119.40757
1840000000,-16.956451,118.8532
1841000000,-16.966936,119.0836
1842000000,-16.960558,118.64919
1843000000,-16.946894,118.78703
1844000000,-16.914173,118.58369
1845000000,-16.981575,118.29168
1846000000,-16.947206,118.34916
1847000000,-16.943411,118.09641
1848000000,-16.973892,117.96758
1849000000,-16.947382,118.02531
1850000000,-16.96302,117.93893
1851000000,-16.947079,117.92722
1852000000,-16.984192,117.78018
1853000000,-16.956827,117.76939
1854000000,-16.955376,117.47315
1855000000,-16.970385,117.32529
1856000000,-16.969526,117.32542
1857000000,-16.927559,117.25879
1858000000,-16.928509,117.4009
1859000000,-16.935425,117.07751
1860000000,-16.981558,117.17194
1861000000,-16.991104,116.54636
1862000000,-16.964552,116.51493
1863000000,-16.968464,116.62849
1864000000,-16.975985,116.39899
1865000000,-16.993017,116.43657
1866000000,-16.977606,116.28374
1867000000,-16.96813,116.28551
1868000000,-16.969515,116.07623
1869000000,-16.983685,116.52575
1870000000,-16.98315,116.10208
1871000000,-16.929203,115.87665
1872000000,-16.945612,115.88364
1873000000,-16.967823,115.84064
1874000000,-16.975311,115.36236
1875000000,-16.992264,115.31013
1876000000,-16.988171,115.36083
1877000000,-17.001671,115.43998
1878000000,-16.967901,115.27626
1879000000,-16.953604,115.13373
1880000000,-17.002813,114.67214
1881000000,-16.997072,114.78017
1882000000,-17.015089,114.74013
1883000000,-17.043917,114.71498
1884000000,-17.058506,114.68747
1885000000,-17.037149,114.47731
1886000000,-17.028053,114.27839
1887000000,-17.048702,114.4473
1888000000,-17.060427,114.01989
1889000000,-17.049084,114.2352
1890000000,-17.058668,113.90995
1891000000,-17.033279,113.63647
1892000000,-17.044336,113.81597
1893000000,-17.072821,113.48678
1894000000,-17.112844,113.31037
1895000000,-17.085121,113.20212
1896000000,-17.063828,113.16784
1897000000,-17.07091,113.17788
1898000000,-17.083944,113.02327
1899000000,-17.110672,112.72276
1900000000,-17.102886,112.96326
1901000000,-17.103527,112.84409
1902000000,-17.097374,112.53847
1903000000,-17.127834,112.21358
1904000000,-17.127752,112.41029
1905000000,-17.126478,112.07258
1906000000,-17.172064,111.9814
1907000000,-17.097313,112.0016
1908000000,-17.124874,111.79315
1909000000,-17.117073,111.75923
1910000000,-17.131983,111.28561
1911000000,-17.149864,111.33872
1912000000,-17.174076,111.70462
1913000000,-17.11272,111.21001
1914000000,-17.138048,111.0998
1915000000,-17.178247,111.05531
1916000000,-17.192282,110.88998
1917000000,-17.165703,110.86205
1918000000,-17.207197,110.73528
1919000000,-17.171148,110.68825
1920000000,-17.17379,110.61937
1921000000,-17.193308,110.21223
1922000000,-17.172634,110.68557
1923000000,-17.170849,110.20541
1924000000,-17.208715,110.19777
1925000000,-17.193918,110.22482
1926000000,-17.20948,109.77744
1927000000,-17.226067,109.84244
1928000000,-17.21871,109.64192
1929000000,-17.246939,109.41992
1930000000,-17.214281,109.5744
1931000000,-17.254948,109.39091
1932000000,-17.244753,109.27178
1933000000,-17.259533,109.13426
1934000000,-17.230963,109.13467
1935000000,-17.231939,109.11637
1936000000,-17.208899,109.00887
1937000000,-17.211058,108.64726
1938000000,-17.242254,108.5522
1939000000,-17.251427,108.61761
1940000000,-17.26408,108.28951
1941000000,-17.27738,108.56921
1942000000,-17.274208,108.13409
1943000000,-17.293253,108.021
1944000000,-17.268219,107.99142
1945000000,-17.260681,107.90377
1946000000,-17.292572,107.56106
1947000000,-17.272493,107.73248
1948000000,-17.273624,107.43749
1949000000,-17.309229,107.4878
1950000000,-17.270714,107.26392
1951000000,-17.290962,107.41152
1952000000,-17.316971,106.9516
1953000000,-17.299444,106.9272
1954000000,-17.307989,106.9586
1955000000,-17.268984,107.01641
1956000000,-17.302271,106.86068
1957000000,-17.289898,106.48127
1958000000,-17.328747,106.42019
1959000000,-17.267899,106.50533
1960000000,-17.326296,105.97939
1961000000,-17.332836,106.33496
1962000000,-17.317846,106.15242
1963000000,-17.360725,106.05562
1964000000,-17.324844,105.87727
1965000000,-17.373028,105.76318
1966000000,-17.355482,105.95545
1967000000,-17.382996,105.72627
1968000000,-17.358961,105.64241
1969000000,-17.343407,105.4885
1970000000,-17.372663,105.22701
1971000000,-17.414938,105.17108
1972000000,-17.367062,105.0007
1973000000,-17.350121,105.13067
1974000000,-17.358776,105.03303
1975000000,-17.419954,104.87933
1976000000,-17.388058,104.76218
1977000000,-17.430676,104.79855
1978000000,-17.390211,104.41815
1979000000,-17.439363,104.12286
1980000000,-17.431339,104.18665
1981000000,-17.43742,104.10345
1982000000,-17.468323,104.54388
1983000000,-17.417917,104.03621
1984000000,-17.435324,104.25439
1985000000,-17.475657,104.0993
1986000000,-17.424187,103.71905
1987000000,-17.516285,103.73677
1988000000,-17.482836,103.48154
1989000000,-17.473011,103.6459
1990000000,-17.484312,103.36654
1991000000,-17.501894,103.0262
1992000000,-17.500643,103.1865
1993000000,-17.484049,103.08984
1994000000,-17.506437,103.037
1995000000,-17.546991,102.97215
1996000000,-17.566479,102.57134
1997000000,-17.563589,102.60278
1998000000,-17.558416,102.50608
1999000000,-17.565859,102.3274
2000000000,-17.535252,102.12598
2001000000,-17.560396,102.3056
2002000000,-17.59964,102.07726
2003000000,-17.586325,101.98437
2004000000,-17.638914,101.67931
2005000000,-17.628344,101.74832
2006000000,-17.588333,101.28019
2007000000,-17.610245,101.48564
2008000000,-17.659237,101.39512
2009000000,-17.659065,100.97068
2010000000,-17.601576,101.25967
2011000000,-17.654419,101.23318
2012000000,-17.667934,101.0247
2013000000,-17.657145,100.59776
2014000000,-17.689627,100.43635
2015000000,-17.658558,100.61822
2016000000,-17.68663,100.42351
2017000000,-17.673557,99.966042
2018000000,-17.726072,100.31828
2019000000,-17.734068,99.752869
2020000000,-17.693764,99.917862
2021000000,-17.713549,99.573105
2022000000,-17.688231,99.682236
2023000000,-17.74571,99.573387
2024000000,-17.725809,99.458649
2025000000,-17.721529,99.339317
2026000000,-17.737015,99.127243
2027000000,-17.710068,98.884956
2028000000,-17.725571,98.820381
2029000000,-17.746546,98.938026
2030000000,-17.777838,98.557236
2031000000,-17.769596,98.380722
2032000000,-17.787401,98.183182
2033000000,-17.756943,98.316696
2034000000,-17.787416,98.362823
2035000000,-17.786064,97.966698
2036000000,-17.8027,97.928436
2037000000,-17.801151,97.75843
2038000000,-17.780901,97.739441
2039000000,-17.803072,98.012634
2040000000,-17.817514,97.507759
2041000000,-17.821085,97.629623
2042000000,-17.804644,97.359451
2043000000,-17.780888,97.479675
2044000000,-17.804251,97.396896
2045000000,-17.835657,97.256493
2046000000,-17.818197,97.12883
2047000000,-17.79565,97.271553
2048000000,-17.830603,97.095734
2049000000,-17.825703,96.410568
2050000000,-17.886957,96.461288
2051000000,-17.862429,96.591873
2052000000,-17.852516,96.14222
2053000000,-17.858027,96.246544
2054000000,-17.857302,95.860992
2055000000,-17.868877,96.121147
2056000000,-17.862206,96.11116
2057000000,-17.868229,95.932686
2058000000,-17.866655,95.900009
2059000000,-17.849186,95.459129
2060000000,-17.928593,95.529099
2061000000,-17.846676,95.407875
2062000000,-17.921066,94.905121
2063000000,-17.935497,95.127594
2064000000,-17.943523,94.999504
2065000000,-17.954266,94.947113
2066000000,-17.896788,94.90522
2067000000,-17.969957,94.777237
2068000000,-17.904783,94.497681
2069000000,-17.910837,94.705597
2070000000,-17.916771,94.355659
2071000000,-17.957243,94.496422
2072000000,-17.964397,94.599968
2073000000,-17.95858,94.278526
2074000000,-17.999142,94.168404
2075000000,-17.972605,93.929779
2076000000,-17.968555,93.847733
2077000000,-18.002451,93.957771
2078000000,-18.01083,93.605247
2079000000,-18.000641,93.567825
2080000000,-18.030146,93.267998
2081000000,-18.059528,93.29879
2082000000,-18.018959,93.425957
2083000000,-18.02047,93.025223
2084000000,-18.056839,93.287628
2085000000,-18.053331,92.918472
2086000000,-18.054008,92.982536
2087000000,-18.060867,92.8172
2088000000,-18.03849,92.84111
2089000000,-18.059464,92.6782
2090000000,-18.072895,92.6437
2091000000,-18.099291,92.436478
2092000000,-18.124084,92.500671
2093000000,-18.103922,92.193825
2094000000,-18.121655,92.316124
2095000000,-18.126526,91.846367
2096000000,-18.123894,91.886742
2097000000,-18.139221,91.934845
2098000000,-18.160139,91.908913
2099000000,-18.170671,91.944153
2100000000,-18.185068,91.242844
2101000000,-18.160446,91.227287
2102000000,-18.13352,91.037445
2103000000,-18.17979,90.951897
2104000000,-18.158911,91.092796
2105000000,-18.208708,90.983612
2106000000,-18.233534,90.646683
2107000000,-18.203936,90.817421
2108000000,-18.231949,90.319511
2109000000,-18.234085,90.583664
2110000000,-18.28595,90.291847
2111000000,-18.257887,90.144226
2112000000,-18.261135,90.288979
2113000000,-18.290895,90.119385
2114000000,-18.319044,90.078033
2115000000,-18.293596,89.77668
2116000000,-18.287813,89.751564
2117000000,-18.302677,89.714127
2118000000,-18.321445,89.222237
2119000000,-18.326933,89.383965
2120000000,-18.344418,89.271248
2121000000,-18.343933,89.244125
2122000000,-18.397133,88.921829
2123000000,-18.373419,88.826614
2124000000,-18.372852,88.838364
2125000000,-18.366011,88.240936
2126000000,-18.387398,88.429855
2127000000,-18.406008,88.194672
2128000000,-18.411272,88.364799
2129000000,-18.409006,87.976707
2130000000,-18.430426,88.137253
2131000000,-18.41696,87.7882
2132000000,-18.394737,87.478477
2133000000,-18.446741,87.382484
2134000000,-18.432783,87.51474
2135000000,-18.439676,87.427345
2136000000,-18.443695,87.09388
2137000000,-18.465611,86.89386
2138000000,-18.467419,87.137436
2139000000,-18.47896,86.748741
2140000000,-18.45966,86.557648
2141000000,-18.507868,86.540138
2142000000,-18.465084,86.22831
2143000000,-18.474901,86.287926
2144000000,-18.524221,86.221123
2145000000,-18.517527,86.03595
2146000000,-18.522276,86.0355
2147000000,-18.502359,85.684776
2148000000,-18.503674,85.850906
2149000000,-18.540014,85.617668
2150000000,-18.569445,85.4067
2151000000,-18.562391,85.266495
2152000000,-18.566349,85.223717
2153000000,-18.552311,85.345757
2154000000,-18.58868,84.919495
2155000000,-18.611032,85.07563
2156000000,-18.637342,84.86161
2157000000,-18.590454,84.917664
2158000000,-18.60605,84.74382
2159000000,-18.615734,84.540054
2160000000,-18.667942,84.454483
2161000000,-18.695593,84.235199
2162000000,-18.660219,83.803085
2163000000,-18.667412,83.869789
2164000000,-18.688944,83.718399
2165000000,-18.64488,83.825867
2166000000,-18.695097,83.489464
2167000000,-18.737093,83.707642
2168000000,-18.696985,83.377922
2169000000,-18.754377,83.22155
2170000000,-18.767328,83.281258
2171000000,-18.73657,82.987015
2172000000,-18.780941,83.197136
2173000000,-18.73078,82.643593
2174000000,-18.775448,82.424698
2175000000,-18.782,82.731201
2176000000,-18.801596,82.302681
2177000000,-18.808939,82.229248
2178000000,-18.826357,82.163025
2179000000,-18.843245,81.966736
2180000000,-18.863857,81.648262
2181000000,-18.842598,81.699966
2182000000,-18.898891,81.542244
2183000000,-18.904078,81.591095
2184000000,-18.882837,81.408119
2185000000,-18.899851,81.319084
2186000000,-18.849028,81.013199
2187000000,-18.91568,80.97068
2188000000,-18.934538,80.653755
2189000000,-18.912439,80.555267
2190000000,-18.936081,80.541481
2191000000,-18.912388,80.314323
2192000000,-18.938421,80.171112
2193000000,-18.975473,80.027664
2194000000,-18.984741,79.877007
2195000000,-18.961895,79.657906
2196000000,-18.985008,79.806053
2197000000,-18.990671,79.57148
2198000000,-19.007603,79.209961
2199000000,-19.017231,79.44249
2200000000,-19.018404,79.028343
2201000000,-18.984085,79.070854
2202000000,-19.067511,78.804108
2203000000,-19.060108,78.517738
2204000000,-19.03821,78.563087
2205000000,-19.110018,78.418243
2206000000,-19.094093,78.31855
2207000000,-19.088438,78.052238
2208000000,-19.095581,78.164909
2209000000,-19.119957,77.856331
2210000000,-19.130436,77.556427
2211000000,-19.153397,77.652321
2212000000,-19.145561,77.209999
2213000000,-19.151781,77.229233
2214000000,-19.174343,77.016548
2215000000,-19.152842,77.074738
2216000000,-19.174355,76.75528
2217000000,-19.158516,76.863708
2218000000,-19.22843,76.296059
2219000000,-19.193865,76.176254
2220000000,-19.214411,76.257591
2221000000,-19.264362,76.164703
2222000000,-19.243059,75.975822
2223000000,-19.250193,75.700279
2224000000,-19.298828,75.581512
2225000000,-19.246132,75.562576
2226000000,-19.243849,75.330948
2227000000,-19.277636,75.057838
2228000000,-19.294098,75.058907
2229000000,-19.26265,75.174042
2230000000,-19.336061,74.799088
2231000000,-19.297291,74.439896
2232000000,-19.344767,74.358269
2233000000,-19.361832,74.315468
2234000000,-19.349382,74.230988
2235000000,-19.384108,73.916748
2236000000,-19.349224,73.956169
2237000000,-19.369259,73.70739
2238000000,-19.371311,73.502937
2239000000,-19.364828,73.394791
2240000000,-19.428066,73.504066
2241000000,-19.421556,73.458809
2242000000,-19.481001,73.138931
2243000000,-19.472168,73.060791
2244000000,-19.480579,72.771667
2245000000,-19.457682,72.709068
2246000000,-19.479986,72.646347
2247000000,-19.480637,72.462097
2248000000,-19.482618,72.109451
2249000000,-19.460436,72.088112
2250000000,-19.505175,72.064484
2251000000,-19.545584,71.426613
2252000000,-19.52655,71.399994
2253000000,-19.56358,71.561516
2254000000,-19.576881,71.143623
2255000000,-19.540844,71.02774
2256000000,-19.607985,70.977036
2257000000,-19.624464,70.725517
2258000000,-19.613562,70.528618
2259000000,-19.612999,70.516373
2260000000,-19.633615,70.553024
2261000000,-19.612574,70.407356
2262000000,-19.642458,69.850769
2263000000,-19.644104,69.944466
2264000000,-19.71756,69.768661
2265000000,-19.667807,69.319496
2266000000,-19.66839,69.230362
2267000000,-19.724354,69.233559
2268000000,-19.715883,69.135193
2269000000,-19.735195,68.75621
2270000000,-19.73423,68.648613
2271000000,-19.706253,68.348145
2272000000,-19.754574,68.149704
2273000000,-19.806078,68.200455
2274000000,-19.812639,68.00676
2275000000,-19.812948,67.964973
2276000000,-19.85463,67.661743
2277000000,-19.842163,67.379959
2278000000,-19.800396,67.335167
2279000000,-19.872898,66.998573
2280000000,-19.873005,67.063026
2281000000,-19.865234,66.829857
2282000000,-19.908453,66.673218
2283000000,-19.939835,66.455643
2284000000,-19.907122,66.597786
2285000000,-19.920574,66.057838
2286000000,-19.902792,65.404922
2287000000,-19.954391,65.558769
2288000000,-19.930769,65.657845
2289000000,-19.957657,65.345436
2290000000,-19.981802,64.849121
2291000000,-19.983282,64.781067
2292000000,-19.997887,64.779373
2293000000,-20.029778,64.56736
2294000000,-20.02187,64.331909
2295000000,-20.0634,64.010468
2296000000,-20.065943,63.854393
2297000000,-20.057394,63.80183
2298000000,-20.071672,63.553871
2299000000,-20.108477,63.555798
2300000000,-20.068794,63.142471
2301000000,-20.10413,63.013832
2302000000,-20.052227,62.570816
2303000000,-20.180996,62.573189
2304000000,-20.127687,62.273846
2305000000,-20.166872,62.252789
2306000000,-20.145226,62.04509
2307000000,-20.159485,61.989178
2308000000,-20.203043,61.592548
2309000000,-20.209364,61.268723
2310000000,-20.208567,61.13147
2311000000,-20.194029,61.200218
2312000000,-20.249315,60.677166
2313000000,-20.252577,60.560181
2314000000,-20.262014,60.506325
2315000000,-20.209475,60.159447
2316000000,-20.273046,60.20462
2317000000,-20.309584,59.705063
2318000000,-20.295059,59.627544
2319000000,-20.301823,59.74379
2320000000,-20.314257,59.257317
2321000000,-20.315342,58.983105
2322000000,-20.357155,59.04887
2323000000,-20.343662,58.356686
2324000000,-20.293949,58.396259
2325000000,-20.373327,58.424812
2326000000,-20.372545,57.915253
2327000000,-20.373131,57.915081
2328000000,-20.364397,57.476849
2329000000,-20.411753,57.483036
2330000000,-20.420715,57.41037
2331000000,-20.438585,57.168507
2332000000,-20.417379,56.769924
2333000000,-20.391918,56.663609
2334000000,-20.450069,56.652496
2335000000,-20.457243,56.402023
2336000000,-20.466801,56.187626
2337000000,-20.520517,55.902252
2338000000,-20.461666,55.808109
2339000000,-20.466024,55.599918
2340000000,-20.5156,55.305695
2341000000,-20.509777,55.106136
2342000000,-20.51721,55.141624
2343000000,-20.534607,55.024693
2344000000,-20.592068,54.412575
2345000000,-20.534494,54.477116
2346000000,-20.546341,53.964859
2347000000,-20.592691,54.132313
2348000000,-20.609039,53.95594
2349000000,-20.599339,53.594303
2350000000,-20.639023,53.305542
2351000000,-20.690969,53.539051
2352000000,-20.646502,53.038315
2353000000,-20.689264,52.656063
2354000000,-20.661509,52.604889
2355000000,-20.715651,52.330406
2356000000,-20.726587,52.350994
2357000000,-20.72016,51.852081
2358000000,-20.7248,51.799103
2359000000,-20.782673,51.585728
2360000000,-20.762148,51.071522
2361000000,-20.764477,50.992458
2362000000,-20.788582,50.784702
2363000000,-20.821424,50.733265
2364000000,-20.778276,50.474236
2365000000,-20.841196,50.056595
2366000000,-20.85269,49.99263
2367000000,-20.81778,49.730587
2368000000,-20.821936,49.553867
2369000000,-20.863245,49.2435
2370000000,-20.879925,49.300941
2371000000,-20.952543,48.777485
2372000000,-20.956579,48.645741
2373000000,-20.918104,48.346199
2374000000,-20.959593,48.490257
2375000000,-20.937391,47.891468
2376000000,-20.955217,47.617607
2377000000,-20.970074,47.297085
2378000000,-20.94891,47.067444
2379000000,-20.998556,46.804955
2380000000,-21.000597,46.994453
2381000000,-21.022747,46.630325
2382000000,-21.044077,46.069317
2383000000,-21.018461,45.937012
2384000000,-21.048029,45.703743
2385000000,-21.025442,45.498199
2386000000,-21.050505,45.530468
2387000000,-21.078033,45.141159
2388000000,-21.059216,44.862476
2389000000,-21.10885,44.632675
2390000000,-21.137821,44.062328
2391000000,-21.134022,44.072147
2392000000,-21.164726,43.886162
2393000000,-21.166668,43.445541
2394000000,-21.202137,43.658539
2395000000,-21.154055,43.120182
2396000000,-21.156057,42.887989
2397000000,-21.229691,42.953186
2398000000,-21.222565,42.390343
2399000000,-21.230896,42.379181
2400000000,-21.248905,42.023907
2401000000,-21.231596,41.832516
2402000000,-21.223164,41.647003
2403000000,-21.23752,41.393551
2404000000,-21.250275,41.228806
2405000000,-21.288399,40.862041
2406000000,-21.258253,40.372707
2407000000,-21.289255,40.371609
2408000000,-21.302135,40.123028
2409000000,-21.266708,40.217983
2410000000,-21.301928,39.525566
2411000000,-21.301014,39.293053
2412000000,-21.383286,38.863384
2413000000,-21.357845,39.220802
2414000000,-21.344885,38.50359
2415000000,-21.366442,38.399891
2416000000,-21.404081,38.083378
2417000000,-21.394255,37.604378
2418000000,-21.440697,37.435833
2419000000,-21.413588,37.470409
2420000000,-21.486198,37.209953
2421000000,-21.411041,37.039047
2422000000,-21.440182,36.974476
2423000000,-21.446564,36.695759
2424000000,-21.497066,35.671597
2425000000,-21.472385,36.069962
2426000000,-21.555668,35.887032
2427000000,-21.523449,35.620087
2428000000,-21.504965,35.45171
2429000000,-21.482513,35.162842
2430000000,-21.549805,34.834141
2431000000,-21.560167,34.621628
2432000000,-21.539318,34.049957
2433000000,-21.558836,34.22604
2434000000,-21.570063,33.607899
2435000000,-21.589918,33.29026
2436000000,-21.604038,33.152916
2437000000,-21.61949,32.968693
2438000000,-21.584997,32.711906
2439000000,-21.622656,32.40477
2440000000,-21.600588,32.098957
2441000000,-21.683489,31.825752
2442000000,-21.678211,31.447042
2443000000,-21.680235,31.568079
2444000000,-21.70278,30.920656
2445000000,-21.743734,30.543468
2446000000,-21.697937,30.104206
2447000000,-21.725632,30.378483
2448000000,-21.756336,29.704241
2449000000,-21.776762,29.504557
2450000000,-21.767769,29.292482
2451000000,-21.790371,29.056089
2452000000,-21.749657,28.735989
2453000000,-21.807186,28.383224
2454000000,-21.75281,28.201807
2455000000,-21.791702,27.832525
2456000000,-21.849007,27.346111
2457000000,-21.865528,27.152384
2458000000,-21.876802,27.390121
2459000000,-21.899309,27.253315
2460000000,-21.894661,26.715673
2461000000,-21.861027,26.562916
2462000000,-21.897591,26.092293
2463000000,-21.879921,25.943544
2464000000,-21.865202,24.999611
2465000000,-21.932236,25.113497
2466000000,-21.850037,24.962458
2467000000,-21.926626,24.596268
2468000000,-21.934349,24.303125
2469000000,-21.899809,23.813602
2470000000,-21.942478,23.580542
2471000000,-21.918201,23.243816
2472000000,-21.947985,23.029381
2473000000,-21.993855,22.743996
2474000000,-22.004139,22.299013
2475000000,-22.008982,22.050903
2476000000,-21.972284,21.931149
2477000000,-21.999315,21.452353
2478000000,-22.056675,20.777039
2479000000,-22.031641,20.823349
2480000000,-22.06381,20.605656
2481000000,-22.02388,20.310144
2482000000,-22.103407,20.117096
2483000000,-22.040358,19.643499
2484000000,-22.127249,19.298903
2485000000,-22.104019,18.579062
2486000000,-22.117809,18.764069
2487000000,-22.115288,18.08392
2488000000,-22.118071,17.792892
2489000000,-22.13302,17.643612
2490000000,-22.177608,17.230919
2491000000,-22.140034,16.860315
2492000000,-22.173229,16.694092
2493000000,-22.160265,16.483847
2494000000,-22.190409,16.244879
2495000000,-22.13994,15.763143
2496000000,-22.157003,15.462973
2497000000,-22.168854,15.248677
2498000000,-22.164198,14.981027
2499000000,-22.20887,14.512237
2500000000,-22.174446,14.149539
2501000000,-22.196344,13.639995
2502000000,-22.195471,13.827303
2503000000,-22.205061,12.934728
2504000000,-22.281324,12.96811
2505000000,-22.17383,12.322733
2506000000,-22.237661,12.176792
2507000000,-22.261524,11.802819
2508000000,-22.261568,11.73562
2509000000,-22.285183,11.33008
2510000000,-22.215639,10.851617
2511000000,-22.288204,11.000595
2512000000,-22.313072,10.03026
2513000000,-22.313435,9.5668783
2514000000,-22.24704,9.8000641
2515000000,-22.348347,8.9215546
2516000000,-22.309925,8.9067268
2517000000,-22.255863,8.771697
2518000000,-22.35993,7.7887526
2519000000,-22.321556,7.6343861
2520000000,-22.359518,8.023201
2521000000,-22.319016,7.1994915
2522000000,-22.298479,6.3073626
2523000000,-22.35121,6.5847964
2524000000,-22.313725,6.4533863
2525000000,-22.331381,5.8709779
2526000000,-22.365595,5.6192274
2527000000,-22.353737,5.0121293
2528000000,-22.343784,4.5843663
2529000000,-22.385971,4.39781
2530000000,-22.34968,4.2732153
2531000000,-22.351593,3.7792876
2532000000,-22.389061,3.140913
2533000000,-22.370203,3.0307891
2534000000,-22.359777,2.527319
2535000000,-22.303614,2.328908
2536000000,-22.356312,2.0822294
2537000000,-22.325964,1.4422125
2538000000,-22.399734,1.0923361
2539000000,-22.352657,0.6907075
2540000000,-22.345875,0.73426545
2541000000,-22.37693,0.17996302
2542000000,-22.361761,-0.60584569
2543000000,-22.352436,-0.2809
2544000000,-22.381388,-1.4843349
2545000000,-22.363342,-1.5122874
2546000000,-22.32621,-1.6861675
2547000000,-22.341984,-2.3986332
2548000000,-22.323406,-2.2879672
2549000000,-22.374325,-2.9963324
2550000000,-22.364712,-3.1781225
2551000000,-22.370102,-3.2807877
2552000000,-22.313931,-4.0296164
2553000000,-22.380884,-3.9336627
2554000000,-22.383757,-4.3963695
2555000000,-22.318068,-4.8475103
2556000000,-22.365088,-5.2095742
2557000000,-22.362549,-5.5085087
2558000000,-22.35346,-6.0145464
2559000000,-22.333773,-6.124042
2560000000,-22.316359,-6.6852088
2561000000,-22.387451,-7.2622619
2562000000,-22.35803,-7.322238
2563000000,-22.363768,-7.4804258
2564000000,-22.396835,-8.6379356
2565000000,-22.28092,-8.7337561
2566000000,-22.375616,-8.9685402
2567000000,-22.307251,-9.1259146
2568000000,-22.307257,-9.8338261
2569000000,-22.310787,-9.3745975
2570000000,-22.328682,-10.552999
2571000000,-22.308039,-10.490578
2572000000,-22.274519,-11.209634
2573000000,-22.248226,-11.158259
2574000000,-22.300453,-11.834806
2575000000,-22.2488,-12.30687
2576000000,-22.263121,-12.377563
2577000000,-22.23457,-13.365961
2578000000,-22.239843,-13.217348
2579000000,-22.285894,-13.102501
2580000000,-22.218752,-13.906507
2581000000,-22.254089,-14.420594
2582000000,-22.201164,-14.914474
2583000000,-22.219088,-15.385699
2584000000,-22.236925,-14.832314
2585000000,-22.243809,-15.584069
2586000000,-22.190063,-16.054354
2587000000,-22.204542,-16.778423
2588000000,-22.223606,-16.767469
2589000000,-22.13714,-16.896044
2590000000,-22.171122,-17.690479
2591000000,-22.177912,-17.951191
2592000000,-22.214365,-17.960468
2593000000,-22.090921,-18.645893
2594000000,-22.168657,-18.719225
2595000000,-22.117863,-19.166952
2596000000,-22.105864,-19.722912
2597000000,-22.068455,-19.865345
2598000000,-22.116991,-20.376274
2599000000,-22.034079,-20.596251
2600000000,-22.119982,-21.145967
2601000000,-22.121006,-21.421656
2602000000,-22.062321,-21.315222
2603000000,-22.068768,-21.846354
2604000000,-22.073877,-22.723433
2605000000,-22.00675,-22.631151
2606000000,-22.037296,-23.228514
2607000000,-22.024237,-23.411903
2608000000,-22.02931,-24.04764
2609000000,-21.930439,-24.217737
2610000000,-22.006495,-24.664679
2611000000,-21.969986,-25.106731
2612000000,-21.947433,-25.635654
2613000000,-21.938204,-25.722298
2614000000,-21.958467,-25.749847
2615000000,-21.914595,-26.706352
2616000000,-21.935642,-26.979567
2617000000,-21.914234,-27.129044
2618000000,-21.911949,-27.355263
2619000000,-21.879774,-27.930729
2620000000,-21.887463,-27.904146
2621000000,-21.819017,-28.529327
2622000000,-21.870203,-28.546364
2623000000,-21.811954,-29.416204
2624000000,-21.827364,-30.145866
2625000000,-21.806749,-29.944824
2626000000,-21.746105,-30.558256
2627000000,-21.802431,-30.583839
2628000000,-21.782543,-31.108213
2629000000,-21.771412,-31.560137
2630000000,-21.708025,-31.813086
2631000000,-21.793236,-31.876598
2632000000,-21.712259,-32.517036
2633000000,-21.72262,-33.279617
2634000000,-21.646633,-33.355625
2635000000,-21.612675,-33.686619
2636000000,-21.626492,-33.598751
2637000000,-21.647814,-34.135075
2638000000,-21.586494,-34.344585
2639000000,-21.57519,-35.386562
2640000000,-21.628363,-35.939419
2641000000,-21.62097,-35.955372
2642000000,-21.548378,-35.774548
2643000000,-21.544235,-36.369442
2644000000,-21.458357,-37.022511
2645000000,-21.435181,-37.572174
2646000000,-21.544912,-37.883595
2647000000,-21.409328,-37.969044
2648000000,-21.508646,-38.093151
2649000000,-21.398108,-38.705021
2650000000,-21.462955,-38.63715
2651000000,-21.387341,-39.391087
2652000000,-21.344194,-39.518303
2653000000,-21.419458,-39.723938
2654000000,-21.342007,-40.131256
2655000000,-21.287247,-40.502316
2656000000,-21.305256,-40.839226
2657000000,-21.228245,-41.710228
2658000000,-21.227554,-41.794342
2659000000,-21.219534,-42.154793
2660000000,-21.208851,-42.341602
2661000000,-21.225798,-42.834801
2662000000,-21.214182,-43.123699
2663000000,-21.227848,-43.182674
2664000000,-21.108368,-44.252594
2665000000,-21.134985,-43.554642
2666000000,-21.114672,-44.209171
2667000000,-21.221781,-44.826698
2668000000,-21.103781,-44.841305
2669000000,-21.127939,-45.251457
2670000000,-21.061218,-45.31744
2671000000,-21.061304,-46.284134
2672000000,-21.13567,-46.32616
2673000000,-20.971514,-46.771267
2674000000,-21.028299,-46.838234
2675000000,-20.924187,-47.273972
2676000000,-20.972248,-47.554119
2677000000,-20.930983,-47.742699
2678000000,-20.973249,-48.140121
2679000000,-20.89082,-48.560265
2680000000,-20.992439,-49.55629
2681000000,-20.893669,-49.365299
2682000000,-20.94437,-49.930485
2683000000,-20.913641,-50.269741
2684000000,-20.869375,-49.995136
2685000000,-20.768047,-50.439934
2686000000,-20.822824,-50.822369
2687000000,-20.809423,-50.990692
2688000000,-20.702158,-51.579395
2689000000,-20.727758,-51.558918
2690000000,-20.703775,-52.029781
2691000000,-20.689816,-52.881592
2692000000,-20.718676,-52.486855
2693000000,-20.700287,-52.507431
2694000000,-20.635757,-53.134338
2695000000,-20.576618,-53.696049
2696000000,-20.652966,-54.208847
2697000000,-20.557444,-54.475048
2698000000,-20.542023,-54.444687
2699000000,-20.5313,-55.360481
2700000000,-20.545292,-55.414406
2701000000,-20.494926,-55.958981
2702000000,-20.491043,-55.930012
2703000000,-20.40407,-56.191574
2704000000,-20.460224,-56.474747
2705000000,-20.456213,-57.011463
2706000000,-20.430553,-57.596657
2707000000,-20.390276,-57.609013
2708000000,-20.361832,-57.83662
2709000000,-20.340992,-58.272236
2710000000,-20.283348,-58.634121
2711000000,-20.324085,-59.064251
2712000000,-20.276077,-59.325527
2713000000,-20.224928,-59.528992
2714000000,-20.245508,-59.5159
2715000000,-20.270025,-60.191494
2716000000,-20.166756,-60.180969
2717000000,-20.130405,-60.979534
2718000000,-20.15836,-60.694115
2719000000,-20.038334,-62.210068
2720000000,-20.103752,-61.561924
2721000000,-20.085358,-62.245113
2722000000,-20.082979,-62.389381
2723000000,-20.027189,-62.898762
2724000000,-19.981983,-63.312344
2725000000,-20.009922,-63.496334
2726000000,-19.942825,-63.757767
2727000000,-19.914091,-64.248444
2728000000,-19.944954,-64.275063
2729000000,-19.839596,-64.349991
2730000000,-19.821894,-64.890923
2731000000,-19.849821,-65.006821
2732000000,-19.841053,-65.466675
2733000000,-19.831596,-65.912132
2734000000,-19.837111,-66.264282
2735000000,-19.724318,-66.323036
2736000000,-19.647701,-67.227348
2737000000,-19.6714,-67.366119
2738000000,-19.645123,-67.265556
2739000000,-19.659895,-67.803841
2740000000,-19.54208,-68.130249
2741000000,-19.53508,-68.095383
2742000000,-19.582371,-68.721619
2743000000,-19.560755,-69.076942
2744000000,-19.452978,-69.017845
2745000000,-19.472113,-69.967262
2746000000,-19.489965,-69.863632
2747000000,-19.425385,-69.656891
2748000000,-19.449795,-70.456329
2749000000,-19.421349,-70.404953
2750000000,-19.342138,-70.634727
2751000000,-19.318914,-70.950287
2752000000,-19.306063,-71.100937
2753000000,-19.240402,-72.15844
2754000000,-19.240143,-71.731934
2755000000,-19.135475,-72.47493
2756000000,-19.163918,-72.736481
2757000000,-19.037106,-72.702744
2758000000,-19.128382,-72.794098
2759000000,-19.10548,-72.966156
2760000000,-19.093727,-73.609848
2761000000,-19.046381,-73.721703
2762000000,-19.070948,-74.163269
2763000000,-19.058123,-74.662689
2764000000,-19.057585,-74.657318
2765000000,-18.936556,-75.299599
2766000000,-18.958199,-75.153564
2767000000,-18.897741,-75.564941
2768000000,-18.893784,-75.755074
2769000000,-18.850441,-76.069092
2770000000,-18.886877,-76.077988
2771000000,-18.884491,-76.79554
2772000000,-18.847193,-76.978386
2773000000,-18.750294,-77.016426
2774000000,-18.763401,-77.20417
2775000000,-18.749846,-77.453651
2776000000,-18.711996,-78.387611
2777000000,-18.713829,-78.11602
2778000000,-18.616098,-78.604103
2779000000,-18.709295,-77.976349
2780000000,-18.605309,-78.432114
2781000000,-18.571196,-78.960564
2782000000,-18.559612,-79.510796
2783000000,-18.559025,-79.55719
2784000000,-18.507641,-80.018257
2785000000,-18.520193,-79.928902
2786000000,-18.500435,-80.903366
2787000000,-18.488665,-80.687355
2788000000,-18.45141,-81.370575
2789000000,-18.354115,-81.175285
2790000000,-18.360254,-81.760567
2791000000,-18.361868,-82.337303
2792000000,-18.351128,-82.212692
2793000000,-18.332937,-82.445007
2794000000,-18.315477,-82.884598
2795000000,-18.278564,-82.953239
2796000000,-18.303183,-82.696213
2797000000,-18.127342,-83.270714
2798000000,-18.158207,-83.789772
2799000000,-18.172127,-83.989197
2800000000,-18.169157,-84.613228
2801000000,-18.137138,-84.416451
2802000000,-18.164953,-84.664558
2803000000,-18.073511,-84.725899
2804000000,-18.118443,-85.169464
2805000000,-18.065729,-85.220291
2806000000,-18.075043,-85.77301
2807000000,-17.962856,-85.771637
2808000000,-18.042511,-86.214325
2809000000,-17.968197,-86.244598
2810000000,-17.935282,-86.738991
2811000000,-17.881977,-86.179527
2812000000,-17.886213,-86.768349
2813000000,-17.859825,-87.728004
2814000000,-17.835348,-87.637131
2815000000,-17.792862,-87.865143
2816000000,-17.818243,-87.877029
2817000000,-17.771429,-88.812065
2818000000,-17.722359,-88.877731
2819000000,-17.626434,-88.991211
2820000000,-17.692253,-89.219063
2821000000,-17.673372,-89.136162
2822000000,-17.619577,-89.66758
2823000000,-17.614107,-90.235565
2824000000,-17.610626,-90.275185
2825000000,-17.566153,-90.244659
2826000000,-17.528427,-90.756371
2827000000,-17.574797,-90.807793
2828000000,-17.540363,-90.827843
2829000000,-17.47471,-91.443275
2830000000,-17.444466,-91.441841
2831000000,-17.525089,-91.625656
2832000000,-17.472054,-91.779472
2833000000,-17.367374,-92.524292
2834000000,-17.300797,-91.871964
2835000000,-17.357307,-92.950104
2836000000,-17.305662,-93.087952
2837000000,-17.227381,-92.837524
2838000000,-17.24391,-93.277245
2839000000,-17.276882,-93.947952
2840000000,-17.249334,-93.899704
2841000000,-17.122906,-94.622879
2842000000,-17.172159,-94.669212
2843000000,-17.072565,-94.271393
2844000000,-17.130684,-94.530838
2845000000,-17.110147,-94.661804
2846000000,-17.058243,-95.311813
2847000000,-17.132256,-95.867325
2848000000,-17.036469,-96.034393
2849000000,-17.004696,-96.321365
2850000000,-17.068638,-96.080772
2851000000,-16.977365,-96.426025
2852000000,-17.014603,-96.5494
2853000000,-16.925285,-96.740242
2854000000,-16.955822,-97.172798
2855000000,-16.908182,-97.145088
2856000000,-16.87039,-97.320091
2857000000,-16.861626,-97.855469
2858000000,-16.828421,-98.199188
2859000000,-16.902983,-98.532646
2860000000,-16.816626,-98.377968
2861000000,-16.822186,-99.038666
2862000000,-16.747057,-98.990173
2863000000,-16.7563,-99.428612
2864000000,-16.790785,-99.477943
2865000000,-16.686798,-99.910118
2866000000,-16.705526,-99.776169
2867000000,-16.66081,-99.899612
2868000000,-16.704401,-99.772743
2869000000,-16.598583,-100.52682
2870000000,-16.640661,-100.7444
2871000000,-16.634899,-101.05248
2872000000,-16.596626,-101.68783
2873000000,-16.522827,-101.44368
2874000000,-16.555643,-102.00285
2875000000,-16.512367,-102.20444
2876000000,-16.509785,-102.26142
2877000000,-16.499613,-102.11857
2878000000,-16.478214,-102.69012
2879000000,-16.490309,-102.94991
2880000000,-16.408602,-103.06445
2881000000,-16.387911,-103.22379
2882000000,-16.379169,-104.08108
2883000000,-16.289381,-103.70571
2884000000,-16.412067,-103.96601
2885000000,-16.409229,-104.68015
2886000000,-16.315895,-104.54163
2887000000,-16.260181,-104.71003
2888000000,-16.274084,-104.97393
2889000000,-16.265707,-105.3289
2890000000,-16.258688,-105.52122
2891000000,-16.24073,-105.98101
2892000000,-16.2465,-105.97218
2893000000,-16.253689,-106.02455
2894000000,-16.152239,-106.56465
2895000000,-16.089678,-106.65835
2896000000,-16.191517,-106.80672
2897000000,-16.177341,-106.98443
2898000000,-16.120777,-107.68134
2899000000,-16.089615,-107.3917
2900000000,-16.077408,-107.50204
2901000000,-16.038736,-108.2222
2902000000,-15.983517,-108.21304
2903000000,-16.039843,-107.82358
2904000000,-15.972272,-108.46751
2905000000,-15.963203,-108.43374
2906000000,-16.047752,-108.69
2907000000,-16.00326,-108.7635
2908000000,-15.895543,-109.47713
2909000000,-15.854933,-109.7048
2910000000,-15.932404,-110.07786
2911000000,-15.842614,-110.0519
2912000000,-15.832561,-110.08159
2913000000,-15.77996,-110.23296
2914000000,-15.766076,-110.22453
2915000000,-15.793704,-110.91237
2916000000,-15.749207,-110.9453
2917000000,-15.761702,-111.3315
2918000000,-15.656554,-111.39409
2919000000,-15.687926,-111.50046
2920000000,-15.723744,-111.4397
2921000000,-15.600865,-112.11305
2922000000,-15.672323,-111.99163
2923000000,-15.648182,-112.14403
2924000000,-15.637382,-112.61642
2925000000,-15.525176,-112.64178
2926000000,-15.541514,-113.38654
2927000000,-15.548325,-113.50032
2928000000,-15.547297,-113.5754
2929000000,-15.484226,-113.74618
2930000000,-15.492482,-113.96112
2931000000,-15.493886,-114.0531
2932000000,-15.45846,-114.35418
2933000000,-15.464866,-114.53075
2934000000,-15.492444,-115.14408
2935000000,-15.365316,-114.89653
2936000000,-15.388579,-115.17676
2937000000,-15.384439,-115.71725
2938000000,-15.367857,-115.90186
2939000000,-15.37877,-115.93205
2940000000,-15.295799,-116.09987
2941000000,-15.364028,-116.26911
2942000000,-15.317306,-116.28381
2943000000,-15.265905,-116.65294
2944000000,-15.22438,-117.67259
2945000000,-15.22374,-117.44129
2946000000,-15.223681,-117.23849
2947000000,-15.166878,-118.05164
2948000000,-15.211024,-117.86736
2949000000,-15.146434,-118.14021
2950000000,-15.199074,-118.37297
2951000000,-15.138749,-118.20279
2952000000,-15.117374,-118.71262
2953000000,-15.12014,-118.88061
2954000000,-15.118089,-119.53756
2955000000,-15.055346,-119.21236
2956000000,-15.073418,-119.59718
2957000000,-15.040398,-120.18804
2958000000,-14.970553,-119.82252
2959000000,-14.979291,-120.23667
2960000000,-15.008416,-120.43511
2961000000,-14.936336,-121.05609
2962000000,-14.957093,-120.95265
2963000000,-14.925337,-121.17307
2964000000,-14.958264,-121.23638
2965000000,-14.942414,-121.62204
2966000000,-14.931433,-121.77731
2967000000,-14.856964,-122.04235
2968000000,-14.866589,-122.40472
2969000000,-14.858934,-122.4632
2970000000,-14.833228,-122.72921
2971000000,-14.805858,-123.0386
2972000000,-14.82449,-122.96036
2973000000,-14.792613,-123.29298
2974000000,-14.773013,-123.63121
2975000000,-14.769843,-123.76751
2976000000,-14.757062,-123.72076
2977000000,-14.719027,-124.0477
2978000000,-14.687171,-124.29243
2979000000,-14.664926,-124.17174
2980000000,-14.688748,-124.75085
2981000000,-14.612665,-124.60611
2982000000,-14.626421,-125.17472
2983000000,-14.698226,-125.16598
2984000000,-14.641537,-125.51305
2985000000,-14.668456,-125.96637
2986000000,-14.601945,-125.76268
2987000000,-14.529591,-126.14405
2988000000,-14.593543,-126.26409
2989000000,-14.55436,-126.51797
2990000000,-14.455052,-126.4866
2991000000,-14.539474,-126.57291
2992000000,-14.463261,-126.95732
2993000000,-14.484847,-127.17553
2994000000,-14.450731,-127.42371
2995000000,-14.430593,-127.63893
2996000000,-14.426668,-127.94339
2997000000,-14.441184,-128.05836
2998000000,-14.433251,-128.35764
2999000000,-14.418456,-128.41603
3000000000,-14.398775,-128.36278
3001000000,-14.336421,-128.65685
3002000000,-14.372681,-128.87541
3003000000,-14.256269,-129.15378
3004000000,-14.309554,-129.07529
3005000000,-14.245657,-129.57657
3006000000,-14.331812,-129.56348
3007000000,-14.272706,-129.63878
3008000000,-14.276503,-130.24573
3009000000,-14.21913,-130.14343
3010000000,-14.245304,-130.62703
3011000000,-14.21186,-130.76485
3012000000,-14.190063,-130.96437
3013000000,-14.158178,-131.03934
3014000000,-14.172673,-131.11009
3015000000,-14.117169,-131.58672
3016000000,-14.156709,-131.49075
3017000000,-14.130233,-131.99872
3018000000,-14.067833,-132.21405
3019000000,-14.136138,-132.39717
3020000000,-14.049418,-132.41246
3021000000,-14.083073,-132.6528
3022000000,-14.032567,-132.79272
3023000000,-14.091333,-133.39963
3024000000,-14.039117,-133.20262
3025000000,-14.020974,-133.25914
3026000000,-14.013892,-133.76715
3027000000,-13.959061,-133.86511
3028000000,-14.013867,-133.97502
3029000000,-13.968781,-134.10292
3030000000,-13.959791,-134.50694
3031000000,-13.913966,-134.60815
3032000000,-13.920689,-134.97139
3033000000,-13.954243,-135.1239
3034000000,-13.910625,-135.55077
3035000000,-13.863457,-135.20775
3036000000,-13.855906,-135.74142
3037000000,-13.866034,-135.77043
3038000000,-13.841413,-135.88545
3039000000,-13.81975,-136.44658
3040000000,-13.836885,-136.54068
3041000000,-13.825684,-136.50345
3042000000,-13.768845,-136.79451
3043000000,-13.818575,-137.08269
3044000000,-13.775395,-137.29268
3045000000,-13.74414,-137.64468
3046000000,-13.784317,-137.82837
3047000000,-13.728317,-137.70627
3048000000,-13.812818,-138.04152
3049000000,-13.74411,-138.25871
3050000000,-13.745218,-138.48862
3051000000,-13.710092,-138.54805
3052000000,-13.677769,-139.00034
3053000000,-13.670078,-138.92531
3054000000,-13.622799,-139.55452
3055000000,-13.612712,-139.22487
3056000000,-13.636159,-139.64864
3057000000,-13.596556,-140.00412
3058000000,-13.596183,-139.94086
3059000000,-13.601903,-140.07762
3060000000,-13.572696,-140.51089
3061000000,-13.523246,-140.63214
3062000000,-13.53169,-140.90535
3063000000,-13.592166,-140.92966
3064000000,-13.524897,-141.42473
3065000000,-13.538865,-141.53606
3066000000,-13.527606,-142.02051
3067000000,-13.474093,-142.08417
3068000000,-13.489555,-142.27008
3069000000,-13.434157,-142.15489
3070000000,-13.429333,-142.32376
3071000000,-13.483911,-142.38724
3072000000,-13.422383,-143.00226
3073000000,-13.450906,-142.87642
3074000000,-13.399836,-143.33258
3075000000,-13.384317,-143.52939
3076000000,-13.334618,-143.72009
3077000000,-13.374895,-143.74908
3078000000,-13.361261,-144.20982
3079000000,-13.33549,-144.12691
3080000000,-13.279761,-144.57442
3081000000,-13.324479,-144.45862
3082000000,-13.295469,-144.87274
3083000000,-13.268163,-145.11443
3084000000,-13.304678,-145.1722
3085000000,-13.235426,-145.38298
3086000000,-13.278131,-145.48737
3087000000,-13.254461,-145.98695
3088000000,-13.274359,-146.07018
3089000000,-13.233613,-146.25912
3090000000,-13.279202,-146.61115
3091000000,-13.189442,-146.39445
3092000000,-13.207318,-146.47818
3093000000,-13.180051,-146.84474
3094000000,-13.211699,-147.39203
3095000000,-13.142546,-147.267
3096000000,-13.127562,-147.31119
3097000000,-13.148583,-147.36693
3098000000,-13.091228,-147.89221
3099000000,-13.123845,-148.07458
3100000000,-13.13147,-148.2905
3101000000,-13.070254,-148.54703
3102000000,-13.091803,-149.02048
3103000000,-13.109977,-148.77446
3104000000,-13.066732,-149.22719
3105000000,-13.081132,-149.2364
3106000000,-13.073324,-149.2942
3107000000,-13.026729,-149.86221
3108000000,-13.046284,-149.76025
3109000000,-12.996216,-150.20575
3110000000,-12.983424,-149.87941
3111000000,-12.956517,-150.61311
3112000000,-12.951237,-150.69693
3113000000,-12.995102,-150.7887
3114000000,-12.976487,-151.02188
3115000000,-12.95139,-151.13614
3116000000,-12.952947,-151.52919
3117000000,-12.887882,-151.56013
3118000000,-12.945068,-151.6792
3119000000,-12.940664,-152.1619
3120000000,-12.920564,-152.47672
3121000000,-12.884624,-152.47359
3122000000,-12.807462,-152.76915
3123000000,-12.855989,-152.7933
3124000000,-12.862483,-153.01085
3125000000,-12.842012,-153.27113
3126000000,-12.887197,-153.54974
3127000000,-12.811697,-153.52682
3128000000,-12.776688,-153.75607
3129000000,-12.793057,-153.90532
3130000000,-12.80195,-154.41695
3131000000,-12.758181,-154.10004
3132000000,-12.762663,-154.59236
3133000000,-12.827139,-155.03961
3134000000,-12.774725,-154.93706
3135000000,-12.752462,-154.96854
3136000000,-12.734406,-155.4622
3137000000,-12.75106,-155.82796
3138000000,-12.709042,-155.86488
3139000000,-12.675305,-156.02386
3140000000,-12.69115,-156.1689
3141000000,-12.688725,-156.26329
3142000000,-12.710332,-156.7735
3143000000,-12.680815,-156.91133
3144000000,-12.692003,-157.03
3145000000,-12.65222,-157.08209
3146000000,-12.657778,-157.15178
3147000000,-12.639052,-157.49068
3148000000,-12.631739,-157.71613
3149000000,-12.625319,-157.909
3150000000,-12.616256,-158.0565
3151000000,-12.633902,-158.37675
3152000000,-12.570883,-158.51381
3153000000,-12.559783,-158.7662
3154000000,-12.558112,-159.14148
3155000000,-12.608007,-159.13155
3156000000,-12.517578,-159.41953
3157000000,-12.59558,-159.70058
3158000000,-12.524858,-159.74252
3159000000,-12.528327,-159.87886
3160000000,-12.546262,-160.03407
3161000000,-12.506864,-160.49933
3162000000,-12.511199,-160.39639
3163000000,-12.507079,-160.82904
3164000000,-12.466335,-161.27771
3165000000,-12.524961,-161.2451
3166000000,-12.501583,-161.59991
3167000000,-12.495155,-161.4268
3168000000,-12.494713,-161.76563
3169000000,-12.460647,-161.70367
3170000000,-12.447012,-162.15454
3171000000,-12.419504,-162.24796
3172000000,-12.429524,-162.30803
3173000000,-12.43473,-162.57205
3174000000,-12.399385,-162.94731
3175000000,-12.424261,-163.2433
3176000000,-12.390304,-163.27979
3177000000,-12.394039,-163.07404
3178000000,-12.346798,-163.62305
3179000000,-12.357058,-163.73174
3180000000,-12.359074,-163.90454
3181000000,-12.323544,-164.32477
3182000000,-12.345686,-164.37552
3183000000,-12.365431,-164.5463
3184000000,-12.309793,-164.80069
3185000000,-12.344995,-164.96994
3186000000,-12.288648,-165.28392
3187000000,-12.258219,-165.10977
3188000000,-12.335052,-165.39844
3189000000,-12.242664,-165.39565
3190000000,-12.296371,-166.0639
3191000000,-12.270387,-166.20915
3192000000,-12.274528,-166.38206
3193000000,-12.287589,-166.26314
3194000000,-12.259874,-166.77946
3195000000,-12.294643,-166.95596
3196000000,-12.278498,-167.05136
3197000000,-12.18734,-167.30168
3198000000,-12.238415,-167.61739
3199000000,-12.227347,-167.51093
3200000000,-12.206854,-167.79335
3201000000,-12.190486,-168.0219
3202000000,-12.195494,-168.26619
3203000000,-12.16577,-168.50082
3204000000,-12.180196,-168.63136
3205000000,-12.154717,-168.85231
3206000000,-12.218615,-169.43532
3207000000,-12.185112,-169.25917
3208000000,-12.210406,-169.42853
3209000000,-12.197311,-169.76649
3210000000,-12.174799,-170.07722
3211000000,-12.151858,-170.04517
3212000000,-12.15949,-170.30673
3213000000,-12.123761,-170.32841
3214000000,-12.157076,-170.50253
3215000000,-12.121097,-170.87949
3216000000,-12.156033,-171.15762
3217000000,-12.164116,-171.35263
3218000000,-12.114647,-171.30563
3219000000,-12.129667,-171.67296
3220000000,-12.077929,-172.00375
3221000000,-12.119165,-172.07605
3222000000,-12.087429,-172.13353
3223000000,-12.11166,-172.41107
3224000000,-12.091667,-172.50912
3225000000,-12.121884,-172.84839
3226000000,-12.095185,-173.1622
3227000000,-12.068638,-173.34357
3228000000,-12.070015,-173.70572
3229000000,-12.074419,-173.58902
3230000000,-12.088145,-173.65128
3231000000,-12.070732,-174.1765
3232000000,-12.032275,-173.84506
3233000000,-12.092313,-174.84909
3234000000,-12.082061,-174.84494
3235000000,-12.06781,-174.92015
3236000000,-12.041328,-174.81825
3237000000,-12.060307,-175.05508
3238000000,-12.082253,-175.37918
3239000000,-12.07681,-175.52454
3240000000,-12.014394,-176.0782
3241000000,-11.966642,-176.17384
3242000000,-12.009852,-176.25204
3243000000,-12.019676,-176.50529
3244000000,-11.98048,-176.43561
3245000000,-11.978767,-176.786
3246000000,-12.006211,-177.04684
3247000000,-11.959914,-177.3084
3248000000,-12.002113,-177.60851
3249000000,-11.938004,-177.72484
3250000000,-11.966737,-178.05777
3251000000,-12.035705,-178.31279
3252000000,-11.994645,-178.40492
3253000000,-11.977928,-178.47955
3254000000,-12.020678,-178.72522
3255000000,-11.973124,-179.04712
3256000000,-11.985744,-179.25703
3257000000,-11.981202,-179.35394
3258000000,-11.957702,-179.64882
3259000000,-11.922946,-179.66537
3260000000,-12.004858,-180.2314
3261000000,-11.949041,-180.19139
3262000000,-11.939289,-180.38304
3263000000,-11.992613,-180.72833
3264000000,-11.955564,-180.6826
3265000000,-12.002348,-180.88072
3266000000,-11.968915,-181.2618
3267000000,-11.97315,-181.40019
3268000000,-11.922869,-181.51419
3269000000,-11.939981,-181.86653
3270000000,-11.948043,-182.14969
3271000000,-11.933939,-182.18451
3272000000,-11.899208,-182.49269
3273000000,-11.946158,-182.77914
3274000000,-11.930452,-182.87965
3275000000,-11.936778,-183.07544
3276000000,-11.917132,-183.37724
3277000000,-11.918973,-183.73636
3278000000,-11.936572,-183.78368
3279000000,-11.933362,-184.08325
3280000000,-11.877562,-183.99982
3281000000,-11.945237,-184.34641
3282000000,-11.955719,-184.85953
3283000000,-11.94859,-184.99182
3284000000,-11.917934,-184.86928
3285000000,-11.884561,-185.35228
3286000000,-11.946988,-185.34303
3287000000,-11.884231,-185.79871
3288000000,-11.909384,-185.93213
3289000000,-11.923761,-186.20987
3290000000,-11.933335,-186.41325
3291000000,-11.924485,-186.5273
3292000000,-11.936253,-186.38503
3293000000,-11.91466,-186.96581
3294000000,-11.922821,-187.22218
3295000000,-11.919893,-187.35591
3296000000,-11.941914,-187.54915
3297000000,-11.920385,-187.78545
3298000000,-11.932284,-187.9577
3299000000,-11.919055,-187.96233
3300000000,-11.926032,-188.55621
3301000000,-11.934105,-188.70657
3302000000,-11.924032,-188.7832
3303000000,-11.904445,-189.20053
3304000000,-11.905464,-189.18799
3305000000,-11.913508,-189.35104
3306000000,-11.927266,-189.77438
3307000000,-11.930229,-189.95279
3308000000,-11.904378,-189.91512
3309000000,-11.939855,-190.20677
3310000000,-11.949294,-190.40549
3311000000,-11.925598,-190.62828
3312000000,-11.930553,-190.85669
3313000000,-11.979626,-191.27013
3314000000,-11.914897,-191.28682
3315000000,-11.934169,-191.51653
3316000000,-11.911222,-191.77734
3317000000,-11.949752,-191.95297
3318000000,-11.919362,-192.29503
3319000000,-11.955019,-192.35037
3320000000,-11.901467,-192.73351
3321000000,-11.961924,-192.99368
3322000000,-11.912767,-193.00778
3323000000,-11.967397,-193.22406
3324000000,-11.94648,-193.4016
3325000000,-11.909078,-193.72722
3326000000,-11.952105,-193.70486
3327000000,-11.967261,-194.26602
3328000000,-11.946499,-194.4155
3329000000,-11.980179,-194.51212
3330000000,-11.977298,-194.8438
3331000000,-11.964058,-195.08997
3332000000,-11.976019,-195.00052
3333000000,-12.006757,-195.44409
3334000000,-11.973561,-195.68907
3335000000,-12.008299,-195.87454
3336000000,-12.005733,-196.15019
3337000000,-11.968442,-196.44318
3338000000,-11.964752,-196.43474
3339000000,-12.001834,-196.67549
3340000000,-12.00297,-196.96204
3341000000,-12.045942,-197.11911
3342000000,-11.991741,-197.23993
3343000000,-12.013489,-197.55388
3344000000,-12.036617,-197.94666
3345000000,-12.026475,-197.9747
3346000000,-12.019799,-198.24178
3347000000,-12.006783,-198.45885
3348000000,-12.04431,-198.61363
3349000000,-12.06391,-198.80231
3350000000,-12.036515,-198.92685
3351000000,-12.032836,-199.42024
3352000000,-12.046137,-199.80312
3353000000,-12.070507,-199.8848
3354000000,-12.076766,-199.86542
3355000000,-12.06104,-200.03108
3356000000,-12.057611,-200.32945
3357000000,-12.084481,-200.50066
3358000000,-12.065855,-200.85478
3359000000,-12.072712,-200.66129
3360000000,-12.147037,-201.30928
3361000000,-12.098828,-201.52385
3362000000,-12.09781,-201.74966
3363000000,-12.124562,-201.85532
3364000000,-12.070562,-202.05673
3365000000,-12.127876,-202.14696
3366000000,-12.139986,-202.45741
3367000000,-12.109658,-202.81189
3368000000,-12.139849,-202.64561
3369000000,-12.135982,-203.03316
3370000000,-12.186188,-203.18092
3371000000,-12.156933,-203.36342
3372000000,-12.144711,-203.95461
3373000000,-12.136062,-203.884
3374000000,-12.165665,-204.17505
3375000000,-12.205944,-204.42409
3376000000,-12.176166,-204.54616
3377000000,-12.179743,-204.68916
3378000000,-12.154032,-204.80643
3379000000,-12.1873,-205.20882
3380000000,-12.210473,-205.52852
3381000000,-12.251828,-205.61736
3382000000,-12.219094,-205.81392
3383000000,-12.21962,-206.24402
3384000000,-12.234362,-205.99988
3385000000,-12.266049,-206.59273
3386000000,-12.241384,-206.76746
3387000000,-12.282937,-206.99039
3388000000,-12.277177,-207.1223
3389000000,-12.296026,-207.40144
3390000000,-12.296738,-207.58212
3391000000,-12.305955,-207.93881
3392000000,-12.283974,-208.02209
3393000000,-12.314636,-208.21593
3394000000,-12.309811,-208.63148
3395000000,-12.325291,-208.80544
3396000000,-12.340775,-208.96475
3397000000,-12.365032,-209.21713
3398000000,-12.379995,-209.45473
3399000000,-12.395095,-209.74849
3400000000,-12.362196,-209.79863
3401000000,-12.342098,-210.00053
3402000000,-12.393978,-210.17285
3403000000,-12.447154,-210.48982
3404000000,-12.43232,-210.6465
3405000000,-12.44909,-211.01123
3406000000,-12.444839,-211.25372
3407000000,-12.469267,-211.46864
3408000000,-12.453814,-211.64864
3409000000,-12.50975,-211.78615
3410000000,-12.512094,-212.15871
3411000000,-12.538646,-211.94925
3412000000,-12.501456,-212.52078
3413000000,-12.559004,-212.78741
3414000000,-12.5179,-212.79791
3415000000,-12.549362,-213.15712
3416000000,-12.541122,-213.58348
3417000000,-12.570518,-213.58571
3418000000,-12.5926,-213.81024
3419000000,-12.613365,-214.00415
3420000000,-12.645575,-214.30118
3421000000,-12.645612,-214.61929
3422000000,-12.636482,-214.76624
3423000000,-12.681971,-214.95784
3424000000,-12.665285,-215.27994
3425000000,-12.652734,-215.10118
3426000000,-12.685013,-215.56041
3427000000,-12.72858,-215.82208
3428000000,-12.730312,-216.11308
3429000000,-12.746284,-216.29938
3430000000,-12.777449,-216.39198
3431000000,-12.77685,-216.4726
3432000000,-12.756203,-216.87543
3433000000,-12.797288,-217.35466
3434000000,-12.790437,-217.48354
3435000000,-12.846884,-217.57011
3436000000,-12.854496,-217.86115
3437000000,-12.8624,-217.87227
3438000000,-12.896057,-218.16559
3439000000,-12.875579,-218.47551
3440000000,-12.892452,-218.69096
3441000000,-12.896079,-218.79344
3442000000,-12.921101,-219.18091
3443000000,-12.957624,-219.35776
3444000000,-12.972063,-219.65514
3445000000,-12.991014,-219.72383
3446000000,-13.049033,-220.17538
3447000000,-13.009648,-220.43619
3448000000,-13.008497,-220.71823
3449000000,-13.032344,-220.9691
3450000000,-13.036229,-220.96817
3451000000,-13.060498,-221.28249
3452000000,-13.068741,-221.49013
3453000000,-13.121133,-221.64531
3454000000,-13.108112,-221.65138
3455000000,-13.123384,-222.2841
3456000000,-13.129325,-222.24976
3457000000,-13.205197,-222.87732
3458000000,-13.143881,-223.18907
3459000000,-13.212715,-223.18803
3460000000,-13.228833,-223.28418
3461000000,-13.223302,-223.65349
3462000000,-13.282763,-223.53201
3463000000,-13.287807,-224.14568
3464000000,-13.264255,-224.13681
3465000000,-13.274919,-224.55826
3466000000,-13.329267,-224.77386
3467000000,-13.357926,-224.93593
3468000000,-13.310865,-225.00266
3469000000,-13.39406,-225.34489
3470000000,-13.38872,-225.59668
3471000000,-13.391993,-225.77501
3472000000,-13.444032,-225.84517
3473000000,-13.419891,-226.09776
3474000000,-13.441229,-226.36162
3475000000,-13.534554,-226.60335
3476000000,-13.490856,-227.03366
3477000000,-13.539005,-227.19504
3478000000,-13.564747,-227.15425
3479000000,-13.57511,-227.63843
3480000000,-13.608698,-227.93013
3481000000,-13.619234,-228.15086
3482000000,-13.658831,-228.23318
3483000000,-13.652872,-228.43489
3484000000,-13.686752,-228.83116
3485000000,-13.670577,-229.00206
3486000000,-13.711525,-229.1987
3487000000,-13.763256,-229.48114
3488000000,-13.767569,-229.62668
3489000000,-13.804425,-230.0847
3490000000,-13.826687,-230.17784
3491000000,-13.841766,-230.45255
3492000000,-13.885625,-230.56238
3493000000,-13.864992,-230.76704
3494000000,-13.92956,-231.01942
3495000000,-13.940546,-231.1082
3496000000,-13.965645,-231.64758
3497000000,-14.003315,-231.58533
3498000000,-13.995294,-232.05232
3499000000,-14.040075,-231.87396
3500000000,-14.077321,-232.38574
3501000000,-14.092283,-232.63631
3502000000,-14.145388,-232.77466
3503000000,-14.142391,-233.16452
3504000000,-14.170831,-233.44527
3505000000,-14.182275,-233.41948
3506000000,-14.246024,-233.94728
3507000000,-14.275433,-234.27705
3508000000,-14.298656,-234.49654
3509000000,-14.321211,-234.48436
3510000000,-14.355482,-234.7948
3511000000,-14.352365,-234.98865
3512000000,-14.417488,-235.33707
3513000000,-14.428414,-235.28079
3514000000,-14.45968,-235.97922
3515000000,-14.464319,-236.02882
3516000000,-14.511853,-236.15044
3517000000,-14.491776,-236.54562
3518000000,-14.550782,-236.71663
3519000000,-14.606213,-237.03096
3520000000,-14.636547,-237.01295
3521000000,-14.687906,-237.56097
3522000000,-14.717759,-237.82358
3523000000,-14.715927,-237.91994
3524000000,-14.741075,-238.40836
3525000000,-14.808306,-238.38347
3526000000,-14.848363,-238.53149
3527000000,-14.888274,-238.76022
3528000000,-14.864038,-239.41368
3529000000,-14.895794,-239.28809
3530000000,-14.94484,-239.53946
3531000000,-14.95758,-239.97787
3532000000,-15.025249,-240.09534
3533000000,-15.074619,-240.59233
3534000000,-15.058917,-240.69109
3535000000,-15.113173,-240.99771
3536000000,-15.140979,-241.19313
3537000000,-15.217289,-241.16365
3538000000,-15.267571,-241.5045
3539000000,-15.295053,-241.88164
3540000000,-15.333349,-242.28853
3541000000,-15.351672,-242.31627
3542000000,-15.323645,-242.65846
3543000000,-15.383839,-242.86189
3544000000,-15.404343,-243.32637
3545000000,-15.459002,-243.37393
3546000000,-15.477219,-243.64877
3547000000,-15.564814,-243.63181
3548000000,-15.570251,-244.19125
3549000000,-15.599764,-244.23636
3550000000,-15.684662,-244.27533
3551000000,-15.669749,-244.62006
3552000000,-15.702789,-244.80682
3553000000,-15.727928,-245.35719
3554000000,-15.849246,-245.36348
3555000000,-15.860989,-245.86523
3556000000,-15.890912,-245.75671
3557000000,-15.950745,-246.10803
3558000000,-15.963002,-246.6295
3559000000,-16.021582,-246.91225
3560000000,-16.06172,-247.093
3561000000,-16.056774,-247.23717
3562000000,-16.129318,-247.50401
3563000000,-16.192474,-247.77757
3564000000,-16.200226,-247.78755
3565000000,-16.250776,-248.12035
3566000000,-16.271006,-248.45551
3567000000,-16.304651,-248.79579
3568000000,-16.370636,-248.79942
3569000000,-16.387844,-248.93176
3570000000,-16.491482,-249.44417
3571000000,-16.528463,-249.95848
3572000000,-16.583418,-249.8773
3573000000,-16.618759,-250.14436
3574000000,-16.633965,-250.43488
3575000000,-16.693876,-250.67041
3576000000,-16.740128,-250.83589
3577000000,-16.788561,-251.28217
3578000000,-16.843664,-251.50305
3579000000,-16.90802,-251.58948
3580000000,-16.976841,-251.92287
3581000000,-16.973963,-251.86311
3582000000,-17.056425,-252.39915
3583000000,-17.089474,-252.24643
3584000000,-17.145803,-252.79683
3585000000,-17.153046,-253.04706
3586000000,-17.255854,-253.05057
3587000000,-17.304638,-253.80502
3588000000,-17.323322,-253.71405
3589000000,-17.417538,-254.30437
3590000000,-17.49402,-254.62306
3591000000,-17.5054,-254.41196
3592000000,-17.54303,-254.78748
3593000000,-17.676384,-254.88048
3594000000,-17.734779,-255.34322
3595000000,-17.752275,-255.75693
3596000000,-17.83939,-255.9644
3597000000,-17.870386,-256.17789
3598000000,-17.936758,-256.26654
3599000000,-17.998138,-256.95676
3600000000,-18.112177,-256.97043
3601000000,-18.120085,-257.18069
3602000000,-18.209234,-257.36948
3603000000,-18.283173,-257.55441
3604000000,-18.372276,-257.84717
3605000000,-18.395994,-258.32602
3606000000,-18.46188,-258.45801
3607000000,-18.565195,-258.81897
3608000000,-18.555281,-258.95566
3609000000,-18.697392,-259.11734
3610000000,-18.721586,-259.53107
3611000000,-18.786493,-259.74274
3612000000,-18.830151,-260.06061
3613000000,-18.980879,-260.3725
3614000000,-18.98506,-260.58148
3615000000,-19.09284,-260.47235
3616000000,-19.140305,-261.04391
3617000000,-19.216482,-261.2709
3618000000,-19.324497,-261.68097
3619000000,-19.364145,-262.12476
3620000000,-19.500317,-262.22873
3621000000,-19.508307,-262.28702
3622000000,-19.628645,-262.43332
3623000000,-19.679237,-263.18384
3624000000,-19.732122,-262.78723
3625000000,-19.874166,-263.63358
3626000000,-19.864321,-263.84369
3627000000,-20.019781,-264.27042
3628000000,-20.053005,-264.40936
3629000000,-20.137926,-264.99411
3630000000,-20.279985,-264.83023
3631000000,-20.282724,-265.67514
3632000000,-20.380886,-265.88599
3633000000,-20.463894,-266.19849
3634000000,-20.613707,-266.56824
3635000000,-20.662195,-266.49609
3636000000,-20.839895,-267.14667
3637000000,-20.875057,-267.22644
3638000000,-20.976252,-267.69742
3639000000,-20.994289,-267.59836
3640000000,-21.132011,-267.91681
3641000000,-21.149492,-268.64215
3642000000,-21.320072,-268.40314
3643000000,-21.419344,-268.85034
3644000000,-21.467075,-269.1618
3645000000,-21.612188,-269.39911
3646000000,-21.685999,-270.25192
3647000000,-21.792292,-270.16812
3648000000,-21.839029,-270.69669
3649000000,-21.940104,-271.12302
3650000000,-22.173258,-271.56876
3651000000,-22.169903,-271.65604
3652000000,-22.355116,-271.63205
3653000000,-22.36525,-272.30612
3654000000,-22.488976,-272.96466
3655000000,-22.637123,-273.52927
3656000000,-22.718426,-273.33481
3657000000,-22.855082,-273.37238
3658000000,-23.04948,-274.89334
3659000000,-23.130083,-273.82538
3660000000,-23.202587,-275.02661
3661000000,-23.293245,-274.62042
3662000000,-23.448006,-276.15649
3663000000,-23.543425,-276.0939
3664000000,-23.64077,-275.81024
3665000000,-23.835207,-275.98648
3666000000,-24.018072,-276.79681
3667000000,-24.193228,-277.47968
3668000000,-24.197159,-278.21823
3669000000,-24.335318,-278.79749
3670000000,-24.471155,-278.4632
3671000000,-24.699034,-279.31729
3672000000,-24.699087,-279.18002
3673000000,-24.934181,-279.85938
3674000000,-25.054016,-280.8515
3675000000,-25.183828,-280.74731
3676000000,-25.262123,-281.29404
3677000000,-25.665598,-281.67242
3678000000,-25.688023,-282.73209
3679000000,-25.775345,-282.23895
3680000000,-26.009474,-283.12524
3681000000,-26.269255,-283.75546
3682000000,-26.341751,-283.20242
3683000000,-26.604515,-284.55157
3684000000,-26.715654,-284.90271
3685000000,-26.736349,-284.28192
3686000000,-27.138838,-286.43198
3687000000,-27.189064,-286.4538
3688000000,-27.523804,-287.15967
3689000000,-27.5348,-288.04166
3690000000,-27.627766,-287.9866
3691000000,-27.929825,-289.22116
3692000000,-28.213137,-289.9649
3693000000,-28.640575,-288.92261
3694000000,-28.730452,-289.62918
3695000000,-28.77899,-292.04626
3696000000,-29.018377,-291.47348
3697000000,-29.22048,-293.25626
3698000000,-29.67062,-292.90176
3699000000,-29.890539,-294.0473
3700000000,-30.001858,-295.33234
3701000000,-30.404821,-293.88736
3702000000,-30.513838,-296.2648
3703000000,-31.310696,-295.47516
3704000000,-31.518887,-298.53323
3705000000,-31.555408,-298.81812
3706000000,-31.9977,-299.14621
3707000000,-32.129803,-301.29581
3708000000,-32.54549,-301.39337
3709000000,-32.847088,-303.2298
3710000000,-32.97665,-304.30179
3711000000,-33.212101,-306.642
3712000000,-34.135139,-307.44974
3713000000,-34.386936,-309.84073
3714000000,-34.374199,-311.46469
3715000000,-34.998196,-315.97736
3716000000,-35.534771,-315.88879
3717000000,-36.122021,-319.59387
3718000000,-36.059631,-322.60587
3719000000,-36.990265,-324.76559
3720000000,-37.124626,-327.85828
3721000000,-37.604431,-332.54117
3722000000,-37.904396,-333.71243
3723000000,-38.516052,-336.96759
3724000000,-38.688854,-343.94254
3725000000,-39.44714,-350.14163
3726000000,-39.762539,-352.27368
3727000000,-39.214031,-359.14063
3728000000,-39.125736,-367.68381
3729000000,-39.261692,-373.14899
3730000000,-39.40287,-374.8667
3731000000,-38.895893,-382.1312
3732000000,-39.712936,-384.45023
3733000000,-39.427498,-393.9079
3734000000,-39.040813,-395.42542
3735000000,-38.939648,-403.00256
3736000000,-38.178913,-405.87787
3737000000,-38.102135,-409.86292
3738000000,-37.581039,-415.89349
3739000000,-36.985924,-415.74493
3740000000,-36.387047,-421.31937
3741000000,-36.068508,-421.72244
3742000000,-35.687935,-424.76965
3743000000,-35.306271,-424.00101
3744000000,-34.979813,-431.58374
3745000000,-34.550594,-428.72885
3746000000,-34.391968,-434.5697
3747000000,-33.657635,-434.54761
3748000000,-33.384197,-437.68713
3749000000,-32.916668,-438.08344
3750000000,-32.435207,-438.60181
3751000000,-32.512573,-440.40399
3752000000,-31.845827,-441.43149
3753000000,-31.587154,-443.63086
3754000000,-31.592808,-443.51245
3755000000,-31.378618,-444.77048
3756000000,-30.773415,-446.33856
3757000000,-30.581823,-447.68619
3758000000,-30.531578,-448.15793
3759000000,-30.213263,-448.4614
3760000000,-29.748022,-450.2211
3761000000,-29.689409,-451.10333
3762000000,-29.271933,-452.56976
3763000000,-29.019369,-451.77417
3764000000,-28.896585,-453.36838
3765000000,-28.65976,-453.30289
3766000000,-28.42812,-454.24326
3767000000,-28.223408,-455.79486
3768000000,-28.022367,-454.85059
3769000000,-27.761278,-454.89151
3770000000,-27.572872,-457.32123
3771000000,-27.436785,-457.29105
3772000000,-27.057978,-457.50909
3773000000,-26.809582,-458.487
3774000000,-26.786257,-458.22122
3775000000,-26.65057,-459.11063
3776000000,-26.268415,-459.63339
3777000000,-26.313185,-459.97348
3778000000,-25.984501,-460.28229
3779000000,-25.859827,-460.6373
3780000000,-25.6852,-461.20477
3781000000,-25.51618,-462.63385
3782000000,-25.568827,-462.24207
3783000000,-25.218035,-463.22968
3784000000,-25.073942,-462.45212
3785000000,-24.842304,-463.58182
3786000000,-24.816364,-463.87848
3787000000,-24.764584,-464.21533
3788000000,-24.388256,-464.34113
3789000000,-24.286074,-465.38364
3790000000,-24.298576,-465.85556
3791000000,-24.202469,-465.39133
3792000000,-23.956259,-465.88519
3793000000,-23.780674,-466.29004
3794000000,-23.632084,-467.00058
3795000000,-23.594711,-467.12381
3796000000,-23.383392,-468.35306
3797000000,-23.368975,-467.45721
3798000000,-23.216053,-468.29153
3799000000,-23.04023,-468.24112
3800000000,-23.003206,-468.63666
3801000000,-22.855244,-468.61151
3802000000,-22.743877,-468.86392
3803000000,-22.568356,-469.70688
3804000000,-22.42675,-470.19345
3805000000,-22.255222,-471.20209
3806000000,-22.194555,-470.55551
3807000000,-22.198154,-470.46622
3808000000,-21.977747,-470.95581
3809000000,-21.819389,-471.47119
3810000000,-21.729788,-471.48358
3811000000,-21.57724,-471.85782
3812000000,-21.590614,-472.17471
3813000000,-21.54656,-472.6915
3814000000,-21.369556,-472.57108
3815000000,-21.238886,-473.27664
3816000000,-21.178316,-473.39407
3817000000,-21.01475,-473.2641
3818000000,-20.956999,-473.86343
3819000000,-20.925871,-474.32846
3820000000,-20.803488,-473.84177
3821000000,-20.636341,-474.08371
3822000000,-20.606339,-474.40063
3823000000,-20.503593,-475.405
3824000000,-20.37606,-475.61011
3825000000,-20.328882,-475.20114
3826000000,-20.189602,-475.48816
3827000000,-20.109756,-475.62177
3828000000,-20.056149,-476.12982
3829000000,-19.99077,-476.04434
3830000000,-19.913452,-476.4953
3831000000,-19.831347,-476.72366
3832000000,-19.73488,-476.60403
3833000000,-19.649391,-476.81497
3834000000,-19.596708,-476.99359
3835000000,-19.443052,-477.22543
3836000000,-19.382874,-477.78775
3837000000,-19.342163,-478.58563
3838000000,-19.279453,-478.85495
3839000000,-19.160639,-478.88467
3840000000,-19.124336,-478.70004
3841000000,-19.02124,-479.46793
3842000000,-18.970394,-479.69873
3843000000,-18.880699,-479.52841
3844000000,-18.86414,-480.23138
3845000000,-18.779579,-479.91974
3846000000,-18.643137,-480.61276
3847000000,-18.588734,-480.1282
3848000000,-18.498043,-480.88159
3849000000,-18.460682,-481.27591
3850000000,-18.458874,-481.36725
3851000000,-18.360065,-481.27322
3852000000,-18.232378,-481.37662
3853000000,-18.199238,-482.14951
3854000000,-18.100464,-482.36212
3855000000,-18.164009,-482.63953
3856000000,-18.024309,-482.57703
3857000000,-17.967342,-482.46249
3858000000,-17.885853,-483.30447
3859000000,-17.862755,-482.56439
3860000000,-17.787052,-483.54138
3861000000,-17.658936,-483.3526
3862000000,-17.619507,-483.85168
3863000000,-17.522997,-484.08722
3864000000,-17.497551,-484.42599
3865000000,-17.436501,-484.63483
3866000000,-17.331728,-484.21622
3867000000,-17.335205,-484.74966
3868000000,-17.268074,-485.0907
3869000000,-17.109163,-485.27228
3870000000,-17.123886,-485.52582
3871000000,-17.035196,-485.91589
3872000000,-17.028879,-485.79492
3873000000,-16.965601,-486.12595
3874000000,-16.923292,-486.31009
3875000000,-16.815737,-486.52383
3876000000,-16.747459,-486.68857
3877000000,-16.747307,-486.8277
3878000000,-16.666203,-486.96707
3879000000,-16.603924,-487.3576
3880000000,-16.549088,-487.53143
3881000000,-16.460855,-487.92136
3882000000,-16.478037,-488.02429
3883000000,-16.405264,-488.31296
3884000000,-16.293819,-488.09351
3885000000,-16.27466,-488.67764
3886000000,-16.294407,-488.62241
3887000000,-16.230907,-488.91675
3888000000,-16.132677,-488.85785
3889000000,-16.094069,-489.14615
3890000000,-16.098379,-489.10727
3891000000,-16.035011,-489.77707
3892000000,-16.004845,-490.02066
3893000000,-15.877835,-490.03723
3894000000,-15.888111,-490.35349
3895000000,-15.800158,-490.34979
3896000000,-15.799508,-490.45633
3897000000,-15.73397,-490.94598
3898000000,-15.712931,-490.65381
3899000000,-15.641537,-491.07953
3900000000,-15.620792,-491.5578
3901000000,-15.544059,-491.56625
3902000000,-15.562101,-491.97229
3903000000,-15.444231,-491.91428
3904000000,-15.414267,-492.34445
3905000000,-15.388624,-492.08487
3906000000,-15.31953,-492.4425
3907000000,-15.278364,-492.71454
3908000000,-15.253823,-493.03717
3909000000,-15.192383,-493.01624
3910000000,-15.183485,-493.62363
3911000000,-15.113678,-493.55801
3912000000,-14.991932,-493.5527
3913000000,-15.009409,-494.04361
3914000000,-14.969983,-494.05447
3915000000,-14.910257,-494.00546
3916000000,-14.871003,-494.48947
3917000000,-14.828455,-494.45236
3918000000,-14.809904,-494.69547
3919000000,-14.783734,-494.99503
3920000000,-14.757767,-495.60901
3921000000,-14.671271,-495.27396
3922000000,-14.6467,-495.60562
3923000000,-14.62994,-495.40143
3924000000,-14.554525,-495.89523
3925000000,-14.571027,-496.16031
3926000000,-14.474762,-496.271
3927000000,-14.423259,-496.62613
3928000000,-14.434774,-496.55231
3929000000,-14.388366,-496.55472
3930000000,-14.321507,-496.79211
3931000000,-14.356617,-497.02472
3932000000,-14.252097,-497.16138
3933000000,-14.235059,-497.24799
3934000000,-14.133507,-497.72238
3935000000,-14.179412,-497.5813
3936000000,-14.118095,-497.9397
3937000000,-14.098444,-497.88681
3938000000,-14.07105,-498.41562
3939000000,-14.037098,-498.4584
3940000000,-13.993526,-498.60611
3941000000,-13.929123,-498.82925
3942000000,-13.934276,-499.03586
3943000000,-13.898102,-499.50656
3944000000,-13.863701,-499.57245
3945000000,-13.838048,-499.51862
3946000000,-13.786323,-499.78302
3947000000,-13.72933,-499.66714
3948000000,-13.70614,-500.09781
3949000000,-13.665629,-500.16159
3950000000,-13.617585,-500.33978
3951000000,-13.596214,-500.79993
3952000000,-13.618559,-501.00778
3953000000,-13.53995,-500.88724
3954000000,-13.50818,-501.28064
3955000000,-13.480146,-501.19644
3956000000,-13.461555,-501.34616
3957000000,-13.434498,-501.82828
3958000000,-13.359007,-502.15088
3959000000,-13.357744,-501.99442
3960000000,-13.333655,-502.35446
3961000000,-13.30731,-502.54474
3962000000,-13.30407,-502.758
3963000000,-13.28611,-502.73077
3964000000,-13.166275,-503.02957
3965000000,-13.135635,-502.98349
3966000000,-13.123299,-503.1954
3967000000,-13.102442,-503.60483
3968000000,-13.079123,-503.8623
3969000000,-13.074103,-503.91852
3970000000,-13.068834,-504.07162
3971000000,-12.98632,-504.14703
3972000000,-12.970257,-504.4823
3973000000,-12.909376,-504.38205
3974000000,-12.881511,-504.45712
3975000000,-12.888876,-504.91055
3976000000,-12.841114,-505.32462
3977000000,-12.805311,-505.13785
3978000000,-12.758321,-505.3414
3979000000,-12.796783,-505.57324
3980000000,-12.743587,-505.88513
3981000000,-12.657886,-506.07758
3982000000,-12.687368,-506.10999
3983000000,-12.662223,-506.16592
3984000000,-12.603641,-506.42368
3985000000,-12.605627,-506.71484
3986000000,-12.562555,-506.70551
3987000000,-12.522498,-506.79453
3988000000,-12.504755,-507.31116
3989000000,-12.445188,-507.18036
3990000000,-12.451554,-507.2764
3991000000,-12.423503,-507.7373
3992000000,-12.389636,-507.77267
3993000000,-12.360695,-508.0975
3994000000,-12.356843,-507.85614
3995000000,-12.343523,-508.22104
3996000000,-12.273884,-508.23843
3997000000,-12.259584,-508.72107
3998000000,-12.242174,-508.84085
3999000000,-12.187387,-509.01538
4000000000,-12.181608,-509.14548
4001000000,-12.138033,-509.33093
4002000000,-12.102547,-509.65131
4003000000,-12.121726,-509.65576
4004000000,-12.104517,-509.87216
4005000000,-12.056244,-510.07767
4006000000,-12.012371,-510.15738
4007000000,-11.990967,-510.19168
4008000000,-11.990263,-510.55249
4009000000,-11.960789,-510.66135
4010000000,-11.957143,-510.95929
4011000000,-11.881872,-510.95602
4012000000,-11.875974,-510.89301
4013000000,-11.840383,-511.3501
4014000000,-11.807551,-511.32944
4015000000,-11.785358,-511.67126
4016000000,-11.7965,-511.82407
4017000000,-11.715003,-512.07434
4018000000,-11.754612,-511.98923
4019000000,-11.702417,-512.31641
4020000000,-11.685821,-512.50684
4021000000,-11.673358,-512.51733
4022000000,-11.639059,-512.70935
4023000000,-11.604893,-512.96326
4024000000,-11.590749,-512.87787
4025000000,-11.588593,-513.36102
4026000000,-11.566556,-513.41492
4027000000,-11.552593,-513.29327
4028000000,-11.488208,-513.58856
4029000000,-11.494658,-513.87238
4030000000,-11.447561,-514.01428
4031000000,-11.389485,-514.03894
4032000000,-11.401499,-514.36865
4033000000,-11.351496,-514.58923
4034000000,-11.318599,-514.73584
4035000000,-11.323675,-514.72125
4036000000,-11.269012,-514.86829
4037000000,-11.253469,-515.10919
4038000000,-11.23472,-515.27905
4039000000,-11.253355,-515.20972
4040000000,-11.180866,-515.50256
4041000000,-11.186368,-515.5022
4042000000,-11.14967,-515.86066
4043000000,-11.132827,-515.88678
4044000000,-11.105286,-515.96588
4045000000,-11.086662,-516.29968
4046000000,-11.076391,-516.48383
4047000000,-11.016691,-516.2403
4048000000,-11.002605,-516.72205
4049000000,-11.009499,-516.68701
4050000000,-10.996984,-516.91296
4051000000,-10.921682,-517.17755
4052000000,-10.893238,-517.3222
4053000000,-10.923929,-517.41754
4054000000,-10.896961,-517.56006
4055000000,-10.902321,-517.67896
4056000000,-10.848568,-517.91541
4057000000,-10.838504,-517.93506
4058000000,-10.779251,-518.16827
4059000000,-10.799899,-518.31458
4060000000,-10.76524,-518.51758
4061000000,-10.735113,-518.48322
4062000000,-10.72889,-518.62067
4063000000,-10.713827,-518.8819
4064000000,-10.712022,-518.95496
4065000000,-10.632799,-519.13928
4066000000,-10.660722,-519.26709
4067000000,-10.634402,-519.59961
4068000000,-10.615366,-519.57477
4069000000,-10.572829,-519.96045
4070000000,-10.572326,-519.83142
4071000000,-10.555431,-520.09949
4072000000,-10.493378,-520.24847
4073000000,-10.541711,-520.31519
4074000000,-10.472691,-520.51764
4075000000,-10.473248,-520.50983
4076000000,-10.445951,-520.71967
4077000000,-10.430555,-520.87793
4078000000,-10.419532,-521.19513
4079000000,-10.403667,-521.38348
4080000000,-10.382412,-521.39087
4081000000,-10.375106,-521.51819
4082000000,-10.352283,-521.83881
4083000000,-10.287539,-522.23877
4084000000,-10.263186,-521.84283
4085000000,-10.263613,-522.19244
4086000000,-10.244905,-522.28345
4087000000,-10.269137,-522.36523
4088000000,-10.212231,-522.28906
4089000000,-10.208423,-522.87286
4090000000,-10.181623,-522.74457
4091000000,-10.183674,-523.00549
4092000000,-10.156579,-523.17273
4093000000,-10.117434,-523.40747
4094000000,-10.117947,-523.53192
4095000000,-10.09847,-523.69037
4096000000,-10.08624,-523.78796
4097000000,-10.052747,-523.7655
4098000000,-10.030354,-524.18335
4099000000,-10.034943,-524.26251
4100000000,-10.012282,-524.36218
4101000000,-9.9785051,-524.28931
4102000000,-9.9441528,-524.6861
4103000000,-9.9752417,-524.56958
4104000000,-9.9281454,-525.06708
4105000000,-9.9033022,-525.04053
4106000000,-9.8984308,-525.03375
4107000000,-9.9018774,-525.38812
4108000000,-9.9073019,-525.55719
4109000000,-9.8401794,-525.56183
4110000000,-9.8462505,-525.83978
4111000000,-9.8448324,-525.78448
4112000000,-9.8128242,-526.08002
4113000000,-9.7902708,-526.15875
4114000000,-9.795639,-526.42786
4115000000,-9.7631121,-526.45868
4116000000,-9.7514124,-526.68567
4117000000,-9.7380943,-526.7478
4118000000,-9.7272768,-526.99335
4119000000,-9.6917744,-526.98572
4120000000,-9.695735,-527.05292
4121000000,-9.6801491,-527.14099
4122000000,-9.6375875,-527.31964
4123000000,-9.6347609,-527.55737
4124000000,-9.5924177,-527.65985
4125000000,-9.6030865,-527.88721
4126000000,-9.5923853,-528.09595
4127000000,-9.5634375,-528.22217
4128000000,-9.5447741,-528.14288
4129000000,-9.5364294,-528.54364
4130000000,-9.5250406,-528.6571
4131000000,-9.4940929,-528.71667
4132000000,-9.4961386,-528.8252
4133000000,-9.4848166,-528.88245
4134000000,-9.4570885,-529.13141
4135000000,-9.4358454,-529.30817
4136000000,-9.4304724,-529.32758
4137000000,-9.4162788,-529.44623
4138000000,-9.4147577,-529.71472
4139000000,-9.3897772,-529.90173
4140000000,-9.40306,-530.0954
4141000000,-9.3668728,-530.10004
4142000000,-9.3463678,-530.23761
4143000000,-9.3470182,-530.22241
4144000000,-9.3186378,-530.63409
4145000000,-9.286624,-530.68323
4146000000,-9.2905989,-530.92413
4147000000,-9.25916,-530.97766
4148000000,-9.2760191,-530.93408
4149000000,-9.2564478,-531.12292
4150000000,-9.2452784,-531.28094
4151000000,-9.2074871,-531.69531
4152000000,-9.2252207,-531.53314
4153000000,-9.216754,-531.74048
4154000000,-9.195919,-531.94598
4155000000,-9.1665907,-531.9646
4156000000,-9.1771317,-532.02991
4157000000,-9.1409588,-532.22021
4158000000,-9.0980816,-532.50153
4159000000,-9.1048517,-532.77826
4160000000,-9.1153421,-532.85101
4161000000,-9.0914841,-532.95648
4162000000,-9.0669146,-532.89063
4163000000,-9.062726,-533.09619
4164000000,-9.0379515,-533.19226
4165000000,-9.0417757,-533.31641
4166000000,-9.007082,-533.45819
4167000000,-8.9989233,-533.64819
4168000000,-9.0094252,-533.68469
4169000000,-8.9583988,-533.88324
4170000000,-8.9739037,-534.09424
4171000000,-8.9621086,-534.19781
4172000000,-8.9096117,-534.36414
4173000000,-8.9159765,-534.47784
4174000000,-8.9079685,-534.60498
4175000000,-8.9049406,-534.81866
4176000000,-8.8773174,-534.79633
4177000000,-8.8605452,-534.97424
4178000000,-8.838172,-535.04333
4179000000,-8.8124905,-535.36639
4180000000,-8.8348417,-535.32654
4181000000,-8.8352776,-535.70074
4182000000,-8.8056631,-535.52234
4183000000,-8.8128157,-535.63281
4184000000,-8.8083181,-536.0011
4185000000,-8.7573633,-535.98022
4186000000,-8.7544546,-536.22314
4187000000,-8.724659,-536.48151
4188000000,-8.7357712,-536.55475
4189000000,-8.7445898,-536.66913
4190000000,-8.6877184,-536.71033
4191000000,-8.7115545,-536.96613
4192000000,-8.7017527,-537.16077
4193000000,-8.6556845,-537.133
4194000000,-8.6686268,-537.34998
4195000000,-8.6560478,-537.38495
4196000000,-8.6562624,-537.55811
4197000000,-8.6346788,-537.7489
4198000000,-8.6367292,-537.8916
4199000000,-8.6234884,-537.96851
4200000000,-8.5995722,-538.23621
4201000000,-8.5990009,-538.23254
4202000000,-8.5573425,-538.13281
4203000000,-8.5736637,-538.70605
4204000000,-8.5282984,-538.7605
4205000000,-8.5294008,-538.6922
4206000000,-8.5151281,-538.9162
4207000000,-8.5101881,-539.08826
4208000000,-8.4915552,-539.35651
4209000000,-8.4788427,-539.22253
4210000000,-8.4614964,-539.42383
4211000000,-8.4536209,-539.40851
4212000000,-8.4414482,-539.55127
4213000000,-8.4544172,-539.76831
4214000000,-8.4136047,-539.97314
4215000000,-8.3878632,-540.12225
4216000000,-8.4267912,-540.16656
4217000000,-8.357686,-540.46979
4218000000,-8.3828106,-540.30164
4219000000,-8.3650589,-540.72327
4220000000,-8.3688793,-540.83826
4221000000,-8.3383656,-540.85724
4222000000,-8.3364334,-540.91901
4223000000,-8.3171978,-541.09534
4224000000,-8.3182259,-541.52332
4225000000,-8.3140907,-541.48077
4226000000,-8.2891407,-541.45135
4227000000,-8.2949057,-541.72986
4228000000,-8.2867212,-541.78021
4229000000,-8.2633295,-541.88409
4230000000,-8.2371273,-542.0733
4231000000,-8.2648516,-542.28687
4232000000,-8.2248821,-542.35089
4233000000,-8.2438784,-542.41833
4234000000,-8.2384109,-542.60687
4235000000,-8.2055836,-542.51361
4236000000,-8.2339525,-542.9455
4237000000,-8.2114277,-542.86877
4238000000,-8.2065916,-542.95233
4239000000,-8.1695795,-543.36603
4240000000,-8.1499481,-543.26758
4241000000,-8.1556921,-543.5213
4242000000,-8.1373892,-543.28534
4243000000,-8.1334,-543.77222
4244000000,-8.1339445,-544
4245000000,-8.1017456,-544.04431
4246000000,-8.0922174,-544.09662
4247000000,-8.0644121,-544.10315
4248000000,-8.0635967,-544.39795
4249000000,-8.089838,-544.34314
4250000000,-8.0620518,-544.349
4251000000,-8.0616264,-544.61749
4252000000,-8.0790033,-544.81049
4253000000,-8.0315886,-544.93109
4254000000,-8.0432453,-544.93903
4255000000,-7.9981661,-544.94904
4256000000,-7.9720535,-545.41632
4257000000,-7.9886613,-545.42706
4258000000,-7.9991145,-545.6615
4259000000,-7.9606738,-545.60193
4260000000,-7.9573169,-545.71625
4261000000,-7.9334955,-545.8277
4262000000,-7.926827,-545.99121
4263000000,-7.9224401,-546.08844
4264000000,-7.946661,-546.45233
4265000000,-7.9208565,-546.1701
4266000000,-7.9024577,-546.46112
4267000000,-7.9099422,-546.47241
4268000000,-7.9054947,-546.70282
4269000000,-7.8562293,-546.91168
4270000000,-7.8227811,-546.88708
4271000000,-7.8391857,-547.03302
4272000000,-7.835113,-547.25366
4273000000,-7.8198881,-547.47009
4274000000,-7.8467655,-547.58344
4275000000,-7.7899852,-547.42145
4276000000,-7.7974081,-547.62836
4277000000,-7.7978692,-547.63477
4278000000,-7.8099232,-547.98944
4279000000,-7.7895551,-548.13092
4280000000,-7.7886281,-548.17419
4281000000,-7.7708635,-548.50549
4282000000,-7.7697411,-548.64252
4283000000,-7.760283,-548.48804
4284000000,-7.7355971,-548.57629
4285000000,-7.7293367,-548.76654
4286000000,-7.7250767,-548.92517
4287000000,-7.7228127,-548.79187
4288000000,-7.7009215,-549.06433
4289000000,-7.7046437,-549.04669
4290000000,-7.6763268,-549.33148
4291000000,-7.6932282,-549.49725
4292000000,-7.6719241,-549.74432
4293000000,-7.6635351,-549.60858
4294000000,-7.6595125,-549.88184
4295000000,-7.6636043,-550.08441
4296000000,-7.6492586,-550.09344
4297000000,-7.6183534,-550.1217
4298000000,-7.6384296,-550.29437
4299000000,-7.6257901,-550.31439
4300000000,-7.5949936,-550.3902
4301000000,-7.5925703,-550.74646
4302000000,-7.5881519,-550.82611
4303000000,-7.5663543,-550.99353
4304000000,-7.5819707,-551.05109
4305000000,-7.5732813,-551.12665
4306000000,-7.5555835,-551.2019
4307000000,-7.530879,-551.31738
4308000000,-7.5264211,-551.45941
4309000000,-7.5235081,-551.52478
4310000000,-7.5135088,-551.7713
4311000000,-7.5025177,-551.7832
4312000000,-7.4999228,-551.95734
4313000000,-7.4860759,-552.13556
4314000000,-7.4683065,-552.20599
4315000000,-7.4732251,-552.45502
4316000000,-7.4642138,-552.49878
4317000000,-7.4696846,-552.48132
4318000000,-7.4334064,-552.60663
4319000000,-7.4176617,-552.93085
4320000000,-7.4110999,-552.91235
4321000000,-7.4017849,-553.23126
4322000000,-7.4235048,-553.29663
4323000000,-7.4429679,-553.35876
4324000000,-7.3830943,-553.41919
4325000000,-7.3727498,-553.55304
4326000000,-7.3858218,-553.6037
4327000000,-7.3581452,-553.69171
4328000000,-7.3634214,-553.85065
4329000000,-7.3617883,-553.87256
4330000000,-7.3731132,-554.0368
4331000000,-7.3367472,-554.4079
4332000000,-7.328073,-554.43408
4333000000,-7.2944922,-554.48755
4334000000,-7.2975073,-554.52679
4335000000,-7.3094692,-554.58313
4336000000,-7.2978363,-554.85846
4337000000,-7.2920513,-554.83112
4338000000,-7.2706246,-554.98285
4339000000,-7.2923665,-555.14478
4340000000,-7.2656054,-555.25702
4341000000,-7.267437,-555.21277
4342000000,-7.2571902,-555.52484
4343000000,-7.2630587,-555.51678
4344000000,-7.2589493,-555.71429
4345000000,-7.2731524,-555.99426
4346000000,-7.2418213,-555.77814
4347000000,-7.2195354,-555.98914
4348000000,-7.2116313,-556.15857
4349000000,-7.2086177,-556.34216
4350000000,-7.2152243,-556.35065
4351000000,-7.1895804,-556.46838
4352000000,-7.2055011,-556.60016
4353000000,-7.1907654,-556.77704
4354000000,-7.1936936,-556.91901
4355000000,-7.1563869,-557.03613
4356000000,-7.190063,-557.19659
4357000000,-7.1630931,-557.26459
4358000000,-7.1413102,-557.4472
4359000000,-7.136909,-557.51385
4360000000,-7.1593757,-557.56305
4361000000,-7.1481051,-557.67078
4362000000,-7.1332459,-557.98535
4363000000,-7.1029129,-558.00629
4364000000,-7.1133814,-558.32544
4365000000,-7.1200705,-558.29272
4366000000,-7.1026282,-558.34454
4367000000,-7.0990086,-558.3479
4368000000,-7.0545397,-558.65179
4369000000,-7.0914154,-558.6626
4370000000,-7.0294733,-558.72522
4371000000,-7.0889235,-559.10522
4372000000,-7.0683475,-559.0802
4373000000,-7.0390763,-559.06702
4374000000,-7.0557203,-559.1933
4375000000,-7.0569272,-559.43085
4376000000,-7.0579138,-559.4826
4377000000,-7.0080438,-559.79016
4378000000,-7.0229831,-559.82343
4379000000,-7.0159612,-560.01416
4380000000,-7.0144634,-560.04333
4381000000,-7.011148,-560.2392
4382000000,-7.0135117,-560.36591
4383000000,-6.9830694,-560.21362
4384000000,-6.9766102,-560.46075
4385000000,-6.9752793,-560.81769
4386000000,-6.9959755,-560.92358
4387000000,-6.9602003,-560.71698
4388000000,-6.9723001,-561.00452
4389000000,-6.9789691,-560.97235
4390000000,-6.9624643,-561.41077
4391000000,-6.9535751,-561.34479
4392000000,-6.9253016,-561.49506
4393000000,-6.9194479,-561.67181
4394000000,-6.9044938,-561.61646
4395000000,-6.9240322,-561.70148
4396000000,-6.9021921,-561.95996
4397000000,-6.9244704,-561.87451
4398000000,-6.906333,-562.14728
4399000000,-6.9243479,-562.07526
4400000000,-6.927237,-562.44971
4401000000,-6.9049768,-562.53491
4402000000,-6.9082932,-562.68103
4403000000,-6.9008975,-562.92975
4404000000,-6.916635,-563.09821
4405000000,-6.9153905,-562.77679
4406000000,-6.8822689,-563.08691
4407000000,-6.8531399,-563.06
4408000000,-6.8602777,-563.40942
4409000000,-6.8239131,-563.49127
4410000000,-6.8479629,-563.44128
4411000000,-6.8507342,-563.73425
4412000000,-6.8191652,-563.90356
4413000000,-6.8313751,-563.83716
4414000000,-6.8082013,-563.96765
4415000000,-6.8330073,-564.05573
4416000000,-6.7971978,-564.26312
4417000000,-6.8306317,-564.177
4418000000,-6.8295312,-564.45917
4419000000,-6.8092275,-564.49353
4420000000,-6.7937298,-564.73413
4421000000,-6.7995019,-564.82532
4422000000,-6.7896776,-565.00476
4423000000,-6.7890534,-565.05011
4424000000,-6.7574863,-565.09326
4425000000,-6.7705259,-565.20752
4426000000,-6.7923565,-565.42603
4427000000,-6.7741852,-565.53339
4428000000,-6.7700939,-565.73328
4429000000,-6.7628312,-565.80377
4430000000,-6.7365375,-565.94257
4431000000,-6.7403502,-566.05768
4432000000,-6.7468748,-566.21509
4433000000,-6.6889968,-566.10364
4434000000,-6.7455482,-566.26764
4435000000,-6.7043791,-566.74414
4436000000,-6.7206306,-566.62225
4437000000,-6.6916661,-566.64728
4438000000,-6.6991611,-566.87006
4439000000,-6.7165656,-566.91504
4440000000,-6.6957469,-567.19769
4441000000,-6.6611128,-567.01709
4442000000,-6.6612105,-567.38416
4443000000,-6.6646199,-567.36755
4444000000,-6.6676955,-567.4165
4445000000,-6.6614194,-567.69885
4446000000,-6.6761317,-567.75604
4447000000,-6.6867642,-567.7959
4448000000,-6.6758075,-567.77789
4449000000,-6.6692677,-568.2395
4450000000,-6.6671524,-568.09235
4451000000,-6.6564417,-568.11615
4452000000,-6.6293349,-568.34558
4453000000,-6.629447,-568.64429
4454000000,-6.6441631,-568.54938
4455000000,-6.6314301,-568.70117
4456000000,-6.6260881,-568.94415
4457000000,-6.6308985,-568.94843
4458000000,-6.5901723,-569.04492
4459000000,-6.6455917,-569.37122
4460000000,-6.6193299,-569.31226
4461000000,-6.6266623,-569.26343
4462000000,-6.6573782,-569.4505
4463000000,-6.5925779,-569.65222
4464000000,-6.62111,-569.76733
4465000000,-6.6024714,-569.86615
4466000000,-6.5926237,-570.05371
4467000000,-6.6005888,-570.19904
4468000000,-6.5829043,-570.13599
4469000000,-6.5671291,-570.21466
4470000000,-6.6081715,-570.30847
4471000000,-6.5713577,-570.48792
4472000000,-6.5745115,-570.70807
4473000000,-6.5713882,-570.90112
4474000000,-6.5755801,-570.87848
4475000000,-6.5639563,-571.20929
4476000000,-6.5473127,-571.24634
4477000000,-6.5444169,-571.0249
4478000000,-6.5472689,-571.54822
4479000000,-6.5496097,-571.55939
4480000000,-6.5157785,-571.75824
4481000000,-6.5422521,-571.77661
4482000000,-6.5356374,-571.71155
4483000000,-6.524281,-571.88092
4484000000,-6.5142446,-572.14081
4485000000,-6.5002046,-572.21179
4486000000,-6.5095572,-572.3598
4487000000,-6.480094,-572.41119
4488000000,-6.5081372,-572.90363
4489000000,-6.4958611,-572.78021
4490000000,-6.4962678,-572.84314
4491000000,-6.5254016,-572.95319
4492000000,-6.5158782,-572.94531
4493000000,-6.4828696,-573.20557
4494000000,-6.5013404,-573.06427
4495000000,-6.4783864,-573.06403
4496000000,-6.4689336,-573.35419
4497000000,-6.464572,-573.40631
4498000000,-6.4516897,-573.55634
4499000000,-6.45748,-573.69281
4500000000,-6.4862895,-573.86334
4501000000,-6.4715281,-573.89392
4502000000,-6.4316502,-574.02899
4503000000,-6.4525409,-574.38464
4504000000,-6.4506292,-574.29303
4505000000,-6.4632816,-574.2785
4506000000,-6.4421735,-574.47363
4507000000,-6.4632053,-574.71466
4508000000,-6.4768319,-574.78821
4509000000,-6.430181,-574.87201
4510000000,-6.4384131,-574.86597
4511000000,-6.4445348,-575.06128
4512000000,-6.4518557,-575.04352
4513000000,-6.4240384,-575.12335
4514000000,-6.4031239,-575.55554
4515000000,-6.446207,-575.67853
4516000000,-6.4551921,-575.72937
4517000000,-6.4286976,-575.84149
4518000000,-6.4458857,-575.6377
4519000000,-6.4555726,-575.77441
4520000000,-6.4205198,-576.04242
4521000000,-6.4329762,-576.14105
4522000000,-6.4280605,-576.38489
4523000000,-6.4175806,-576.33148
4524000000,-6.4398465,-576.4173
4525000000,-6.4262528,-576.74976
4526000000,-6.4138904,-576.67645
4527000000,-6.3987799,-576.78326
4528000000,-6.4007626,-576.77466
4529000000,-6.4167891,-577.12219
4530000000,-6.4225545,-577.17883
4531000000,-6.4196115,-577.49042
4532000000,-6.4179506,-577.34064
4533000000,-6.3819995,-577.4549
4534000000,-6.3756485,-577.60962
4535000000,-6.3866634,-577.66296
4536000000,-6.3796253,-577.73663
4537000000,-6.3945999,-577.91461
4538000000,-6.4096274,-578.1792
4539000000,-6.3895869,-578.20898
4540000000,-6.3788366,-578.31464
4541000000,-6.3769045,-578.22217
4542000000,-6.4210882,-578.34253
4543000000,-6.3661594,-578.6026
4544000000,-6.3567033,-578.64868
4545000000,-6.3864503,-578.71826
4546000000,-6.3746328,-579.04541
4547000000,-6.3459902,-578.97827
4548000000,-6.3408322,-579.1673
4549000000,-6.3506498,-579.26813
4550000000,-6.3648815,-579.20624
4551000000,-6.3532848,-579.5249
4552000000,-6.3552494,-579.41772
4553000000,-6.3415818,-579.79041
4554000000,-6.3585525,-579.69226
4555000000,-6.393733,-579.72852
4556000000,-6.3597231,-579.94128
4557000000,-6.3622341,-580.02563
4558000000,-6.3363781,-580.18054
4559000000,-6.3408103,-580.35547
4560000000,-6.351459,-580.3382
4561000000,-6.3754115,-580.52307
4562000000,-6.3358741,-580.63928
4563000000,-6.3878984,-580.65674
4564000000,-6.3718338,-580.63324
4565000000,-6.3263659,-580.79297
4566000000,-6.3581882,-580.95819
4567000000,-6.3130178,-581.10236
4568000000,-6.3181605,-581.21838
4569000000,-6.3372717,-581.15039
4570000000,-6.3424401,-581.31018
4571000000,-6.3377719,-581.34857
4572000000,-6.330265,-581.49854
4573000000,-6.3163919,-581.59479
4574000000,-6.349329,-581.83636
4575000000,-6.3070149,-581.70258
4576000000,-6.3164196,-582.03687
4577000000,-6.3105226,-581.97211
4578000000,-6.3241773,-582.18628
4579000000,-6.3222899,-582.46259
4580000000,-6.287508,-582.5235
4581000000,-6.3173513,-582.56
4582000000,-6.3056421,-582.7442
4583000000,-6.311759,-582.64606
4584000000,-6.2934227,-582.75757
4585000000,-6.3239403,-582.89124
4586000000,-6.3164525,-583.07837
4587000000,-6.3094006,-583.13013
4588000000,-6.3173332,-583.24683
4589000000,-6.2949133,-583.23712
4590000000,-6.2992926,-583.16028
4591000000,-6.3015833,-583.61194
4592000000,-6.2911019,-583.65735
4593000000,-6.3016334,-583.69495
4594000000,-6.3068461,-583.99707
4595000000,-6.3009458,-583.90521
4596000000,-6.2790236,-584.00952
4597000000,-6.306798,-584.17023
4598000000,-6.2717648,-584.06622
4599000000,-6.2849245,-584.46069
4600000000,-6.2869406,-584.66968
4601000000,-6.3052998,-584.44159
4602000000,-6.332613,-584.76019
4603000000,-6.2771864,-584.89691
4604000000,-6.2859693,-584.9903
4605000000,-6.268064,-584.97498
4606000000,-6.3013253,-585.08899
4607000000,-6.2694507,-585.17102
4608000000,-6.2968922,-585.32043
4609000000,-6.3052297,-585.44147
4610000000,-6.2753234,-585.52527
4611000000,-6.2626791,-585.58881
4612000000,-6.3204064,-585.61432
4613000000,-6.2942066,-585.59204
4614000000,-6.2795038,-585.85724
4615000000,-6.2893929,-586.27271
4616000000,-6.2551336,-586.02692
4617000000,-6.2957225,-586.22113
4618000000,-6.2973108,-586.1731
4619000000,-6.2682323,-586.42108
4620000000,-6.2703724,-586.39935
4621000000,-6.292973,-586.6579
4622000000,-6.295404,-586.74231
4623000000,-6.2811961,-586.76349
4624000000,-6.2662201,-586.76514
4625000000,-6.2989774,-586.76489
4626000000,-6.2839966,-587.32318
4627000000,-6.2817607,-587.15924
4628000000,-6.2702546,-587.16937
4629000000,-6.2798805,-587.54694
4630000000,-6.3050575,-587.56219
4631000000,-6.2733316,-587.59521
4632000000,-6.2934289,-587.66064
4633000000,-6.2859836,-587.79388
4634000000,-6.2754316,-588.00946
4635000000,-6.2886472,-587.86078
4636000000,-6.2632852,-587.97205
4637000000,-6.3050566,-588.25177
4638000000,-6.316977,-588.38678
4639000000,-6.2559495,-588.45642
4640000000,-6.2964129,-588.41821
4641000000,-6.3147144,-588.56342
4642000000,-6.3128004,-588.651
4643000000,-6.3035293,-588.78986
4644000000,-6.2622266,-588.80823
4645000000,-6.2860384,-588.83453
4646000000,-6.2857227,-589.19019
4647000000,-6.2937403,-589.10156
4648000000,-6.3142962,-589.52625
4649000000,-6.2984829,-589.44647
4650000000,-6.2982397,-589.65546
4651000000,-6.2617402,-589.71265
4652000000,-6.3088365,-590.06909
4653000000,-6.2886834,-589.76068
4654000000,-6.3011045,-589.86017
4655000000,-6.303597,-590.02423
4656000000,-6.2653713,-590.15662
4657000000,-6.3118911,-590.3197
4658000000,-6.3129253,-590.09656
4659000000,-6.281157,-590.47772
4660000000,-6.314918,-590.34869
4661000000,-6.309309,-590.59784
4662000000,-6.2861667,-590.5918
4663000000,-6.3095279,-590.68561
4664000000,-6.3120799,-590.9743
4665000000,-6.3014827,-590.99829
4666000000,-6.296217,-591.11938
4667000000,-6.2782106,-591.1142
4668000000,-6.295557,-591.15674
4669000000,-6.3372374,-591.13123
4670000000,-6.3303289,-591.21216
4671000000,-6.2948918,-591.56543
4672000000,-6.2907658,-591.62665
4673000000,-6.3083878,-591.68005
4674000000,-6.3392472,-591.69794
4675000000,-6.3238397,-591.9209
4676000000,-6.2976003,-592.07678
4677000000,-6.3272285,-591.93787
4678000000,-6.3399944,-591.95514
4679000000,-6.3145299,-592.01642
4680000000,-6.3112383,-592.09607
4681000000,-6.2895865,-592.41901
4682000000,-6.3148055,-592.46759
4683000000,-6.3228917,-592.43091
4684000000,-6.3188934,-592.64221
4685000000,-6.3119011,-592.617
4686000000,-6.3331094,-592.88354
4687000000,-6.3141799,-592.87457
4688000000,-6.3340259,-593.13098
4689000000,-6.3700891,-593.07416
4690000000,-6.2899032,-593.03217
4691000000,-6.3296642,-593.20166
4692000000,-6.2797089,-593.18573
4693000000,-6.3255858,-593.24316
4694000000,-6.3225427,-593.31262
4695000000,-6.3161378,-593.49561
4696000000,-6.313767,-594.05096
4697000000,-6.3246088,-593.96051
4698000000,-6.32301,-593.67596
4699000000,-6.3333755,-594.10443
4700000000,-6.3603182,-594.23267
4701000000,-6.3344035,-594.27441
4702000000,-6.3612061,-594.14526
4703000000,-6.3536038,-594.1908
4704000000,-6.3656483,-594.55981
4705000000,-6.3211646,-594.74933
4706000000,-6.3300114,-594.69324
4707000000,-6.3515906,-594.89978
4708000000,-6.3567834,-594.80853
4709000000,-6.3540111,-594.8407
4710000000,-6.3533955,-595.01782
4711000000,-6.3438129,-594.8667
4712000000,-6.3705721,-595.19116
4713000000,-6.3791032,-595.1745
4714000000,-6.3632488,-595.1825
4715000000,-6.3695817,-595.30774
4716000000,-6.3412528,-595.42859
4717000000,-6.3866439,-595.55298
4718000000,-6.3746724,-595.84052
4719000000,-6.3300056,-595.73682
4720000000,-6.3915224,-595.92535
4721000000,-6.3880887,-596.00958
4722000000,-6.378767,-596.09338
4723000000,-6.3593526,-596.47949
4724000000,-6.341795,-596.2442
4725000000,-6.3732505,-596.29584
4726000000,-6.3672476,-596.44171
4727000000,-6.4163961,-596.664
4728000000,-6.3729782,-596.57703
4729000000,-6.3651352,-596.72845
4730000000,-6.3808575,-596.81024
4731000000,-6.3828349,-596.85193
4732000000,-6.3521886,-596.98804
4733000000,-6.3992915,-597.17883
4734000000,-6.410027,-597.42401
4735000000,-6.3705192,-597.41858
4736000000,-6.4269528,-597.23022
4737000000,-6.4007263,-597.31104
4738000000,-6.3847251,-597.35773
4739000000,-6.4099822,-597.4751
4740000000,-6.4082279,-597.789
4741000000,-6.4078727,-597.85498
4742000000,-6.4042573,-597.77167
4743000000,-6.4529815,-598.02838
4744000000,-6.3980403,-598.00647
4745000000,-6.4154186,-598.12689
4746000000,-6.3788238,-598.43329
4747000000,-6.418715,-598.53387
4748000000,-6.3935604,-598.23523
4749000000,-6.3918715,-598.70178
4750000000,-6.4456897,-598.41321
4751000000,-6.4527435,-598.80444
4752000000,-6.4039917,-598.8363
4753000000,-6.4152064,-598.92731
4754000000,-6.409236,-599.00336
4755000000,-6.4410968,-599.0578
4756000000,-6.4391956,-599.32434
4757000000,-6.4163523,-599.22784
4758000000,-6.4167938,-599.375
4759000000,-6.4483881,-599.28027
4760000000,-6.4398098,-599.5014
4761000000,-6.4626698,-599.76965
4762000000,-6.4458508,-599.76044
4763000000,-6.4766183,-599.82019
4764000000,-6.4917393,-599.89935
4765000000,-6.4460316,-600.11298
4766000000,-6.4503927,-600.30023
4767000000,-6.4561782,-600.05585
4768000000,-6.4923763,-600.29962
4769000000,-6.4726443,-600.54468
4770000000,-6.4471407,-600.22369
4771000000,-6.4666066,-600.55682
4772000000,-6.4596891,-600.83746
4773000000,-6.4711108,-600.71594
4774000000,-6.4788175,-600.95215
4775000000,-6.4644513,-600.89429
4776000000,-6.4712391,-600.95142
4777000000,-6.4924073,-601.27832
4778000000,-6.4618812,-601.17377
4779000000,-6.485281,-601.02789
4780000000,-6.4859953,-601.4649
4781000000,-6.4643807,-601.51953
4782000000,-6.4986596,-601.67188
4783000000,-6.4444385,-601.66803
4784000000,-6.4687233,-601.65961
4785000000,-6.4880195,-601.71881
4786000000,-6.4644241,-601.95209
4787000000,-6.4584308,-601.94012
4788000000,-6.5153546,-602.08923
4789000000,-6.5161982,-602.1687
4790000000,-6.5067954,-602.11456
4791000000,-6.5135665,-602.3692
4792000000,-6.5198722,-602.32214
4793000000,-6.5117254,-602.67462
4794000000,-6.5251102,-602.60986
4795000000,-6.5487838,-602.66125
4796000000,-6.5333672,-602.70331
4797000000,-6.5188169,-602.81531
4798000000,-6.5119987,-602.64923
4799000000,-6.5505505,-603.10938
4800000000,-6.5148768,-603.05554
4801000000,-6.5631022,-603.27771
4802000000,-6.5344996,-603.1449
4803000000,-6.5451393,-603.5105
4804000000,-6.5569577,-603.63184
4805000000,-6.5485907,-603.40503
4806000000,-6.5286508,-603.63788
4807000000,-6.5345283,-603.73218
4808000000,-6.5269117,-603.96716
4809000000,-6.5475969,-603.80652
4810000000,-6.5826173,-603.60693
4811000000,-6.5495749,-604.2774
4812000000,-6.579268,-603.99591
4813000000,-6.5730453,-604.12531
4814000000,-6.5645785,-604.30933
4815000000,-6.5650244,-604.32269
4816000000,-6.5707693,-604.47729
4817000000,-6.5564175,-604.58929
4818000000,-6.6043015,-604.76447
4819000000,-6.5792017,-604.90424
4820000000,-6.5697131,-604.73102
4821000000,-6.5514793,-604.82056
4822000000,-6.5807452,-605.11737
4823000000,-6.5752277,-605.13507
4824000000,-6.5627956,-605.26312
4825000000,-6.6149278,-605.17212
4826000000,-6.5762949,-605.42029
4827000000,-6.6001534,-605.41589
4828000000,-6.5751619,-605.7384
4829000000,-6.6100225,-605.76782
4830000000,-6.610683,-605.59253
4831000000,-6.6417055,-605.86084
4832000000,-6.5812421,-605.84442
4833000000,-6.5720711,-605.89728
4834000000,-6.6205425,-606.24713
4835000000,-6.6267633,-605.97437
4836000000,-6.6662955,-606.26068
4837000000,-6.6424465,-606.07898
4838000000,-6.5961647,-606.23334
4839000000,-6.6401033,-606.35095
4840000000,-6.6147337,-606.39374
4841000000,-6.5997577,-606.61584
4842000000,-6.6423283,-606.65503
4843000000,-6.6470194,-606.70081
4844000000,-6.6259322,-606.67841
4845000000,-6.6446905,-606.74261
4846000000,-6.6337075,-606.85168
4847000000,-6.6913013,-606.93256
4848000000,-6.6787286,-607.03491
4849000000,-6.6804309,-607.05371
4850000000,-6.6689715,-607.39349
4851000000,-6.6745753,-607.50531
4852000000,-6.6690912,-607.16119
4853000000,-6.6331587,-607.44165
4854000000,-6.6477942,-607.39899
4855000000,-6.6445131,-607.40979
4856000000,-6.6642256,-607.83252
4857000000,-6.6772265,-607.95428
4858000000,-6.6730676,-607.80591
4859000000,-6.7023592,-607.96936
4860000000,-6.6933808,-608.03436
4861000000,-6.7100563,-608.03186
4862000000,-6.7142601,-608.29285
4863000000,-6.7025838,-608.31744
4864000000,-6.6886172,-608.06354
4865000000,-6.7427197,-608.36597
4866000000,-6.7383356,-608.47943
4867000000,-6.716742,-608.47565
4868000000,-6.7402558,-608.48004
4869000000,-6.7133708,-608.50726
4870000000,-6.7564487,-608.69879
4871000000,-6.7244682,-608.55524
4872000000,-6.7559481,-608.94537
4873000000,-6.7391424,-608.99463
4874000000,-6.7271323,-609.13336
4875000000,-6.7402835,-609.0423
4876000000,-6.7069345,-609.00183
4877000000,-6.7659707,-609.30225
4878000000,-6.7396889,-609.44482
4879000000,-6.7568026,-609.2854
4880000000,-6.7570744,-609.35968
4881000000,-6.7838793,-609.55829
4882000000,-6.8187404,-609.5285
4883000000,-6.7813134,-609.69147
4884000000,-6.7794442,-609.80499
4885000000,-6.8052573,-609.67188
4886000000,-6.8372488,-610.08075
4887000000,-6.7763872,-610.15686
4888000000,-6.8188643,-610.19702
4889000000,-6.8288994,-610.27142
4890000000,-6.7919703,-610.48773
4891000000,-6.8375521,-610.20361
4892000000,-6.8190694,-610.42426
4893000000,-6.8211007,-610.56384
4894000000,-6.8140125,-610.53522
4895000000,-6.7964416,-610.81433
4896000000,-6.8215556,-610.44104
4897000000,-6.8124638,-610.59796
4898000000,-6.8250785,-610.71277
4899000000,-6.8278818,-610.82794
4900000000,-6.8587809,-610.95654
4901000000,-6.8958306,-611.18353
4902000000,-6.8467879,-611.09241
4903000000,-6.8044324,-611.09631
4904000000,-6.8678422,-611.16943
4905000000,-6.8713946,-611.34149
4906000000,-6.8978763,-611.13788
4907000000,-6.8777814,-611.56091
4908000000,-6.8724232,-611.5755
4909000000,-6.8994465,-611.46588
4910000000,-6.8648076,-611.55261
4911000000,-6.8706846,-611.59216
4912000000,-6.8966861,-611.86615
4913000000,-6.9312873,-611.93256
4914000000,-6.8878341,-611.93213
4915000000,-6.9407883,-612.24799
4916000000,-6.9808097,-612.00323
4917000000,-6.9483957,-612.03473
4918000000,-6.9351296,-611.89105
4919000000,-6.9161863,-612.11682
4920000000,-6.9139204,-612.27234
4921000000,-6.9611363,-612.40698
4922000000,-6.9290318,-612.33923
4923000000,-6.9358616,-612.617
4924000000,-6.9239717,-612.70734
4925000000,-6.9360824,-612.63434
4926000000,-6.9278278,-612.72601
4927000000,-6.9430809,-612.74695
4928000000,-6.9775267,-612.75769
4929000000,-6.9770446,-612.83313
4930000000,-7.0072722,-612.8125
4931000000,-6.929234,-613.27533
4932000000,-6.9480004,-613.15002
4933000000,-6.9610038,-613.19574
4934000000,-6.9617996,-613.13135
4935000000,-6.9840541,-613.42999
4936000000,-6.9845304,-613.3678
4937000000,-6.9992151,-613.49829
4938000000,-7.0133333,-613.5639
4939000000,-7.0084133,-613.6922
4940000000,-7.0590324,-613.76917
4941000000,-7.0051637,-613.89594
4942000000,-7.0642085,-613.7923
4943000000,-7.0151529,-613.71063
4944000000,-7.0193572,-613.77454
4945000000,-7.0249553,-613.97412
4946000000,-7.0071902,-613.95355
4947000000,-7.0212264,-614.112
4948000000,-7.0836415,-614.26025
4949000000,-7.0568676,-614.40393
4950000000,-7.0805378,-614.34979
4951000000,-7.0818248,-614.51807
4952000000,-7.0703959,-614.26935
4953000000,-6.9997392,-614.6347
4954000000,-7.0662622,-614.6499
4955000000,-7.0624089,-614.77887
4956000000,-7.0882654,-614.7309
4957000000,-7.0630393,-615.05273
4958000000,-7.0770345,-614.82239
4959000000,-7.1036553,-615.0083
4960000000,-7.0863261,-615.16388
4961000000,-7.1088605,-615.1192
4962000000,-7.0896916,-615.23364
4963000000,-7.1473589,-615.04425
4964000000,-7.1232877,-615.55591
4965000000,-7.1223545,-615.4726
4966000000,-7.1284785,-615.35016
4967000000,-7.0853062,-615.58008
4968000000,-7.129365,-615.6239
4969000000,-7.1138124,-615.60382
4970000000,-7.1331067,-615.74164
4971000000,-7.135879,-615.69672
4972000000,-7.1078191,-615.862
4973000000,-7.1336799,-615.88824
4974000000,-7.1586118,-615.88971
4975000000,-7.1631088,-616.04883
4976000000,-7.164012,-615.92572
4977000000,-7.1228609,-616.33289
4978000000,-7.1467228,-616.42242
4979000000,-7.1770549,-616.2807
4980000000,-7.172401,-616.24823
4981000000,-7.1625919,-616.56293
4982000000,-7.1652675,-616.53113
4983000000,-7.1493611,-616.4198
4984000000,-7.1625805,-616.3797
4985000000,-7.1682138,-616.83386
4986000000,-7.1884079,-616.81378
4987000000,-7.2178125,-617.01538
4988000000,-7.215601,-617.05463
4989000000,-7.1984749,-617.0495
4990000000,-7.2312098,-617.4126
4991000000,-7.237711,-617.39197
4992000000,-7.2379203,-617.34991
4993000000,-7.2125125,-617.39648
4994000000,-7.2276525,-617.6665
4995000000,-7.2290993,-617.4494
4996000000,-7.250453,-617.46576
4997000000,-7.234097,-617.61566
4998000000,-7.2369623,-617.35248
4999000000,-7.2660656,-617.73413
5000000000,-7.2249823,-617.77655
END

