!CSV A.01.01
!Agilent Technologies,E8362C,MY49020225,A.09.42.22
!Agilent E8362C: A.09.42.22
!Date: Tuesday, March 08, 2016 15:27:04
!Source: Standard

BEGIN CH1_DATA
Freq(Hz),S21 Log Mag(dB),S21 Phase(°)
1000000000,-4.4178338,-104.87537
1001000000,-4.4333153,-105.01341
1002000000,-4.4505601,-104.87804
1003000000,-4.4302545,-105.02336
1004000000,-4.3836761,-105.18047
1005000000,-4.4369559,-105.3119
1006000000,-4.4203749,-105.54851
1007000000,-4.4058647,-105.52102
1008000000,-4.4168086,-105.65395
1009000000,-4.4177289,-105.67558
1010000000,-4.3967857,-105.95987
1011000000,-4.4259753,-105.94238
1012000000,-4.4022985,-105.89925
1013000000,-4.3758764,-106.16891
1014000000,-4.4133387,-106.48135
1015000000,-4.3702259,-106.57153
1016000000,-4.3744946,-106.35378
1017000000,-4.3804183,-106.65974
1018000000,-4.3860717,-106.98178
1019000000,-4.3679304,-106.93611
1020000000,-4.3785343,-106.97215
1021000000,-4.3286214,-107.20427
1022000000,-4.3646941,-107.04222
1023000000,-4.3635716,-107.30595
1024000000,-4.3706222,-107.28329
1025000000,-4.392446,-107.51636
1026000000,-4.3605366,-107.59431
1027000000,-4.327023,-107.6143
1028000000,-4.3473339,-107.77934
1029000000,-4.3342462,-107.97079
1030000000,-4.3650851,-108.15267
1031000000,-4.3473792,-108.23184
1032000000,-4.3425107,-108.44624
1033000000,-4.3260317,-108.35654
1034000000,-4.3387427,-108.5543
1035000000,-4.3227758,-108.50444
1036000000,-4.330359,-108.76875
1037000000,-4.2982149,-108.97613
1038000000,-4.2996278,-108.84584
1039000000,-4.2869983,-109.0777
1040000000,-4.302453,-109.2126
1041000000,-4.3174124,-109.31273
1042000000,-4.3273191,-109.2
1043000000,-4.2698369,-109.25573
1044000000,-4.2853217,-109.50434
1045000000,-4.2677937,-109.7673
1046000000,-4.290204,-109.85552
1047000000,-4.2727518,-109.86608
1048000000,-4.293839,-109.95615
1049000000,-4.2543907,-110.00325
1050000000,-4.2816725,-110.14595
1051000000,-4.2784815,-110.41496
1052000000,-4.2795811,-110.47958
1053000000,-4.2928438,-110.49787
1054000000,-4.2559576,-110.73717
1055000000,-4.2649446,-110.9025
1056000000,-4.2477131,-110.75237
1057000000,-4.2591085,-111.0168
1058000000,-4.2565227,-111.18709
1059000000,-4.2456341,-111.26665
1060000000,-4.2428136,-111.39132
1061000000,-4.2556324,-111.31894
1062000000,-4.2345424,-111.56039
1063000000,-4.200336,-111.68274
1064000000,-4.2269306,-111.8847
1065000000,-4.212235,-112.05761
1066000000,-4.2161064,-112.15738
1067000000,-4.2173553,-112.24423
1068000000,-4.2064323,-112.25993
1069000000,-4.2098131,-112.28733
1070000000,-4.2101412,-112.34548
1071000000,-4.1744809,-112.41931
1072000000,-4.2022181,-112.74998
1073000000,-4.209609,-112.62289
1074000000,-4.1731939,-112.72045
1075000000,-4.2029262,-113.04173
1076000000,-4.195827,-113.20536
1077000000,-4.188869,-113.28903
1078000000,-4.149343,-113.33344
1079000000,-4.156847,-113.51466
1080000000,-4.1546888,-113.58422
1081000000,-4.1709232,-113.71156
1082000000,-4.1716356,-113.88592
1083000000,-4.1588778,-113.95998
1084000000,-4.140729,-113.91589
1085000000,-4.1514335,-114.02812
1086000000,-4.1489439,-114.40867
1087000000,-4.1173511,-114.27605
1088000000,-4.146172,-114.38084
1089000000,-4.1219854,-114.59948
1090000000,-4.114975,-114.74683
1091000000,-4.1133556,-114.77312
1092000000,-4.1168962,-114.81621
1093000000,-4.120677,-115.09822
1094000000,-4.1026821,-115.30077
1095000000,-4.102149,-115.21215
1096000000,-4.1151748,-115.365
1097000000,-4.1118221,-115.41852
1098000000,-4.0941854,-115.52511
1099000000,-4.0730276,-115.84866
1100000000,-4.1014566,-115.77419
1101000000,-4.1189566,-115.92842
1102000000,-4.0823302,-116.04986
1103000000,-4.0755906,-116.15253
1104000000,-4.0898628,-116.44227
1105000000,-4.0760903,-116.40973
1106000000,-4.0601144,-116.59612
1107000000,-4.0659709,-116.57172
1108000000,-4.0762882,-116.81175
1109000000,-4.0421619,-116.83924
1110000000,-4.0491328,-116.95309
1111000000,-4.0338874,-117.10477
1112000000,-4.0301466,-117.316
1113000000,-4.0459714,-117.37269
1114000000,-4.0499516,-117.43778
1115000000,-4.0324512,-117.47906
1116000000,-4.0197754,-117.65281
1117000000,-4.0138063,-117.72942
1118000000,-4.0370827,-117.73275
1119000000,-4.0140915,-117.98279
1120000000,-4.0023942,-118.12228
1121000000,-4.0092793,-118.35467
1122000000,-4.0148716,-118.46873
1123000000,-3.9736941,-118.3316
1124000000,-3.9559951,-118.50035
1125000000,-3.9865384,-118.65693
1126000000,-3.9829388,-118.62099
1127000000,-3.9890742,-118.69173
1128000000,-3.9852927,-119.0773
1129000000,-4.004982,-119.06284
1130000000,-3.9800894,-119.14271
1131000000,-3.9444475,-119.35638
1132000000,-3.9723058,-119.35652
1133000000,-3.9372823,-119.70354
1134000000,-3.9396379,-119.77937
1135000000,-3.9678228,-119.63832
1136000000,-3.9670897,-119.81295
1137000000,-3.9749482,-119.98703
1138000000,-3.9235942,-120.18875
1139000000,-3.949296,-120.26862
1140000000,-3.9548044,-120.43091
1141000000,-3.9533994,-120.49445
1142000000,-3.9215341,-120.72025
1143000000,-3.9147694,-120.65328
1144000000,-3.9161503,-120.85398
1145000000,-3.9006996,-121.1614
1146000000,-3.9140842,-120.92117
1147000000,-3.894855,-121.11971
1148000000,-3.9184802,-121.26698
1149000000,-3.8986652,-121.36037
1150000000,-3.9013202,-121.48535
1151000000,-3.8987291,-121.51741
1152000000,-3.8812914,-121.75658
1153000000,-3.8680177,-121.77431
1154000000,-3.8810525,-121.93562
1155000000,-3.877264,-122.03828
1156000000,-3.8625906,-122.34039
1157000000,-3.8642173,-122.3741
1158000000,-3.8630364,-122.43089
1159000000,-3.8595035,-122.54884
1160000000,-3.831126,-122.67073
1161000000,-3.8354728,-122.68739
1162000000,-3.8536587,-122.94123
1163000000,-3.8400507,-122.99914
1164000000,-3.8482447,-122.93163
1165000000,-3.8249257,-123.19216
1166000000,-3.7949245,-123.32277
1167000000,-3.7940149,-123.49474
1168000000,-3.8116195,-123.50904
1169000000,-3.8159323,-123.66686
1170000000,-3.7882619,-123.70618
1171000000,-3.7836549,-123.90359
1172000000,-3.7761221,-124.02741
1173000000,-3.8091259,-124.02373
1174000000,-3.8198118,-123.97514
1175000000,-3.7942188,-124.34531
1176000000,-3.754832,-124.36833
1177000000,-3.8119967,-124.50751
1178000000,-3.73788,-124.75606
1179000000,-3.7593024,-124.7557
1180000000,-3.7527542,-124.9443
1181000000,-3.7495732,-125.14111
1182000000,-3.7619877,-125.21288
1183000000,-3.7274339,-125.37095
1184000000,-3.7415321,-125.43085
1185000000,-3.7484519,-125.42941
1186000000,-3.7314274,-125.56556
1187000000,-3.7373269,-125.90499
1188000000,-3.7286019,-125.94659
1189000000,-3.7322443,-126.07864
1190000000,-3.6841309,-125.98317
1191000000,-3.703819,-126.22247
1192000000,-3.6865511,-126.54152
1193000000,-3.7034771,-126.39813
1194000000,-3.6768672,-126.5177
1195000000,-3.7001753,-126.62904
1196000000,-3.6922553,-126.73491
1197000000,-3.6739125,-127.06631
1198000000,-3.6734936,-127.0724
1199000000,-3.6379948,-127.2076
1200000000,-3.6682563,-127.29997
1201000000,-3.6506391,-127.54349
1202000000,-3.6577752,-127.53317
1203000000,-3.6593142,-127.58627
1204000000,-3.6415567,-127.75552
1205000000,-3.6395674,-127.92114
1206000000,-3.6385143,-127.92554
1207000000,-3.6245418,-127.87415
1208000000,-3.6481659,-128.11285
1209000000,-3.613297,-128.20334
1210000000,-3.6553535,-128.36993
1211000000,-3.6321187,-128.50012
1212000000,-3.6048024,-128.60234
1213000000,-3.6068275,-128.72581
1214000000,-3.6105001,-128.8251
1215000000,-3.5689363,-128.95779
1216000000,-3.5651376,-129.12177
1217000000,-3.5754802,-129.21768
1218000000,-3.5733545,-129.44519
1219000000,-3.5483997,-129.33273
1220000000,-3.5866129,-129.55174
1221000000,-3.557379,-129.90335
1222000000,-3.5415437,-129.65582
1223000000,-3.5653057,-129.89085
1224000000,-3.5184348,-129.88429
1225000000,-3.5532203,-130.16795
1226000000,-3.558049,-130.39044
1227000000,-3.5426521,-130.54349
1228000000,-3.5273764,-130.47276
1229000000,-3.5183141,-130.56305
1230000000,-3.5293658,-130.74052
1231000000,-3.5007625,-130.91437
1232000000,-3.5312047,-130.90494
1233000000,-3.5065072,-131.1199
1234000000,-3.5199473,-131.33366
1235000000,-3.4885411,-131.31738
1236000000,-3.5046999,-131.41362
1237000000,-3.4873564,-131.5551
1238000000,-3.4916916,-131.73416
1239000000,-3.4956138,-131.7258
1240000000,-3.4740798,-131.97876
1241000000,-3.4583681,-132.01237
1242000000,-3.4579873,-132.19455
1243000000,-3.4723446,-132.14714
1244000000,-3.4664521,-132.28285
1245000000,-3.4571836,-132.63214
1246000000,-3.4527721,-132.78667
1247000000,-3.4443707,-132.72682
1248000000,-3.4252954,-132.91841
1249000000,-3.4189463,-132.96545
1250000000,-3.411643,-133.21162
1251000000,-3.3824608,-133.35823
1252000000,-3.3812912,-133.5938
1253000000,-3.4135599,-133.47643
1254000000,-3.4226534,-133.78525
1255000000,-3.3954487,-133.79173
1256000000,-3.3796842,-133.96259
1257000000,-3.3801601,-134.19516
1258000000,-3.3630648,-134.15617
1259000000,-3.3742626,-134.38452
1260000000,-3.3879576,-134.2281
1261000000,-3.3717852,-134.44038
1262000000,-3.3503296,-134.70564
1263000000,-3.341563,-134.89041
1264000000,-3.3434319,-134.76071
1265000000,-3.3189046,-134.78004
1266000000,-3.3236706,-134.91551
1267000000,-3.3217731,-135.26414
1268000000,-3.321034,-135.47217
1269000000,-3.3195071,-135.48688
1270000000,-3.3597481,-135.65855
1271000000,-3.3088408,-135.68279
1272000000,-3.28653,-135.78564
1273000000,-3.2945461,-135.99657
1274000000,-3.2840695,-136.11819
1275000000,-3.3046744,-136.35803
1276000000,-3.3047807,-136.32161
1277000000,-3.2808173,-136.42685
1278000000,-3.2697399,-136.57178
1279000000,-3.291398,-136.862
1280000000,-3.283613,-136.8564
1281000000,-3.288044,-136.99364
1282000000,-3.2640796,-136.86363
1283000000,-3.2403722,-137.35535
1284000000,-3.2388432,-137.40347
1285000000,-3.2295182,-137.32155
1286000000,-3.2328892,-137.52895
1287000000,-3.2434585,-137.55554
1288000000,-3.2254593,-137.64
1289000000,-3.2447476,-137.82121
1290000000,-3.2192924,-138.15048
1291000000,-3.1997683,-138.2737
1292000000,-3.2060943,-138.46407
1293000000,-3.2015204,-138.47491
1294000000,-3.185559,-138.60757
1295000000,-3.1694996,-138.67686
1296000000,-3.1717138,-138.60843
1297000000,-3.2140598,-138.90836
1298000000,-3.1658819,-139.14363
1299000000,-3.1562831,-138.96968
1300000000,-3.1592872,-139.49214
1301000000,-3.187747,-139.39101
1302000000,-3.1355243,-139.548
1303000000,-3.1200187,-139.87813
1304000000,-3.1218033,-139.66151
1305000000,-3.1349375,-139.92371
1306000000,-3.1234388,-139.97345
1307000000,-3.1043258,-140.31935
1308000000,-3.1221395,-140.23599
1309000000,-3.0905404,-140.32352
1310000000,-3.1176741,-140.61861
1311000000,-3.0992978,-140.7691
1312000000,-3.0844336,-140.75893
1313000000,-3.0782452,-140.8734
1314000000,-3.0998769,-141.10745
1315000000,-3.0905817,-141.32286
1316000000,-3.0911851,-141.33171
1317000000,-3.0658262,-141.47601
1318000000,-3.0574648,-141.64679
1319000000,-3.066385,-141.7982
1320000000,-3.056572,-141.89026
1321000000,-3.0521829,-141.90717
1322000000,-3.0317795,-142.07008
1323000000,-3.0480778,-142.20648
1324000000,-3.025264,-142.28093
1325000000,-3.016387,-142.40727
1326000000,-3.0001018,-142.5867
1327000000,-3.0244036,-142.56976
1328000000,-3.0096323,-142.85388
1329000000,-3.0244422,-142.80199
1330000000,-3.0116978,-143.13931
1331000000,-2.9981797,-143.27832
1332000000,-2.9827182,-143.38522
1333000000,-2.9873445,-143.60164
1334000000,-2.9576511,-143.67978
1335000000,-2.941926,-143.89328
1336000000,-2.9579902,-143.99243
1337000000,-2.9369135,-144.1037
1338000000,-2.9473951,-144.18159
1339000000,-2.9603221,-144.28258
1340000000,-2.9399328,-144.38286
1341000000,-2.9380367,-144.3754
1342000000,-2.921958,-144.69473
1343000000,-2.9382355,-144.85928
1344000000,-2.9257753,-144.94498
1345000000,-2.9246831,-145.06667
1346000000,-2.8988245,-145.08426
1347000000,-2.9125242,-145.35031
1348000000,-2.8889163,-145.43858
1349000000,-2.898077,-145.7336
1350000000,-2.8730323,-145.9595
1351000000,-2.8633044,-145.78697
1352000000,-2.8840292,-146.08179
1353000000,-2.8560236,-146.23717
1354000000,-2.8899591,-146.30362
1355000000,-2.8868842,-146.17928
1356000000,-2.8541579,-146.50914
1357000000,-2.8669314,-146.5231
1358000000,-2.853379,-146.82953
1359000000,-2.8285713,-146.96133
1360000000,-2.7984059,-147.01546
1361000000,-2.8330138,-147.3271
1362000000,-2.8144479,-147.40773
1363000000,-2.8106499,-147.44206
1364000000,-2.8174942,-147.5081
1365000000,-2.7914822,-147.77736
1366000000,-2.7739475,-147.77994
1367000000,-2.7561944,-148.0858
1368000000,-2.7797363,-148.23601
1369000000,-2.756475,-148.24683
1370000000,-2.7779505,-148.379
1371000000,-2.7791564,-148.42775
1372000000,-2.74705,-148.8954
1373000000,-2.7619052,-148.90663
1374000000,-2.749896,-148.95642
1375000000,-2.7517619,-149.01547
1376000000,-2.7531567,-149.11908
1377000000,-2.7201099,-149.46921
1378000000,-2.7206204,-149.51501
1379000000,-2.7087941,-149.6759
1380000000,-2.7467611,-149.74088
1381000000,-2.7465813,-149.99295
1382000000,-2.6994123,-150.06625
1383000000,-2.6958263,-150.11925
1384000000,-2.6893535,-150.24017
1385000000,-2.6821921,-150.41756
1386000000,-2.6611946,-150.57144
1387000000,-2.7140567,-150.70842
1388000000,-2.694268,-150.97862
1389000000,-2.6681921,-150.99904
1390000000,-2.6680133,-151.26688
1391000000,-2.6640785,-151.26639
1392000000,-2.6697896,-151.43636
1393000000,-2.6371853,-151.61635
1394000000,-2.6332488,-151.76387
1395000000,-2.6254344,-151.62273
1396000000,-2.6331768,-151.97658
1397000000,-2.6203115,-152.09769
1398000000,-2.6016989,-152.15324
1399000000,-2.5919058,-152.44174
1400000000,-2.6044986,-152.51909
1401000000,-2.5850866,-152.61075
1402000000,-2.6060317,-152.72499
1403000000,-2.5758498,-153.02934
1404000000,-2.5844545,-153.10504
1405000000,-2.5848887,-153.23297
1406000000,-2.580724,-153.39783
1407000000,-2.5891283,-153.45996
1408000000,-2.5793071,-153.60405
1409000000,-2.5285854,-153.73073
1410000000,-2.5568726,-154.08441
1411000000,-2.5295575,-154.2049
1412000000,-2.5202901,-154.30829
1413000000,-2.5062108,-154.25644
1414000000,-2.522064,-154.54593
1415000000,-2.4973836,-154.67984
1416000000,-2.5054641,-154.70403
1417000000,-2.5020177,-154.8499
1418000000,-2.4955258,-155.1257
1419000000,-2.4791403,-155.29097
1420000000,-2.4998174,-155.1649
1421000000,-2.4735773,-155.53821
1422000000,-2.4708064,-155.67361
1423000000,-2.4480016,-155.63005
1424000000,-2.4634569,-155.93643
1425000000,-2.453387,-155.97151
1426000000,-2.4698668,-156.19847
1427000000,-2.4589615,-156.32248
1428000000,-2.4423943,-156.52614
1429000000,-2.4187376,-156.58182
1430000000,-2.4446671,-156.64255
1431000000,-2.4304123,-156.93704
1432000000,-2.4266217,-157.12073
1433000000,-2.4276459,-157.20581
1434000000,-2.4418919,-157.33496
1435000000,-2.3953404,-157.46161
1436000000,-2.4119594,-157.66063
1437000000,-2.3939986,-157.87427
1438000000,-2.3667197,-158.075
1439000000,-2.4226458,-158.02252
1440000000,-2.3984234,-158.17807
1441000000,-2.3823674,-158.33731
1442000000,-2.3943951,-158.42096
1443000000,-2.3637853,-158.7419
1444000000,-2.3438454,-158.66454
1445000000,-2.3578866,-158.90643
1446000000,-2.3393071,-159.17664
1447000000,-2.3191977,-159.25931
1448000000,-2.340003,-159.55557
1449000000,-2.3291273,-159.47401
1450000000,-2.3666108,-159.70798
1451000000,-2.3262622,-159.82751
1452000000,-2.3089299,-159.94115
1453000000,-2.3363242,-160.14474
1454000000,-2.341645,-160.35188
1455000000,-2.3200841,-160.43822
1456000000,-2.3278673,-160.58775
1457000000,-2.3030961,-160.69231
1458000000,-2.3054984,-161.11157
1459000000,-2.2995064,-161.10243
1460000000,-2.2606008,-161.12755
1461000000,-2.2936642,-161.57547
1462000000,-2.2507045,-161.62061
1463000000,-2.2926195,-161.65385
1464000000,-2.2594573,-161.75389
1465000000,-2.273025,-162.01683
1466000000,-2.2570782,-162.01758
1467000000,-2.2471163,-162.28998
1468000000,-2.2314196,-162.43431
1469000000,-2.2453833,-162.67853
1470000000,-2.2177696,-162.64693
1471000000,-2.220613,-162.83778
1472000000,-2.2123032,-163.05954
1473000000,-2.2016959,-163.21431
1474000000,-2.1990542,-163.2299
1475000000,-2.2414064,-163.57813
1476000000,-2.1900253,-163.67929
1477000000,-2.2038186,-163.71381
1478000000,-2.1918633,-163.67319
1479000000,-2.213026,-164.17216
1480000000,-2.1934953,-164.24094
1481000000,-2.1705492,-164.34776
1482000000,-2.1622753,-164.59351
1483000000,-2.1786516,-164.61751
1484000000,-2.1807172,-164.84198
1485000000,-2.1742296,-165.00316
1486000000,-2.1457856,-165.13358
1487000000,-2.1678307,-165.2533
1488000000,-2.1565299,-165.38496
1489000000,-2.1349084,-165.48462
1490000000,-2.1338873,-165.74036
1491000000,-2.149106,-166.04565
1492000000,-2.1346982,-166.05162
1493000000,-2.1327713,-166.07751
1494000000,-2.1131775,-166.29599
1495000000,-2.1280675,-166.44743
1496000000,-2.1052501,-166.60336
1497000000,-2.1257367,-166.79843
1498000000,-2.1012423,-166.96185
1499000000,-2.0799079,-167.1004
1500000000,-2.1165416,-167.50827
1501000000,-2.1069562,-167.52103
1502000000,-2.1169717,-167.63304
1503000000,-2.0794766,-167.60037
1504000000,-2.0385823,-167.91519
1505000000,-2.0743699,-168.22624
1506000000,-2.0892756,-168.2175
1507000000,-2.0764635,-168.32364
1508000000,-2.0599225,-168.50012
1509000000,-2.0685089,-168.7373
1510000000,-2.0644033,-168.80399
1511000000,-2.0617149,-168.91345
1512000000,-2.0295746,-168.98384
1513000000,-2.0305326,-169.10353
1514000000,-2.0267451,-169.39459
1515000000,-2.0056417,-169.49532
1516000000,-2.0170465,-169.71162
1517000000,-2.0254917,-169.94669
1518000000,-2.0025778,-169.9503
1519000000,-2.0138509,-170.04123
1520000000,-2.010499,-170.41283
1521000000,-2.0010939,-170.47264
1522000000,-2.0011723,-170.61044
1523000000,-2.0169609,-171.02509
1524000000,-2.0150297,-170.94727
1525000000,-1.9755266,-171.13745
1526000000,-1.9861526,-171.4151
1527000000,-1.9929779,-171.51288
1528000000,-1.9932598,-171.59589
1529000000,-1.9785089,-171.80714
1530000000,-1.9848148,-171.86894
1531000000,-1.9744236,-172.05029
1532000000,-1.9785602,-172.2117
1533000000,-1.9655521,-172.32773
1534000000,-1.9503704,-172.6405
1535000000,-1.9637607,-172.85466
1536000000,-1.9165689,-173.04256
1537000000,-1.9501632,-173.0416
1538000000,-1.9202515,-173.14845
1539000000,-1.9531668,-173.4334
1540000000,-1.9429864,-173.4295
1541000000,-1.9401525,-173.74161
1542000000,-1.9395493,-173.87749
1543000000,-1.9447205,-174.25099
1544000000,-1.9083109,-174.04976
1545000000,-1.9369695,-174.31329
1546000000,-1.9202335,-174.43907
1547000000,-1.9257612,-174.77144
1548000000,-1.9235008,-174.65334
1549000000,-1.9074364,-174.98915
1550000000,-1.9391938,-175.29211
1551000000,-1.8961729,-175.31609
1552000000,-1.9017042,-175.43765
1553000000,-1.9079829,-175.78387
1554000000,-1.8890141,-175.67198
1555000000,-1.8927342,-175.83727
1556000000,-1.8714865,-176.0825
1557000000,-1.8959838,-176.2715
1558000000,-1.8912873,-176.38452
1559000000,-1.8730378,-176.60884
1560000000,-1.9052217,-176.83208
1561000000,-1.8557875,-176.90787
1562000000,-1.8774745,-177.11249
1563000000,-1.8953762,-177.11574
1564000000,-1.874213,-177.43059
1565000000,-1.8994466,-177.55333
1566000000,-1.8601698,-177.62558
1567000000,-1.8840538,-177.88837
1568000000,-1.8849797,-178.04001
1569000000,-1.8763592,-178.21672
1570000000,-1.8391727,-178.51466
1571000000,-1.8552709,-178.61755
1572000000,-1.8334163,-178.60098
1573000000,-1.8730563,-178.94252
1574000000,-1.8459481,-178.77187
1575000000,-1.8335508,-179.13522
1576000000,-1.8311321,-179.38388
1577000000,-1.80726,-179.54616
1578000000,-1.835824,-179.76266
1579000000,-1.8178917,-179.98296
1580000000,-1.8240366,-180.01239
1581000000,-1.8224298,-180.14619
1582000000,-1.8494898,-180.34651
1583000000,-1.8310413,-180.65373
1584000000,-1.8368074,-180.72829
1585000000,-1.8189807,-180.77527
1586000000,-1.8411323,-181.10242
1587000000,-1.8209019,-180.97141
1588000000,-1.8241912,-181.36664
1589000000,-1.8115559,-181.56966
1590000000,-1.7997848,-181.54552
1591000000,-1.8118099,-181.89056
1592000000,-1.831019,-181.92059
1593000000,-1.8170577,-182.10007
1594000000,-1.8250536,-182.20235
1595000000,-1.8184499,-182.35614
1596000000,-1.8000796,-182.50778
1597000000,-1.7955754,-182.80255
1598000000,-1.8049529,-183.03101
1599000000,-1.7983189,-183.19341
1600000000,-1.7941216,-183.24115
1601000000,-1.783959,-183.27914
1602000000,-1.7932888,-183.59361
1603000000,-1.7769722,-183.86111
1604000000,-1.8010205,-184.0291
1605000000,-1.7744578,-184.06139
1606000000,-1.7973205,-184.16879
1607000000,-1.8130937,-184.54308
1608000000,-1.7706271,-184.50818
1609000000,-1.7727284,-184.8363
1610000000,-1.7871248,-185.07248
1611000000,-1.8013365,-185.1102
1612000000,-1.7873504,-185.15599
1613000000,-1.7779368,-185.32076
1614000000,-1.7948232,-185.52167
1615000000,-1.7564882,-185.52998
1616000000,-1.8196909,-185.74995
1617000000,-1.7721606,-185.93166
1618000000,-1.7689909,-186.27872
1619000000,-1.7723933,-186.35747
1620000000,-1.7588443,-186.64029
1621000000,-1.7584084,-186.62863
1622000000,-1.769573,-186.74371
1623000000,-1.7687198,-187.08882
1624000000,-1.7565004,-187.07948
1625000000,-1.7708274,-187.36984
1626000000,-1.8010403,-187.41629
1627000000,-1.7560273,-187.65173
1628000000,-1.7852522,-187.7832
1629000000,-1.7767293,-188.0202
1630000000,-1.7637403,-188.25766
1631000000,-1.7878947,-188.31509
1632000000,-1.7350792,-188.42149
1633000000,-1.7507491,-188.66699
1634000000,-1.7939978,-188.72
1635000000,-1.7447016,-189.00038
1636000000,-1.7588744,-189.3056
1637000000,-1.7467166,-189.22923
1638000000,-1.7584993,-189.45706
1639000000,-1.7487655,-189.7151
1640000000,-1.7803293,-189.77933
1641000000,-1.7611246,-189.89522
1642000000,-1.7446504,-190.21513
1643000000,-1.7321725,-190.23747
1644000000,-1.7473998,-190.46124
1645000000,-1.7868499,-190.5876
1646000000,-1.773639,-190.84021
1647000000,-1.7517724,-190.94264
1648000000,-1.7486142,-191.0687
1649000000,-1.7655779,-191.41942
1650000000,-1.7301019,-191.39349
1651000000,-1.7627312,-191.53397
1652000000,-1.7590199,-191.7831
1653000000,-1.7667637,-191.92097
1654000000,-1.7490956,-192.13087
1655000000,-1.7448334,-192.16678
1656000000,-1.770123,-192.18723
1657000000,-1.7790002,-192.47716
1658000000,-1.7765431,-192.65465
1659000000,-1.7649466,-192.84113
1660000000,-1.7627323,-193.15749
1661000000,-1.7828858,-192.99367
1662000000,-1.7698102,-193.36874
1663000000,-1.7696909,-193.25294
1664000000,-1.76688,-193.67261
1665000000,-1.7707928,-193.59332
1666000000,-1.7347202,-193.99773
1667000000,-1.7639385,-194.07944
1668000000,-1.7758954,-194.30984
1669000000,-1.7623136,-194.3485
1670000000,-1.7741772,-194.70261
1671000000,-1.7723285,-194.78845
1672000000,-1.7638175,-194.90182
1673000000,-1.7577791,-195.27202
1674000000,-1.766386,-195.2906
1675000000,-1.7416915,-195.49004
1676000000,-1.7649196,-195.49081
1677000000,-1.7678269,-195.79239
1678000000,-1.7620738,-195.84599
1679000000,-1.8026452,-196.11237
1680000000,-1.7684146,-196.10658
1681000000,-1.7974195,-196.26848
1682000000,-1.7715594,-196.69537
1683000000,-1.7525344,-196.75197
1684000000,-1.7728356,-196.79359
1685000000,-1.7833619,-196.7925
1686000000,-1.788679,-197.14983
1687000000,-1.7694206,-197.34869
1688000000,-1.7888824,-197.4631
1689000000,-1.7721742,-197.66174
1690000000,-1.7887367,-197.71324
1691000000,-1.7730914,-197.78441
1692000000,-1.7713305,-198.24022
1693000000,-1.8119164,-198.4548
1694000000,-1.7623843,-198.67863
1695000000,-1.7729008,-198.6136
1696000000,-1.7662631,-198.90739
1697000000,-1.8219844,-198.94077
1698000000,-1.8059382,-199.0687
1699000000,-1.7609458,-199.27281
1700000000,-1.7835895,-199.36659
1701000000,-1.7747697,-199.65834
1702000000,-1.7960118,-199.84583
1703000000,-1.8109289,-200.00735
1704000000,-1.7851039,-200.00545
1705000000,-1.8081725,-200.21335
1706000000,-1.775165,-200.32814
1707000000,-1.8177043,-200.52454
1708000000,-1.7712476,-200.72681
1709000000,-1.7882788,-200.84785
1710000000,-1.7790303,-200.8524
1711000000,-1.7956145,-200.96498
1712000000,-1.7760814,-201.33392
1713000000,-1.8087232,-201.63707
1714000000,-1.8023214,-201.61507
1715000000,-1.7927094,-201.74196
1716000000,-1.7964809,-201.84828
1717000000,-1.7999383,-202.06422
1718000000,-1.8204426,-202.32198
1719000000,-1.8033218,-202.32941
1720000000,-1.8327967,-202.43678
1721000000,-1.8425399,-202.78798
1722000000,-1.8447133,-202.84549
1723000000,-1.8259592,-202.948
1724000000,-1.8004321,-203.07253
1725000000,-1.853846,-203.14702
1726000000,-1.8315579,-203.58492
1727000000,-1.8221172,-203.59389
1728000000,-1.8505048,-203.58565
1729000000,-1.835783,-204.01488
1730000000,-1.8450089,-204.1153
1731000000,-1.8142847,-204.12712
1732000000,-1.8330535,-204.54393
1733000000,-1.862218,-204.70799
1734000000,-1.8233616,-204.79198
1735000000,-1.8597809,-204.81438
1736000000,-1.8321605,-205.08261
1737000000,-1.8454288,-204.98123
1738000000,-1.8585742,-205.33929
1739000000,-1.8545462,-205.53542
1740000000,-1.893868,-205.60158
1741000000,-1.8627714,-205.7401
1742000000,-1.8583282,-206.00117
1743000000,-1.858458,-206.17256
1744000000,-1.8402478,-206.30966
1745000000,-1.851331,-206.40878
1746000000,-1.871786,-206.44452
1747000000,-1.8804494,-206.78145
1748000000,-1.8806881,-206.99066
1749000000,-1.9084797,-207.00441
1750000000,-1.878195,-207.17139
1751000000,-1.8737798,-207.43501
1752000000,-1.8700167,-207.45251
1753000000,-1.8839365,-207.57703
1754000000,-1.8735349,-207.81352
1755000000,-1.8878598,-208.08781
1756000000,-1.8805525,-208.01283
1757000000,-1.8993243,-208.40523
1758000000,-1.8772765,-208.60637
1759000000,-1.8904954,-208.73824
1760000000,-1.8686543,-208.76413
1761000000,-1.8919309,-208.9077
1762000000,-1.8904878,-209.08333
1763000000,-1.9063387,-209.0323
1764000000,-1.9334388,-209.41338
1765000000,-1.9070642,-209.50662
1766000000,-1.9220048,-209.61043
1767000000,-1.9283315,-209.73654
1768000000,-1.9253892,-209.76756
1769000000,-1.90188,-210.00424
1770000000,-1.9174021,-210.11807
1771000000,-1.9184469,-210.45755
1772000000,-1.8815167,-210.69557
1773000000,-1.9024279,-210.61911
1774000000,-1.9206375,-210.86302
1775000000,-1.9352067,-211.02544
1776000000,-1.9225866,-211.24687
1777000000,-1.9434184,-211.2757
1778000000,-1.9325651,-211.53104
1779000000,-1.9499475,-211.5672
1780000000,-1.9490007,-211.66881
1781000000,-1.9361534,-211.86235
1782000000,-1.9363276,-211.99692
1783000000,-1.9602255,-212.24799
1784000000,-1.956931,-212.31082
1785000000,-1.9493788,-212.3654
1786000000,-1.9513782,-212.6096
1787000000,-1.9478942,-212.79449
1788000000,-1.962577,-212.89108
1789000000,-1.9683466,-213.05414
1790000000,-1.9562196,-213.24113
1791000000,-1.9468287,-213.49715
1792000000,-1.9451383,-213.73479
1793000000,-1.9772724,-213.69656
1794000000,-1.9484986,-213.74506
1795000000,-1.9950249,-213.99034
1796000000,-1.9872888,-214.14703
1797000000,-1.9940506,-214.38312
1798000000,-1.9915583,-214.34499
1799000000,-1.9935386,-214.66943
1800000000,-1.9697337,-214.79507
1801000000,-2.0008042,-214.93947
1802000000,-1.9977787,-214.98935
1803000000,-2.0062263,-215.23859
1804000000,-2.0159895,-215.36049
1805000000,-2.0128896,-215.58182
1806000000,-1.992304,-215.61246
1807000000,-2.0118914,-215.85735
1808000000,-1.9913815,-215.81003
1809000000,-2.0433865,-216.25562
1810000000,-2.0222085,-216.06367
1811000000,-2.0027702,-216.5529
1812000000,-2.0094986,-216.46635
1813000000,-2.0350049,-216.55505
1814000000,-2.0173707,-216.93073
1815000000,-2.0105069,-216.96017
1816000000,-2.0478764,-216.99614
1817000000,-2.0076697,-217.20239
1818000000,-2.012687,-217.34648
1819000000,-2.0834205,-217.61465
1820000000,-2.0548916,-217.82634
1821000000,-2.0452394,-217.71732
1822000000,-2.0591259,-217.93996
1823000000,-2.0748496,-217.94693
1824000000,-2.0249197,-218.27516
1825000000,-2.0488467,-218.33159
1826000000,-2.054816,-218.41019
1827000000,-2.0468743,-218.70618
1828000000,-2.0671897,-218.77914
1829000000,-2.0540681,-218.78491
1830000000,-2.0823154,-219.05923
1831000000,-2.0574317,-219.20131
1832000000,-2.1040499,-219.23346
1833000000,-2.1054499,-219.53893
1834000000,-2.086854,-219.32211
1835000000,-2.0487659,-219.75388
1836000000,-2.0894067,-219.9848
1837000000,-2.0985305,-219.9794
1838000000,-2.0918033,-220.27527
1839000000,-2.1073666,-220.25578
1840000000,-2.105639,-220.40729
1841000000,-2.0960619,-220.72752
1842000000,-2.1120367,-220.88519
1843000000,-2.0847502,-220.96159
1844000000,-2.1552284,-220.91841
1845000000,-2.1057606,-221.11038
1846000000,-2.1198342,-221.53119
1847000000,-2.1383028,-221.46033
1848000000,-2.1279016,-221.65904
1849000000,-2.1368468,-221.71712
1850000000,-2.1313899,-221.79137
1851000000,-2.1317475,-221.93111
1852000000,-2.1344397,-222.07663
1853000000,-2.1393683,-222.36877
1854000000,-2.1663015,-222.34827
1855000000,-2.1582439,-222.81642
1856000000,-2.1691196,-222.72281
1857000000,-2.1328621,-222.93216
1858000000,-2.1471493,-222.98363
1859000000,-2.169193,-223.12117
1860000000,-2.1723588,-223.43271
1861000000,-2.2004673,-223.71916
1862000000,-2.1774106,-223.41516
1863000000,-2.1706858,-223.68741
1864000000,-2.1665175,-223.6729
1865000000,-2.186378,-223.97014
1866000000,-2.1838422,-224.09163
1867000000,-2.1753664,-224.33568
1868000000,-2.2080317,-224.35689
1869000000,-2.203109,-224.35695
1870000000,-2.179358,-224.83627
1871000000,-2.1908171,-224.84731
1872000000,-2.1901562,-224.92783
1873000000,-2.2097137,-225.24129
1874000000,-2.2082176,-225.2115
1875000000,-2.215785,-225.30847
1876000000,-2.1806839,-225.49745
1877000000,-2.2231202,-225.55078
1878000000,-2.2009943,-225.9767
1879000000,-2.2151728,-226.15617
1880000000,-2.2474608,-226.22638
1881000000,-2.217134,-226.03093
1882000000,-2.2169983,-226.49484
1883000000,-2.2270288,-226.44315
1884000000,-2.2327909,-226.522
1885000000,-2.2091222,-226.77602
1886000000,-2.2585824,-226.99721
1887000000,-2.2440965,-227.23845
1888000000,-2.2332711,-227.18042
1889000000,-2.224968,-227.3633
1890000000,-2.2533288,-227.3968
1891000000,-2.2263098,-227.56248
1892000000,-2.2515883,-227.90033
1893000000,-2.2654419,-227.82513
1894000000,-2.2571621,-227.88644
1895000000,-2.2481003,-228.27295
1896000000,-2.2706196,-228.3084
1897000000,-2.2803912,-228.44052
1898000000,-2.2731514,-228.56538
1899000000,-2.2787619,-228.77783
1900000000,-2.2709267,-228.87302
1901000000,-2.2947729,-228.96941
1902000000,-2.2913291,-228.9689
1903000000,-2.2790434,-229.19466
1904000000,-2.3088002,-229.46196
1905000000,-2.2889719,-229.63817
1906000000,-2.2944844,-229.62956
1907000000,-2.2883205,-229.7014
1908000000,-2.288842,-229.79459
1909000000,-2.3008659,-230.26051
1910000000,-2.3230426,-230.16948
1911000000,-2.3193617,-230.35963
1912000000,-2.3238418,-230.50282
1913000000,-2.3265147,-230.45671
1914000000,-2.3476458,-230.60738
1915000000,-2.3112411,-230.79529
1916000000,-2.326967,-230.97052
1917000000,-2.3354571,-231.16396
1918000000,-2.3608525,-231.29445
1919000000,-2.34127,-231.50702
1920000000,-2.3436904,-231.37302
1921000000,-2.3478467,-231.65013
1922000000,-2.360235,-231.9261
1923000000,-2.3454757,-232.05281
1924000000,-2.3453681,-231.83659
1925000000,-2.378098,-232.20198
1926000000,-2.3810899,-232.46689
1927000000,-2.3942528,-232.50079
1928000000,-2.3676612,-232.40033
1929000000,-2.3797615,-232.98912
1930000000,-2.3780234,-232.91737
1931000000,-2.3798614,-232.97488
1932000000,-2.3752365,-233.06253
1933000000,-2.3618875,-233.01942
1934000000,-2.3729501,-233.30954
1935000000,-2.3969951,-233.3873
1936000000,-2.396065,-233.772
1937000000,-2.3624187,-233.71022
1938000000,-2.4164519,-233.99242
1939000000,-2.4046915,-234.20724
1940000000,-2.4185023,-234.23738
1941000000,-2.403476,-234.40742
1942000000,-2.4159482,-234.37474
1943000000,-2.4035151,-234.66124
1944000000,-2.428349,-234.63919
1945000000,-2.3712487,-235.0172
1946000000,-2.4253285,-235.09465
1947000000,-2.4131215,-235.28105
1948000000,-2.4522493,-235.16675
1949000000,-2.4233921,-235.23647
1950000000,-2.4049091,-235.55609
1951000000,-2.4420733,-235.66672
1952000000,-2.4305012,-235.68573
1953000000,-2.4409482,-235.91315
1954000000,-2.4317217,-236.25769
1955000000,-2.4343565,-236.02069
1956000000,-2.4817355,-236.20335
1957000000,-2.4573798,-236.68149
1958000000,-2.4590659,-236.59256
1959000000,-2.4687209,-236.59787
1960000000,-2.4690912,-236.86522
1961000000,-2.4858563,-237.03519
1962000000,-2.4716876,-237.34537
1963000000,-2.472656,-237.46904
1964000000,-2.4609888,-237.30714
1965000000,-2.4804068,-237.64413
1966000000,-2.4686801,-237.63919
1967000000,-2.4822741,-237.73119
1968000000,-2.4959526,-238.10718
1969000000,-2.4326184,-237.98936
1970000000,-2.526664,-238.07187
1971000000,-2.4878411,-238.40981
1972000000,-2.4836397,-238.38612
1973000000,-2.4995754,-238.55679
1974000000,-2.5059459,-238.74478
1975000000,-2.5094931,-238.87555
1976000000,-2.4870489,-238.95464
1977000000,-2.5236831,-238.88171
1978000000,-2.4841712,-239.15222
1979000000,-2.5232081,-239.30434
1980000000,-2.5248704,-239.28735
1981000000,-2.50894,-239.74887
1982000000,-2.5282068,-239.60712
1983000000,-2.5346642,-239.90198
1984000000,-2.5321634,-239.96234
1985000000,-2.5341406,-240.11546
1986000000,-2.5537155,-240.27797
1987000000,-2.5484955,-240.37021
1988000000,-2.5419834,-240.5661
1989000000,-2.5484192,-240.48277
1990000000,-2.5756454,-240.59123
1991000000,-2.5550227,-240.99831
1992000000,-2.5470107,-241.1409
1993000000,-2.544239,-241.20988
1994000000,-2.5440991,-241.24275
1995000000,-2.5715976,-241.29955
1996000000,-2.5632029,-241.5686
1997000000,-2.5530028,-241.55951
1998000000,-2.5678873,-241.66991
1999000000,-2.569459,-242.0544
2000000000,-2.5845361,-242.1911
2001000000,-2.5865419,-242.22725
2002000000,-2.5766473,-242.02095
2003000000,-2.6255519,-242.60852
2004000000,-2.5902617,-242.54279
2005000000,-2.5869684,-242.80331
2006000000,-2.6168902,-242.87468
2007000000,-2.6232233,-242.70413
2008000000,-2.5953159,-243.09128
2009000000,-2.6147132,-243.26662
2010000000,-2.5836461,-243.24294
2011000000,-2.6092625,-243.24973
2012000000,-2.6145401,-243.47652
2013000000,-2.6476493,-243.6882
2014000000,-2.6026907,-243.69919
2015000000,-2.6206381,-243.8588
2016000000,-2.6498981,-244.16986
2017000000,-2.6056261,-244.30319
2018000000,-2.6009526,-244.16162
2019000000,-2.6513147,-244.64113
2020000000,-2.6432049,-244.59132
2021000000,-2.6455832,-244.77832
2022000000,-2.6533372,-244.80478
2023000000,-2.634805,-244.94583
2024000000,-2.6201148,-245.10931
2025000000,-2.6508527,-245.44559
2026000000,-2.649889,-245.27686
2027000000,-2.65062,-245.53781
2028000000,-2.644402,-245.65421
2029000000,-2.656152,-245.51877
2030000000,-2.6595206,-245.67947
2031000000,-2.6654928,-245.85834
2032000000,-2.6498744,-246.05989
2033000000,-2.6539295,-246.17737
2034000000,-2.6744938,-246.25343
2035000000,-2.6617115,-246.44321
2036000000,-2.6714165,-246.67958
2037000000,-2.6991477,-246.74553
2038000000,-2.6680727,-246.84105
2039000000,-2.6912489,-246.75748
2040000000,-2.7041397,-247.08499
2041000000,-2.6920476,-247.14288
2042000000,-2.6823461,-247.33076
2043000000,-2.7022884,-247.55351
2044000000,-2.7116213,-247.64824
2045000000,-2.7067468,-247.66414
2046000000,-2.6586378,-247.89439
2047000000,-2.699276,-247.98114
2048000000,-2.7062731,-248.04111
2049000000,-2.7188075,-248.23238
2050000000,-2.7394519,-248.35855
2051000000,-2.7164927,-248.62878
2052000000,-2.7106051,-248.73164
2053000000,-2.6878862,-248.72525
2054000000,-2.701807,-248.88948
2055000000,-2.7119515,-249.09137
2056000000,-2.725457,-249.02663
2057000000,-2.7633049,-249.19826
2058000000,-2.7384615,-249.45775
2059000000,-2.7211404,-249.5282
2060000000,-2.7290647,-249.62486
2061000000,-2.7429173,-249.78526
2062000000,-2.7491348,-249.77458
2063000000,-2.7478492,-249.78087
2064000000,-2.7325804,-250.20833
2065000000,-2.7553928,-250.16623
2066000000,-2.7670875,-250.26134
2067000000,-2.7403147,-250.49557
2068000000,-2.7555535,-250.74748
2069000000,-2.7444491,-250.72417
2070000000,-2.7528865,-250.84129
2071000000,-2.7712536,-251.0199
2072000000,-2.7453189,-250.97342
2073000000,-2.7597728,-251.11557
2074000000,-2.7641101,-251.14951
2075000000,-2.7931712,-251.58234
2076000000,-2.7764256,-251.69452
2077000000,-2.7635298,-251.79214
2078000000,-2.7665448,-251.93082
2079000000,-2.8009403,-251.91736
2080000000,-2.7839813,-252.05075
2081000000,-2.781333,-252.37521
2082000000,-2.7919223,-252.21722
2083000000,-2.8004019,-252.48491
2084000000,-2.7980654,-252.60173
2085000000,-2.8110435,-252.75601
2086000000,-2.7941475,-252.84386
2087000000,-2.7960942,-252.99344
2088000000,-2.8094289,-253.11917
2089000000,-2.8027499,-253.07449
2090000000,-2.7865546,-253.26154
2091000000,-2.7760863,-253.43242
2092000000,-2.810739,-253.56154
2093000000,-2.8319409,-253.64548
2094000000,-2.790874,-253.66826
2095000000,-2.816344,-253.99788
2096000000,-2.8015418,-254.21443
2097000000,-2.8037045,-254.11479
2098000000,-2.8089621,-254.28387
2099000000,-2.8030829,-254.33972
2100000000,-2.8235025,-254.70464
2101000000,-2.8073905,-254.67308
2102000000,-2.8329921,-254.81259
2103000000,-2.8374505,-255.05692
2104000000,-2.8457594,-255.01721
2105000000,-2.8429482,-255.08646
2106000000,-2.8424413,-255.17191
2107000000,-2.865145,-255.31813
2108000000,-2.8470016,-255.55014
2109000000,-2.8390157,-255.3743
2110000000,-2.8679199,-255.77017
2111000000,-2.8656473,-255.99263
2112000000,-2.8528929,-256.10239
2113000000,-2.8847988,-256.33279
2114000000,-2.8669283,-256.15759
2115000000,-2.867048,-256.54831
2116000000,-2.8584685,-256.53552
2117000000,-2.8420563,-256.63348
2118000000,-2.8818655,-256.66702
2119000000,-2.8609977,-256.6394
2120000000,-2.8762305,-256.77328
2121000000,-2.866749,-257.06479
2122000000,-2.9000871,-257.19614
2123000000,-2.8626163,-257.21854
2124000000,-2.88835,-257.61832
2125000000,-2.8943172,-257.75519
2126000000,-2.8763547,-257.77197
2127000000,-2.880861,-257.87347
2128000000,-2.9221153,-257.94772
2129000000,-2.8991137,-258.20715
2130000000,-2.9039457,-257.97574
2131000000,-2.8967743,-258.41019
2132000000,-2.9123573,-258.25476
2133000000,-2.9034865,-258.45007
2134000000,-2.9268792,-258.82037
2135000000,-2.9125669,-258.86252
2136000000,-2.9228308,-258.91422
2137000000,-2.9021344,-258.95279
2138000000,-2.9136918,-259.24323
2139000000,-2.9391744,-259.49463
2140000000,-2.9479554,-259.4165
2141000000,-2.9337437,-259.32947
2142000000,-2.9403827,-259.56619
2143000000,-2.9386394,-259.67346
2144000000,-2.9100025,-259.75156
2145000000,-2.9414296,-260.06265
2146000000,-2.9254913,-260.23904
2147000000,-2.9664469,-260.48083
2148000000,-2.9149871,-260.23187
2149000000,-2.9216166,-260.49051
2150000000,-2.9228728,-260.53656
2151000000,-2.9164648,-260.72345
2152000000,-2.9528601,-260.85623
2153000000,-2.9338579,-261.01343
2154000000,-2.9381998,-261.11887
2155000000,-2.9573574,-261.23444
2156000000,-2.9441569,-261.26593
2157000000,-2.9392743,-261.64676
2158000000,-2.9248059,-261.4819
2159000000,-2.9654391,-261.5408
2160000000,-2.9690058,-261.86395
2161000000,-2.9744956,-262.0405
2162000000,-2.9590394,-262.21448
2163000000,-2.9608924,-262.00455
2164000000,-2.9736056,-262.24713
2165000000,-2.9738879,-262.41919
2166000000,-2.9730999,-262.57776
2167000000,-2.9799888,-262.56503
2168000000,-2.9555149,-262.96161
2169000000,-2.9999096,-262.73975
2170000000,-2.9675145,-262.95248
2171000000,-2.9712512,-263.14282
2172000000,-2.9693644,-263.3187
2173000000,-2.9731481,-263.59381
2174000000,-2.9809871,-263.50128
2175000000,-2.9728034,-263.74933
2176000000,-3.0096252,-263.74429
2177000000,-2.9960608,-263.8912
2178000000,-2.9693611,-264.14746
2179000000,-2.9886308,-264.12711
2180000000,-3.0193017,-264.10413
2181000000,-2.9896379,-264.36786
2182000000,-2.9943645,-264.46524
2183000000,-3.0077755,-264.49872
2184000000,-3.0034626,-264.64664
2185000000,-3.0012858,-264.8176
2186000000,-2.9939122,-264.78116
2187000000,-3.0171366,-265.12292
2188000000,-3.0226605,-265.34286
2189000000,-3.0102131,-265.36838
2190000000,-3.0029583,-265.2742
2191000000,-3.0102916,-265.63068
2192000000,-3.0208347,-265.48117
2193000000,-3.0300944,-265.84586
2194000000,-3.0394626,-265.85321
2195000000,-3.044522,-266.02673
2196000000,-3.0349007,-266.2323
2197000000,-3.0432944,-266.29614
2198000000,-2.9995742,-266.29483
2199000000,-3.018981,-266.63449
2200000000,-3.0404506,-266.72797
2201000000,-3.0341434,-266.95941
2202000000,-3.0299273,-266.75543
2203000000,-3.0263803,-267.02325
2204000000,-3.0437579,-267.20715
2205000000,-3.0454566,-267.17709
2206000000,-3.0567338,-267.19049
2207000000,-3.0422142,-267.44183
2208000000,-3.0419924,-267.65399
2209000000,-3.0482156,-267.6925
2210000000,-3.0588272,-267.73932
2211000000,-3.0673063,-268.00104
2212000000,-3.0761416,-268.06567
2213000000,-3.0723722,-268.13263
2214000000,-3.036618,-268.33023
2215000000,-3.0488987,-268.31274
2216000000,-3.0688903,-268.63474
2217000000,-3.0455956,-268.67404
2218000000,-3.0765035,-268.87155
2219000000,-3.0452232,-268.96167
2220000000,-3.0657673,-268.93518
2221000000,-3.0648289,-269.2207
2222000000,-3.075717,-269.09848
2223000000,-3.0801435,-269.40396
2224000000,-3.0743129,-269.48587
2225000000,-3.1027799,-269.52869
2226000000,-3.0621665,-269.72043
2227000000,-3.1029167,-269.84995
2228000000,-3.0679059,-269.90378
2229000000,-3.0819736,-270.1879
2230000000,-3.0872784,-270.27441
2231000000,-3.0926476,-270.46774
2232000000,-3.1210024,-270.42621
2233000000,-3.1335821,-270.59491
2234000000,-3.1069505,-270.59824
2235000000,-3.0777993,-270.84766
2236000000,-3.1191211,-270.83569
2237000000,-3.1121659,-271.21548
2238000000,-3.0916693,-271.14288
2239000000,-3.0961998,-271.20453
2240000000,-3.1124954,-271.40173
2241000000,-3.1030104,-271.42258
2242000000,-3.1351194,-271.61731
2243000000,-3.124157,-271.73193
2244000000,-3.0914752,-271.78412
2245000000,-3.0988581,-271.93756
2246000000,-3.0999448,-271.80576
2247000000,-3.1335769,-272.22244
2248000000,-3.0923841,-272.22501
2249000000,-3.1135077,-272.44016
2250000000,-3.1299989,-272.52277
2251000000,-3.1161561,-272.64304
2252000000,-3.1290231,-272.79953
2253000000,-3.1274023,-272.7551
2254000000,-3.1140549,-272.84012
2255000000,-3.1298192,-273.11227
2256000000,-3.1107943,-273.26782
2257000000,-3.1211598,-273.246
2258000000,-3.1595526,-273.47141
2259000000,-3.1436226,-273.69476
2260000000,-3.138793,-273.67883
2261000000,-3.133229,-273.76978
2262000000,-3.1403904,-273.95422
2263000000,-3.138978,-274.15985
2264000000,-3.1374576,-274.20193
2265000000,-3.138334,-274.20786
2266000000,-3.1327071,-274.3316
2267000000,-3.1364794,-274.55823
2268000000,-3.1320462,-274.65146
2269000000,-3.1373968,-274.74872
2270000000,-3.1512008,-274.75824
2271000000,-3.1387887,-274.98526
2272000000,-3.1782265,-275.13062
2273000000,-3.1660762,-275.22037
2274000000,-3.1690166,-275.43451
2275000000,-3.1473048,-275.48853
2276000000,-3.1567633,-275.44824
2277000000,-3.1448989,-275.78506
2278000000,-3.1917033,-275.75082
2279000000,-3.1833637,-275.76434
2280000000,-3.1577477,-276.08917
2281000000,-3.1454511,-276.2338
2282000000,-3.1431592,-276.33344
2283000000,-3.1373169,-276.43579
2284000000,-3.1721234,-276.54349
2285000000,-3.153039,-276.57129
2286000000,-3.1472776,-277.1174
2287000000,-3.1590505,-276.92294
2288000000,-3.1460485,-277.0488
2289000000,-3.1634951,-277.05292
2290000000,-3.1784897,-277.13821
2291000000,-3.1944051,-277.48392
2292000000,-3.1765573,-277.32016
2293000000,-3.1810255,-277.8269
2294000000,-3.1676843,-277.60837
2295000000,-3.1875277,-277.77667
2296000000,-3.1793103,-278.28162
2297000000,-3.187254,-278.00934
2298000000,-3.1838217,-278.29016
2299000000,-3.1719196,-278.17911
2300000000,-3.1632164,-278.51849
2301000000,-3.1859014,-278.75653
2302000000,-3.1779013,-278.73001
2303000000,-3.2021654,-278.75027
2304000000,-3.2122886,-278.91144
2305000000,-3.1838179,-278.78857
2306000000,-3.2034431,-279.0202
2307000000,-3.2231889,-279.22556
2308000000,-3.1955109,-279.24432
2309000000,-3.2068341,-279.38196
2310000000,-3.1968014,-279.51187
2311000000,-3.1958261,-279.69058
2312000000,-3.2142675,-279.77731
2313000000,-3.2198367,-279.87677
2314000000,-3.2162268,-279.89209
2315000000,-3.2099981,-280.21271
2316000000,-3.1888533,-280.31845
2317000000,-3.1983881,-280.12766
2318000000,-3.209286,-280.42865
2319000000,-3.1760511,-280.6582
2320000000,-3.2143443,-280.88123
2321000000,-3.206419,-280.7879
2322000000,-3.1962326,-281.10571
2323000000,-3.1656854,-281.10468
2324000000,-3.1991673,-281.17694
2325000000,-3.2182221,-281.29413
2326000000,-3.2217047,-281.27594
2327000000,-3.2087204,-281.50574
2328000000,-3.2313325,-281.89801
2329000000,-3.2173316,-281.83267
2330000000,-3.2155447,-281.91327
2331000000,-3.2287557,-281.8974
2332000000,-3.2350554,-282.17218
2333000000,-3.2674937,-282.37552
2334000000,-3.2010984,-282.42422
2335000000,-3.2306869,-282.72696
2336000000,-3.1917799,-282.47308
2337000000,-3.2618046,-282.79718
2338000000,-3.2204506,-282.83679
2339000000,-3.2205791,-282.98749
2340000000,-3.2032259,-283.01059
2341000000,-3.2498629,-283.061
2342000000,-3.2245078,-283.29037
2343000000,-3.2283254,-283.53177
2344000000,-3.2282152,-283.47647
2345000000,-3.2051103,-283.35471
2346000000,-3.2687445,-283.9248
2347000000,-3.2376227,-283.80518
2348000000,-3.2156456,-283.92599
2349000000,-3.2441542,-284.13489
2350000000,-3.245549,-284.16425
2351000000,-3.2220404,-284.2757
2352000000,-3.2203646,-284.60397
2353000000,-3.2234921,-284.57764
2354000000,-3.2373142,-284.6286
2355000000,-3.2408617,-284.71967
2356000000,-3.2433422,-284.98114
2357000000,-3.2543626,-285.08853
2358000000,-3.2713389,-285.12585
2359000000,-3.2584128,-285.28583
2360000000,-3.2650528,-285.42154
2361000000,-3.2405002,-285.25204
2362000000,-3.2223654,-285.3898
2363000000,-3.2352211,-285.63614
2364000000,-3.2355042,-285.9097
2365000000,-3.2699809,-286.05124
2366000000,-3.2626593,-285.98022
2367000000,-3.2510667,-286.18964
2368000000,-3.2173417,-286.28122
2369000000,-3.2434824,-286.42685
2370000000,-3.2462521,-286.35892
2371000000,-3.2367651,-286.54092
2372000000,-3.2813377,-287.03159
2373000000,-3.2304108,-286.97699
2374000000,-3.2619967,-287.02744
2375000000,-3.2422407,-287.19016
2376000000,-3.239337,-287.25418
2377000000,-3.2395589,-287.39874
2378000000,-3.2937865,-287.59091
2379000000,-3.2635684,-287.65262
2380000000,-3.2670045,-287.88052
2381000000,-3.2649279,-287.89297
2382000000,-3.3049152,-287.94312
2383000000,-3.26402,-288.20288
2384000000,-3.2734413,-287.97409
2385000000,-3.2982268,-288.27191
2386000000,-3.2356133,-288.55499
2387000000,-3.2524414,-288.55707
2388000000,-3.2430069,-288.65237
2389000000,-3.2894845,-288.82285
2390000000,-3.2949533,-288.81802
2391000000,-3.2710423,-289.04535
2392000000,-3.2381411,-289.04425
2393000000,-3.2721245,-289.15979
2394000000,-3.2760043,-289.3154
2395000000,-3.2651517,-289.34619
2396000000,-3.2654734,-289.7153
2397000000,-3.2696416,-289.6022
2398000000,-3.2943976,-289.74429
2399000000,-3.2914097,-289.91916
2400000000,-3.2828505,-290.12604
2401000000,-3.2723546,-290.23096
2402000000,-3.2936337,-290.13327
2403000000,-3.2635319,-290.42828
2404000000,-3.2688944,-290.40286
2405000000,-3.2799945,-290.63501
2406000000,-3.2871609,-290.67825
2407000000,-3.2765286,-290.7746
2408000000,-3.2757258,-291.08484
2409000000,-3.2725461,-290.97195
2410000000,-3.3018038,-291.32166
2411000000,-3.2827461,-291.33026
2412000000,-3.2915678,-291.51245
2413000000,-3.2643538,-291.57349
2414000000,-3.2737136,-291.73828
2415000000,-3.2943048,-291.8985
2416000000,-3.2543769,-291.98462
2417000000,-3.3161747,-292.06662
2418000000,-3.2774026,-292.20758
2419000000,-3.2817674,-292.16348
2420000000,-3.2784033,-292.24942
2421000000,-3.2697575,-292.54349
2422000000,-3.2596993,-292.66217
2423000000,-3.2662797,-292.56949
2424000000,-3.2785747,-292.82639
2425000000,-3.2894399,-292.95752
2426000000,-3.2980816,-292.84949
2427000000,-3.2681217,-293.19962
2428000000,-3.2593265,-293.32422
2429000000,-3.2853174,-293.34344
2430000000,-3.3087087,-293.25839
2431000000,-3.2896745,-293.65808
2432000000,-3.282038,-293.70789
2433000000,-3.3026361,-293.92404
2434000000,-3.258007,-294.06039
2435000000,-3.3168855,-293.97107
2436000000,-3.2888799,-294.32495
2437000000,-3.3071871,-294.37384
2438000000,-3.2543309,-294.54132
2439000000,-3.2757566,-294.26505
2440000000,-3.2911558,-294.6293
2441000000,-3.2571726,-294.73798
2442000000,-3.3009906,-294.98141
2443000000,-3.2873368,-294.93472
2444000000,-3.3024945,-295.06589
2445000000,-3.3287148,-295.33438
2446000000,-3.2930622,-295.18402
2447000000,-3.3165662,-295.61826
2448000000,-3.3079088,-295.65396
2449000000,-3.2946148,-295.62314
2450000000,-3.2826147,-296.02499
2451000000,-3.2723446,-295.77658
2452000000,-3.2828677,-296.13272
2453000000,-3.2901018,-296.15146
2454000000,-3.2575715,-296.34961
2455000000,-3.3191435,-296.47214
2456000000,-3.30023,-296.47784
2457000000,-3.2884386,-296.6517
2458000000,-3.2279944,-296.78708
2459000000,-3.3112712,-296.87036
2460000000,-3.2640295,-297.1416
2461000000,-3.2883658,-297.13275
2462000000,-3.2861922,-297.32831
2463000000,-3.2817922,-297.45651
2464000000,-3.2972512,-297.74011
2465000000,-3.3079214,-297.6265
2466000000,-3.2640378,-297.85843
2467000000,-3.2904437,-297.83539
2468000000,-3.2866621,-297.71069
2469000000,-3.2839086,-298.29504
2470000000,-3.2840154,-298.17496
2471000000,-3.3277481,-298.28497
2472000000,-3.3022685,-298.50208
2473000000,-3.2692232,-298.58502
2474000000,-3.3146894,-298.67105
2475000000,-3.3171093,-299.03867
2476000000,-3.3084486,-299.14346
2477000000,-3.2866273,-299.13049
2478000000,-3.3056319,-299.23859
2479000000,-3.3160477,-299.16498
2480000000,-3.3156135,-299.47372
2481000000,-3.3061469,-299.48792
2482000000,-3.3025844,-299.38217
2483000000,-3.2877119,-299.62375
2484000000,-3.2949126,-299.59961
2485000000,-3.3225293,-299.77719
2486000000,-3.3252234,-300.05743
2487000000,-3.338933,-300.16119
2488000000,-3.3020916,-300.3533
2489000000,-3.3145623,-300.61267
2490000000,-3.2873209,-300.53113
2491000000,-3.2979443,-300.7262
2492000000,-3.2964857,-300.84775
2493000000,-3.3057127,-300.92813
2494000000,-3.2970464,-301.01294
2495000000,-3.3129487,-301.06757
2496000000,-3.3286917,-301.39911
2497000000,-3.3292322,-301.56158
2498000000,-3.3268914,-301.30365
2499000000,-3.3055878,-301.64264
2500000000,-3.31337,-301.75116
2501000000,-3.3027067,-301.98334
2502000000,-3.2923846,-302.00983
2503000000,-3.3121572,-302.10507
2504000000,-3.3041973,-302.04251
2505000000,-3.3093431,-302.15915
2506000000,-3.281997,-302.33127
2507000000,-3.3047018,-302.39825
2508000000,-3.2929211,-302.53937
2509000000,-3.3067596,-302.80261
2510000000,-3.2966073,-302.71909
2511000000,-3.3065908,-302.89804
2512000000,-3.3167522,-303.11368
2513000000,-3.3368316,-303.1171
2514000000,-3.3287504,-303.46021
2515000000,-3.3038509,-303.36505
2516000000,-3.2948167,-303.58051
2517000000,-3.2791855,-303.68359
2518000000,-3.3352895,-303.82462
2519000000,-3.2897761,-303.92618
2520000000,-3.300565,-304.08804
2521000000,-3.3283131,-304.17725
2522000000,-3.3168142,-304.25107
2523000000,-3.288399,-304.23242
2524000000,-3.3143899,-304.38068
2525000000,-3.2945616,-304.36826
2526000000,-3.3164089,-304.68484
2527000000,-3.3146091,-304.83578
2528000000,-3.3097389,-304.97449
2529000000,-3.2952137,-305.04321
2530000000,-3.2841456,-305.25214
2531000000,-3.3164053,-305.52182
2532000000,-3.2962685,-305.20526
2533000000,-3.3185887,-305.58954
2534000000,-3.3341546,-305.72018
2535000000,-3.3409889,-306.11298
2536000000,-3.3010232,-305.74719
2537000000,-3.3194883,-306.0705
2538000000,-3.3378494,-306.0531
2539000000,-3.3219624,-306.28278
2540000000,-3.3206887,-306.22815
2541000000,-3.318284,-306.52728
2542000000,-3.3454108,-306.5957
2543000000,-3.2843626,-306.73746
2544000000,-3.2952633,-306.8208
2545000000,-3.3181231,-306.90152
2546000000,-3.3117578,-307.03922
2547000000,-3.3028178,-307.14615
2548000000,-3.3263485,-307.25574
2549000000,-3.3291993,-307.3468
2550000000,-3.310915,-307.45068
2551000000,-3.2834747,-307.6875
2552000000,-3.312566,-307.92484
2553000000,-3.3256006,-307.65973
2554000000,-3.2980397,-307.93655
2555000000,-3.279623,-308.14813
2556000000,-3.2902799,-308.40967
2557000000,-3.3107889,-308.30408
2558000000,-3.3016722,-308.38464
2559000000,-3.3210695,-308.34567
2560000000,-3.2884314,-308.65396
2561000000,-3.2851498,-308.57349
2562000000,-3.299901,-308.68829
2563000000,-3.2961009,-309.13132
2564000000,-3.3075647,-308.99234
2565000000,-3.3026071,-309.34552
2566000000,-3.2933977,-309.20575
2567000000,-3.3343239,-309.73358
2568000000,-3.3028219,-309.59216
2569000000,-3.3081851,-309.68927
2570000000,-3.3209989,-310.0824
2571000000,-3.2804844,-309.89847
2572000000,-3.297533,-310.26614
2573000000,-3.3189585,-310.3699
2574000000,-3.2949049,-310.21555
2575000000,-3.3116515,-310.34921
2576000000,-3.3047342,-310.65332
2577000000,-3.3344226,-310.61829
2578000000,-3.3003795,-310.82751
2579000000,-3.2921805,-311.0061
2580000000,-3.3145745,-311.06693
2581000000,-3.2991216,-311.16071
2582000000,-3.3245902,-311.48666
2583000000,-3.3035583,-311.26093
2584000000,-3.2688203,-311.66782
2585000000,-3.3240542,-311.58511
2586000000,-3.2884023,-311.6171
2587000000,-3.2908614,-311.8941
2588000000,-3.2927694,-311.92548
2589000000,-3.2935426,-312.24945
2590000000,-3.3280184,-312.11282
2591000000,-3.3054442,-312.33957
2592000000,-3.3033047,-312.61804
2593000000,-3.2779853,-312.55405
2594000000,-3.3307245,-312.65836
2595000000,-3.2969792,-312.90759
2596000000,-3.2865772,-312.88611
2597000000,-3.288857,-313.20313
2598000000,-3.2729628,-313.32382
2599000000,-3.2878549,-313.60168
2600000000,-3.3099813,-313.48254
2601000000,-3.3177109,-313.66217
2602000000,-3.2932796,-313.491
2603000000,-3.2901025,-313.64719
2604000000,-3.3171852,-313.85321
2605000000,-3.3332508,-314.07849
2606000000,-3.28385,-314.18222
2607000000,-3.32199,-314.30441
2608000000,-3.2894537,-314.36292
2609000000,-3.2973406,-314.44281
2610000000,-3.2943921,-314.30051
2611000000,-3.2823093,-314.61179
2612000000,-3.2979765,-314.81146
2613000000,-3.3087745,-314.95581
2614000000,-3.3190892,-315.07285
2615000000,-3.318013,-315.3501
2616000000,-3.3027697,-315.16711
2617000000,-3.3055623,-315.10815
2618000000,-3.3280129,-315.46976
2619000000,-3.3125067,-315.65311
2620000000,-3.284091,-315.73615
2621000000,-3.2806458,-315.91364
2622000000,-3.2911646,-316.0806
2623000000,-3.271929,-316.12158
2624000000,-3.2678664,-316.18433
2625000000,-3.2729867,-316.39548
2626000000,-3.2740188,-316.6449
2627000000,-3.2683804,-316.62888
2628000000,-3.2699754,-316.70657
2629000000,-3.2964947,-316.89606
2630000000,-3.2960846,-316.94315
2631000000,-3.2649577,-317.03543
2632000000,-3.2985983,-317.04376
2633000000,-3.305244,-317.22858
2634000000,-3.2989979,-317.45493
2635000000,-3.2878129,-317.51141
2636000000,-3.2437117,-317.95642
2637000000,-3.2865396,-317.8573
2638000000,-3.2891541,-317.80411
2639000000,-3.2877789,-317.92545
2640000000,-3.30955,-318.04401
2641000000,-3.3009083,-318.09604
2642000000,-3.2910802,-318.44565
2643000000,-3.2563133,-318.42941
2644000000,-3.2702982,-318.46478
2645000000,-3.3229845,-318.7796
2646000000,-3.3121881,-318.96786
2647000000,-3.2870052,-318.99225
2648000000,-3.2623036,-319.06219
2649000000,-3.2887928,-319.11905
2650000000,-3.2401931,-319.1442
2651000000,-3.3045959,-319.50458
2652000000,-3.2720506,-319.38205
2653000000,-3.2870004,-319.81418
2654000000,-3.2856402,-319.91498
2655000000,-3.2767184,-319.71555
2656000000,-3.2782543,-320.13483
2657000000,-3.278676,-320.05609
2658000000,-3.2942259,-320.26746
2659000000,-3.2555888,-320.09573
2660000000,-3.2935581,-320.49109
2661000000,-3.3022597,-320.6814
2662000000,-3.2764161,-320.74771
2663000000,-3.261616,-320.97238
2664000000,-3.2822714,-320.86569
2665000000,-3.2746499,-320.96722
2666000000,-3.282336,-321.1626
2667000000,-3.26195,-321.56937
2668000000,-3.27301,-321.3284
2669000000,-3.2683644,-321.50262
2670000000,-3.281882,-321.61853
2671000000,-3.2532871,-321.70947
2672000000,-3.2586768,-321.81955
2673000000,-3.2517028,-322.23502
2674000000,-3.2619126,-322.23306
2675000000,-3.2576396,-322.25885
2676000000,-3.2635646,-322.26947
2677000000,-3.2612934,-322.54553
2678000000,-3.2550414,-322.54535
2679000000,-3.2549133,-322.76434
2680000000,-3.2761741,-322.70667
2681000000,-3.2663877,-323.15451
2682000000,-3.2647896,-323.11078
2683000000,-3.2616475,-323.24225
2684000000,-3.2692778,-323.24265
2685000000,-3.2322371,-323.46637
2686000000,-3.2778769,-323.56113
2687000000,-3.2631307,-323.66129
2688000000,-3.2837892,-323.70978
2689000000,-3.2727575,-323.80142
2690000000,-3.279125,-324.00717
2691000000,-3.2257447,-324.11252
2692000000,-3.2703605,-324.28455
2693000000,-3.2578843,-324.37234
2694000000,-3.2190423,-324.53989
2695000000,-3.2288847,-324.62494
2696000000,-3.2648532,-325.04443
2697000000,-3.2882829,-325.06357
2698000000,-3.2576892,-325.1889
2699000000,-3.2857993,-325.09729
2700000000,-3.2568889,-325.45105
2701000000,-3.2485442,-325.36154
2702000000,-3.2277961,-325.59836
2703000000,-3.2455478,-325.66672
2704000000,-3.2913496,-325.56442
2705000000,-3.2799971,-325.90262
2706000000,-3.249537,-325.92273
2707000000,-3.2370958,-326.12952
2708000000,-3.2471476,-326.03387
2709000000,-3.2172275,-326.58572
2710000000,-3.2482612,-326.46292
2711000000,-3.2679203,-326.50394
2712000000,-3.2393181,-326.84564
2713000000,-3.257648,-326.81192
2714000000,-3.2499013,-326.88968
2715000000,-3.2500837,-326.97296
2716000000,-3.2648497,-327.38602
2717000000,-3.2717288,-327.06812
2718000000,-3.2446334,-327.37656
2719000000,-3.2641301,-327.69028
2720000000,-3.2479486,-327.57321
2721000000,-3.2386675,-327.88037
2722000000,-3.2469618,-327.97635
2723000000,-3.2432423,-327.93408
2724000000,-3.2576087,-327.96109
2725000000,-3.2798736,-328.13086
2726000000,-3.2604189,-328.41754
2727000000,-3.2483289,-328.46542
2728000000,-3.2353482,-328.43414
2729000000,-3.2140296,-328.69101
2730000000,-3.2306669,-328.61661
2731000000,-3.2299585,-329.00793
2732000000,-3.2368107,-329.09995
2733000000,-3.2439618,-329.19656
2734000000,-3.2137709,-329.41202
2735000000,-3.1960278,-329.41885
2736000000,-3.2157454,-329.42029
2737000000,-3.225842,-329.64761
2738000000,-3.2393434,-329.80908
2739000000,-3.1899931,-329.87228
2740000000,-3.214942,-330.05484
2741000000,-3.2162428,-330.05655
2742000000,-3.1951656,-330.17853
2743000000,-3.1851556,-330.33585
2744000000,-3.1917739,-330.38599
2745000000,-3.1949444,-330.5791
2746000000,-3.2275827,-330.70395
2747000000,-3.2395763,-330.8392
2748000000,-3.1978512,-331.08688
2749000000,-3.2095535,-331.02545
2750000000,-3.1963527,-331.31754
2751000000,-3.2142491,-331.19174
2752000000,-3.1794884,-331.45898
2753000000,-3.1918254,-331.54907
2754000000,-3.1543431,-331.81229
2755000000,-3.2047312,-331.69061
2756000000,-3.19696,-331.91556
2757000000,-3.1832519,-331.94009
2758000000,-3.1835454,-332.04822
2759000000,-3.2248147,-332.46991
2760000000,-3.2166719,-332.30197
2761000000,-3.2494571,-332.71353
2762000000,-3.2213717,-332.77118
2763000000,-3.193238,-332.79837
2764000000,-3.1971912,-332.73804
2765000000,-3.2076795,-333.07281
2766000000,-3.1913607,-333.14594
2767000000,-3.1791885,-333.30643
2768000000,-3.2104349,-333.39526
2769000000,-3.1684177,-333.48788
2770000000,-3.1957703,-333.58975
2771000000,-3.1997356,-333.76013
2772000000,-3.211194,-333.88443
2773000000,-3.2221889,-333.79761
2774000000,-3.1946485,-334.31839
2775000000,-3.1776664,-334.29395
2776000000,-3.2251399,-334.34015
2777000000,-3.1891603,-334.69537
2778000000,-3.2405453,-334.64877
2779000000,-3.1934633,-334.69382
2780000000,-3.1842146,-334.92117
2781000000,-3.2110536,-335.00403
2782000000,-3.1808002,-335.12018
2783000000,-3.2011433,-335.16064
2784000000,-3.1798227,-335.4693
2785000000,-3.1490066,-335.38013
2786000000,-3.1378398,-335.51535
2787000000,-3.2111244,-335.68973
2788000000,-3.1568146,-335.83362
2789000000,-3.1702974,-335.89563
2790000000,-3.1931674,-336.0314
2791000000,-3.166126,-336.08371
2792000000,-3.1581676,-336.2554
2793000000,-3.1818936,-336.4339
2794000000,-3.1812577,-336.63913
2795000000,-3.1466293,-336.54977
2796000000,-3.1569681,-336.77005
2797000000,-3.1576605,-336.90637
2798000000,-3.1871974,-336.92847
2799000000,-3.1529555,-336.99042
2800000000,-3.1581933,-337.26874
2801000000,-3.1652942,-337.09192
2802000000,-3.1903543,-337.52451
2803000000,-3.1642756,-337.57529
2804000000,-3.1647232,-337.61029
2805000000,-3.1945882,-337.82852
2806000000,-3.17472,-337.98718
2807000000,-3.1675589,-338.0213
2808000000,-3.1407208,-338.16757
2809000000,-3.1433406,-338.24786
2810000000,-3.1689708,-338.61389
2811000000,-3.1405644,-338.53638
2812000000,-3.1673458,-338.8038
2813000000,-3.1557672,-338.992
2814000000,-3.1354511,-338.8475
2815000000,-3.1535084,-339.32639
2816000000,-3.1657605,-339.10504
2817000000,-3.1418583,-339.51953
2818000000,-3.1283422,-339.38312
2819000000,-3.1287482,-339.44019
2820000000,-3.1749797,-339.78503
2821000000,-3.1245613,-339.64481
2822000000,-3.1512241,-340.04672
2823000000,-3.1472971,-339.83386
2824000000,-3.1315379,-340.00278
2825000000,-3.1187201,-340.07434
2826000000,-3.1256449,-340.40405
2827000000,-3.1478615,-340.58295
2828000000,-3.1043575,-340.66879
2829000000,-3.115272,-340.75064
2830000000,-3.1321068,-340.82996
2831000000,-3.1393559,-341.1778
2832000000,-3.1164231,-341.27139
2833000000,-3.1732032,-341.29312
2834000000,-3.1252682,-341.38443
2835000000,-3.1228983,-341.53149
2836000000,-3.0966265,-341.45221
2837000000,-3.1155062,-341.58218
2838000000,-3.1229522,-341.75446
2839000000,-3.1319816,-341.93198
2840000000,-3.1317492,-342.05417
2841000000,-3.1300993,-342.23538
2842000000,-3.1056442,-342.31732
2843000000,-3.0924129,-342.57632
2844000000,-3.1392539,-342.72009
2845000000,-3.1045132,-342.81345
2846000000,-3.1099982,-342.63708
2847000000,-3.0990779,-343.14771
2848000000,-3.1064274,-342.97223
2849000000,-3.1200538,-342.97995
2850000000,-3.0889297,-343.33606
2851000000,-3.1119161,-343.53864
2852000000,-3.0868013,-343.47922
2853000000,-3.0730054,-343.61511
2854000000,-3.0935905,-343.92731
2855000000,-3.1205318,-344.16284
2856000000,-3.1020379,-343.91812
2857000000,-3.0657029,-344.28888
2858000000,-3.0768874,-344.63596
2859000000,-3.1011295,-344.45792
2860000000,-3.0801873,-344.56155
2861000000,-3.1086416,-344.70709
2862000000,-3.0822909,-344.70917
2863000000,-3.092324,-344.78268
2864000000,-3.0907123,-345.04733
2865000000,-3.0699706,-345.06781
2866000000,-3.0725701,-345.3446
2867000000,-3.0936229,-345.57745
2868000000,-3.0954041,-345.58383
2869000000,-3.0712078,-345.85751
2870000000,-3.0591264,-345.78323
2871000000,-3.0858033,-345.98114
2872000000,-3.1002364,-346.01581
2873000000,-3.0627666,-346.19574
2874000000,-3.0659733,-346.3562
2875000000,-3.0874643,-346.24066
2876000000,-3.0727832,-346.56198
2877000000,-3.0779104,-346.81781
2878000000,-3.0792015,-346.95648
2879000000,-3.0800879,-347.04282
2880000000,-3.0734408,-347.02502
2881000000,-3.0739396,-347.24237
2882000000,-3.06162,-347.14056
2883000000,-3.0739479,-347.36121
2884000000,-3.063704,-347.34155
2885000000,-3.0707021,-347.83987
2886000000,-3.0645816,-348.00592
2887000000,-3.0675704,-348.0209
2888000000,-3.071135,-348.11905
2889000000,-3.0239062,-348.03372
2890000000,-3.0327525,-348.33362
2891000000,-3.0526083,-348.37064
2892000000,-3.0393896,-348.67975
2893000000,-3.0475836,-348.65768
2894000000,-3.0496831,-348.8222
2895000000,-3.0343056,-348.92584
2896000000,-3.0687754,-349.03476
2897000000,-3.04598,-349.24396
2898000000,-3.0771868,-349.02737
2899000000,-3.028492,-349.4429
2900000000,-3.0463114,-349.45905
2901000000,-3.0238035,-349.65393
2902000000,-3.0627472,-349.78262
2903000000,-3.0540359,-349.86624
2904000000,-3.0005469,-350.04953
2905000000,-3.0477026,-349.99512
2906000000,-3.0190454,-350.23679
2907000000,-3.0400298,-350.5289
2908000000,-3.017664,-350.44226
2909000000,-3.038161,-350.51523
2910000000,-2.996213,-350.90283
2911000000,-3.0390923,-350.87009
2912000000,-3.0398562,-351.05508
2913000000,-3.0415814,-351.04724
2914000000,-3.0156054,-351.11038
2915000000,-3.0304372,-351.16821
2916000000,-3.0331244,-351.582
2917000000,-3.0214787,-351.56305
2918000000,-3.0258334,-351.73013
2919000000,-3.0175364,-352.10355
2920000000,-2.9755046,-351.97766
2921000000,-2.9882445,-352.19965
2922000000,-3.0120425,-352.16867
2923000000,-2.9770417,-352.28293
2924000000,-3.0179877,-352.44897
2925000000,-3.0097175,-352.42691
2926000000,-3.0020196,-352.79431
2927000000,-2.998486,-352.92953
2928000000,-2.9905906,-352.91382
2929000000,-2.9901991,-353.14972
2930000000,-3.0099859,-353.33151
2931000000,-2.9863524,-353.30139
2932000000,-2.9927576,-353.31311
2933000000,-2.9894753,-353.56931
2934000000,-2.9403541,-353.77301
2935000000,-2.9963386,-354.0188
2936000000,-2.972904,-354.0069
2937000000,-2.984267,-354.08536
2938000000,-2.969336,-354.32095
2939000000,-2.9550281,-354.52924
2940000000,-2.9834821,-354.49039
2941000000,-2.9869664,-354.55237
2942000000,-2.9871902,-354.90442
2943000000,-2.961318,-355.02682
2944000000,-2.9484639,-354.99197
2945000000,-2.9858019,-355.33258
2946000000,-3.0117562,-355.33932
2947000000,-2.9526596,-355.45905
2948000000,-2.9602029,-355.67355
2949000000,-2.9801772,-355.88168
2950000000,-2.9436121,-355.73965
2951000000,-2.9986353,-355.88858
2952000000,-3.0005019,-356.0997
2953000000,-2.9584396,-356.11917
2954000000,-2.9619789,-356.29044
2955000000,-2.9812722,-356.4635
2956000000,-2.9393075,-356.64468
2957000000,-2.958137,-357.02966
2958000000,-2.9750957,-356.77039
2959000000,-2.9716196,-357.13937
2960000000,-2.959223,-357.13181
2961000000,-2.9350047,-357.24081
2962000000,-2.9216304,-357.19659
2963000000,-2.9602075,-357.34329
2964000000,-2.9528761,-357.61551
2965000000,-2.9603331,-357.81436
2966000000,-2.914912,-357.82712
2967000000,-2.9240351,-357.85001
2968000000,-2.9550767,-358.22775
2969000000,-2.9659693,-358.12869
2970000000,-2.9772596,-358.26077
2971000000,-2.9465406,-358.32455
2972000000,-2.9085679,-358.64935
2973000000,-2.9293549,-358.72693
2974000000,-2.9175706,-359.05798
2975000000,-2.9143729,-358.97711
2976000000,-2.9411223,-359.11456
2977000000,-2.9263008,-359.1329
2978000000,-2.9255462,-359.36292
2979000000,-2.9191308,-359.5314
2980000000,-2.9188292,-359.49966
2981000000,-2.9004662,-359.68832
2982000000,-2.8726282,-359.71533
2983000000,-2.916719,-360.09973
2984000000,-2.9014249,-360.06921
2985000000,-2.9210217,-360.29623
2986000000,-2.8932605,-360.45544
2987000000,-2.9023175,-360.49402
2988000000,-2.9078941,-360.59491
2989000000,-2.9141541,-360.81613
2990000000,-2.9111135,-360.7955
2991000000,-2.9188163,-360.97189
2992000000,-2.9028096,-361.03455
2993000000,-2.9020033,-361.25247
2994000000,-2.9080248,-361.23233
2995000000,-2.9281113,-361.44128
2996000000,-2.9064505,-361.50095
2997000000,-2.9121013,-361.88608
2998000000,-2.8845189,-362.08963
2999000000,-2.9076319,-362.10678
3000000000,-2.9117532,-362.13214
3001000000,-2.8793983,-362.23712
3002000000,-2.887351,-362.319
3003000000,-2.8842621,-362.54767
3004000000,-2.8872271,-362.70145
3005000000,-2.8863716,-362.83194
3006000000,-2.8787639,-362.94955
3007000000,-2.8749216,-363.02078
3008000000,-2.8793366,-363.18729
3009000000,-2.8765867,-363.366
3010000000,-2.849745,-363.47366
3011000000,-2.8761296,-363.55322
3012000000,-2.8395274,-363.63528
3013000000,-2.9101245,-363.93781
3014000000,-2.8772922,-364.05933
3015000000,-2.8596008,-364.00598
3016000000,-2.8913307,-364.35214
3017000000,-2.858134,-364.45383
3018000000,-2.8583987,-364.55014
3019000000,-2.8661017,-364.49854
3020000000,-2.828213,-364.66919
3021000000,-2.8362176,-364.99191
3022000000,-2.8702114,-365.06973
3023000000,-2.8698311,-365.02798
3024000000,-2.8398433,-365.25806
3025000000,-2.8530729,-365.49319
3026000000,-2.8401673,-365.41763
3027000000,-2.8713994,-365.58316
3028000000,-2.844929,-365.76868
3029000000,-2.8262999,-365.8252
3030000000,-2.8317513,-365.76886
3031000000,-2.8488457,-366.37854
3032000000,-2.8574879,-366.43134
3033000000,-2.8831801,-366.37064
3034000000,-2.8243761,-366.75003
3035000000,-2.8346214,-366.67642
3036000000,-2.8348002,-366.65884
3037000000,-2.8221087,-366.99744
3038000000,-2.8521614,-367.01102
3039000000,-2.8329768,-367.14734
3040000000,-2.839103,-367.45505
3041000000,-2.838985,-367.62936
3042000000,-2.8166316,-367.41815
3043000000,-2.8258135,-367.81702
3044000000,-2.7969558,-367.90494
3045000000,-2.795207,-367.96634
3046000000,-2.8011699,-368.29297
3047000000,-2.8459265,-368.12921
3048000000,-2.7967048,-368.42099
3049000000,-2.7810173,-368.6669
3050000000,-2.7846289,-368.48471
3051000000,-2.7777541,-368.72873
3052000000,-2.8432689,-368.99921
3053000000,-2.8212495,-368.99118
3054000000,-2.7821519,-369.44925
3055000000,-2.8056772,-369.21469
3056000000,-2.8124428,-369.52899
3057000000,-2.8075552,-369.53741
3058000000,-2.8100884,-369.66382
3059000000,-2.7920339,-369.73215
3060000000,-2.7883828,-369.9165
3061000000,-2.8103514,-370.09262
3062000000,-2.8318489,-370.17853
3063000000,-2.8059659,-370.24405
3064000000,-2.7657077,-370.39288
3065000000,-2.7868156,-370.83728
3066000000,-2.7756224,-370.6687
3067000000,-2.7602344,-370.70352
3068000000,-2.761744,-371.01611
3069000000,-2.7708144,-371.21204
3070000000,-2.7883346,-371.22617
3071000000,-2.7770536,-371.38156
3072000000,-2.8071809,-371.56564
3073000000,-2.7712235,-371.69431
3074000000,-2.7764404,-371.63239
3075000000,-2.7531509,-371.75674
3076000000,-2.7748783,-372.03973
3077000000,-2.7515442,-372.29547
3078000000,-2.7511761,-372.13266
3079000000,-2.7787182,-372.40338
3080000000,-2.7506845,-372.46948
3081000000,-2.7665329,-372.76227
3082000000,-2.7542956,-373.00027
3083000000,-2.7459302,-373.14468
3084000000,-2.7362206,-373.11795
3085000000,-2.7477431,-373.00732
3086000000,-2.7292938,-373.37433
3087000000,-2.7779102,-373.19501
3088000000,-2.7453303,-373.60983
3089000000,-2.7254672,-373.73779
3090000000,-2.7292018,-373.95419
3091000000,-2.7513983,-374.0556
3092000000,-2.7352445,-374.18442
3093000000,-2.7563679,-374.41214
3094000000,-2.7140753,-374.44931
3095000000,-2.7340753,-374.68692
3096000000,-2.7531059,-374.92459
3097000000,-2.7229052,-374.9747
3098000000,-2.7532792,-374.91693
3099000000,-2.7140496,-375.02344
3100000000,-2.7497408,-375.18668
3101000000,-2.7399011,-375.42615
3102000000,-2.7520127,-375.44379
3103000000,-2.7169764,-375.49686
3104000000,-2.7442057,-375.87082
3105000000,-2.708406,-375.84058
3106000000,-2.7349803,-376.05832
3107000000,-2.7318592,-376.24686
3108000000,-2.7035425,-376.54059
3109000000,-2.7122152,-376.51633
3110000000,-2.707221,-376.71533
3111000000,-2.7355502,-376.68011
3112000000,-2.6784506,-376.9903
3113000000,-2.7018471,-376.92749
3114000000,-2.691318,-377.39471
3115000000,-2.6955612,-377.21722
3116000000,-2.7125747,-377.3045
3117000000,-2.6921523,-377.53616
3118000000,-2.7208238,-377.9274
3119000000,-2.6634257,-377.74597
3120000000,-2.6593742,-378.00314
3121000000,-2.6771388,-377.93945
3122000000,-2.6846166,-378.22717
3123000000,-2.6707466,-378.53418
3124000000,-2.6762371,-378.45062
3125000000,-2.6655192,-378.70093
3126000000,-2.6838446,-378.80939
3127000000,-2.6882999,-379.11826
3128000000,-2.6588383,-379.05646
3129000000,-2.69256,-379.13968
3130000000,-2.6668003,-379.57697
3131000000,-2.6663544,-379.73059
3132000000,-2.6643424,-379.64133
3133000000,-2.6856043,-379.74899
3134000000,-2.6313052,-379.84351
3135000000,-2.6890845,-380.039
3136000000,-2.6499214,-380.09167
3137000000,-2.64886,-380.33176
3138000000,-2.6662555,-380.2547
3139000000,-2.6863806,-380.70911
3140000000,-2.6463146,-380.5451
3141000000,-2.6827307,-380.84067
3142000000,-2.6529918,-380.97958
3143000000,-2.6733124,-381.09286
3144000000,-2.6664886,-381.21246
3145000000,-2.6711867,-381.5047
3146000000,-2.6289744,-381.6684
3147000000,-2.6210737,-381.53864
3148000000,-2.6349537,-381.47885
3149000000,-2.6486313,-381.8027
3150000000,-2.633364,-382.11359
3151000000,-2.6486628,-382.40884
3152000000,-2.6710787,-382.16211
3153000000,-2.6424689,-382.52271
3154000000,-2.6109126,-382.46729
3155000000,-2.6275909,-382.82605
3156000000,-2.6299551,-382.79016
3157000000,-2.636153,-383.15103
3158000000,-2.6457975,-383.09018
3159000000,-2.6206861,-383.27438
3160000000,-2.6273897,-383.64685
3161000000,-2.6032193,-383.53394
3162000000,-2.6107149,-383.39966
3163000000,-2.6127069,-384.05292
3164000000,-2.6172071,-383.77051
3165000000,-2.6189799,-383.94812
3166000000,-2.6197221,-384.10434
3167000000,-2.5971701,-384.52979
3168000000,-2.6146927,-384.54614
3169000000,-2.6151998,-384.73602
3170000000,-2.5926039,-384.79797
3171000000,-2.5816524,-384.84253
3172000000,-2.5942566,-385.00281
3173000000,-2.5625966,-385.10037
3174000000,-2.6194489,-385.27252
3175000000,-2.5898247,-385.41849
3176000000,-2.6041706,-385.68689
3177000000,-2.5713983,-385.79568
3178000000,-2.5800614,-385.82199
3179000000,-2.6024888,-385.97879
3180000000,-2.5838852,-386.00977
3181000000,-2.5948961,-386.26035
3182000000,-2.5900738,-386.44852
3183000000,-2.599309,-386.47614
3184000000,-2.5816905,-386.61307
3185000000,-2.5779927,-386.89136
3186000000,-2.5804446,-387.09042
3187000000,-2.5727665,-387.30154
3188000000,-2.5887578,-387.34549
3189000000,-2.5616994,-387.46957
3190000000,-2.6046004,-387.74979
3191000000,-2.5661955,-387.72403
3192000000,-2.5938251,-387.69855
3193000000,-2.5788856,-387.93369
3194000000,-2.586134,-388.1662
3195000000,-2.5758588,-388.26666
3196000000,-2.5639925,-388.65909
3197000000,-2.5616403,-388.44904
3198000000,-2.5548491,-388.72147
3199000000,-2.5756264,-388.9129
3200000000,-2.5351253,-388.9256
3201000000,-2.5526025,-389.01663
3202000000,-2.5214589,-389.31271
3203000000,-2.556042,-389.2388
3204000000,-2.5292614,-389.45432
3205000000,-2.560215,-389.42307
3206000000,-2.5397849,-389.6312
3207000000,-2.5499165,-389.8631
3208000000,-2.5200419,-389.9418
3209000000,-2.5274267,-390.25504
3210000000,-2.5190158,-390.14673
3211000000,-2.5418999,-390.34476
3212000000,-2.5077817,-390.62006
3213000000,-2.5204403,-390.7403
3214000000,-2.5487278,-390.86481
3215000000,-2.5147395,-390.99805
3216000000,-2.4968092,-391.33557
3217000000,-2.5428104,-391.27692
3218000000,-2.547807,-391.24683
3219000000,-2.5226774,-391.64386
3220000000,-2.5194533,-391.98837
3221000000,-2.5008199,-391.75601
3222000000,-2.5369256,-391.9126
3223000000,-2.5220447,-392.22418
3224000000,-2.5019219,-392.3241
3225000000,-2.4947147,-392.43384
3226000000,-2.4970725,-392.86859
3227000000,-2.5135555,-392.74759
3228000000,-2.4851511,-392.94971
3229000000,-2.5015314,-393.23514
3230000000,-2.504693,-392.99338
3231000000,-2.4905639,-393.43878
3232000000,-2.5044749,-393.3472
3233000000,-2.5099485,-393.56293
3234000000,-2.494833,-393.85425
3235000000,-2.4892192,-393.79022
3236000000,-2.4977677,-393.931
3237000000,-2.4463685,-394.20764
3238000000,-2.4992952,-394.33408
3239000000,-2.5032921,-394.54672
3240000000,-2.4863391,-394.49469
3241000000,-2.5072343,-394.8233
3242000000,-2.4622705,-394.9187
3243000000,-2.4916189,-395.10123
3244000000,-2.495482,-395.12903
3245000000,-2.4672852,-395.14609
3246000000,-2.5159435,-395.29562
3247000000,-2.4814713,-395.375
3248000000,-2.4641428,-395.79929
3249000000,-2.4885716,-395.80255
3250000000,-2.4795568,-396.0741
3251000000,-2.4468129,-396.15707
3252000000,-2.4797556,-396.5166
3253000000,-2.4720275,-396.51694
3254000000,-2.5013154,-396.46094
3255000000,-2.4681139,-396.63574
3256000000,-2.5125978,-396.65457
3257000000,-2.4670382,-396.98096
3258000000,-2.4823222,-397.21918
3259000000,-2.4791403,-397.30402
3260000000,-2.4810271,-397.70322
3261000000,-2.4644372,-397.66022
3262000000,-2.4409528,-397.7226
3263000000,-2.5020695,-397.8418
3264000000,-2.4712584,-397.86905
3265000000,-2.4253759,-398.17383
3266000000,-2.4715049,-398.39557
3267000000,-2.427928,-398.44214
3268000000,-2.447746,-398.51797
3269000000,-2.4455132,-398.59198
3270000000,-2.4446537,-398.99783
3271000000,-2.4613137,-399.02383
3272000000,-2.452193,-399.06235
3273000000,-2.4335902,-399.47409
3274000000,-2.4439397,-399.46323
3275000000,-2.4450138,-399.56653
3276000000,-2.4212883,-399.93561
3277000000,-2.4233098,-399.85254
3278000000,-2.4412076,-400.11438
3279000000,-2.4694247,-400.28714
3280000000,-2.4264348,-400.4386
3281000000,-2.4215832,-400.56067
3282000000,-2.4255469,-400.67941
3283000000,-2.4066443,-400.87177
3284000000,-2.4354818,-400.70459
3285000000,-2.4498632,-400.87
3286000000,-2.427182,-401.25577
3287000000,-2.4436376,-401.30576
3288000000,-2.3987052,-401.68878
3289000000,-2.43028,-401.67599
3290000000,-2.4451127,-401.96851
3291000000,-2.3988898,-402.06534
3292000000,-2.4187398,-402.10513
3293000000,-2.4148948,-402.12839
3294000000,-2.4061346,-402.39502
3295000000,-2.4293096,-402.57712
3296000000,-2.4526503,-402.68103
3297000000,-2.4151592,-402.70358
3298000000,-2.4328568,-403.10013
3299000000,-2.4334648,-403.08862
3300000000,-2.4131701,-403.42188
3301000000,-2.3996801,-403.30789
3302000000,-2.405777,-403.44202
3303000000,-2.4213502,-403.68793
3304000000,-2.4025128,-404.1261
3305000000,-2.3969111,-404.00208
3306000000,-2.399087,-404.30338
3307000000,-2.4169703,-404.33887
3308000000,-2.4141078,-404.44388
3309000000,-2.4167979,-404.51172
3310000000,-2.3981984,-404.68869
3311000000,-2.4038746,-404.98929
3312000000,-2.3956082,-405.12491
3313000000,-2.4048696,-405.38773
3314000000,-2.4101174,-405.3869
3315000000,-2.403404,-405.55884
3316000000,-2.3609688,-405.56165
3317000000,-2.4013269,-405.92688
3318000000,-2.3816061,-405.97647
3319000000,-2.4053338,-406.15167
3320000000,-2.3708491,-405.96207
3321000000,-2.4005589,-406.42538
3322000000,-2.3492606,-406.50986
3323000000,-2.3635569,-406.60187
3324000000,-2.3853834,-406.85248
3325000000,-2.3844647,-406.85916
3326000000,-2.4018667,-407.1575
3327000000,-2.3658817,-407.40369
3328000000,-2.3590472,-407.38925
3329000000,-2.373446,-407.60333
3330000000,-2.3841519,-407.60776
3331000000,-2.3572161,-407.96127
3332000000,-2.368108,-407.85568
3333000000,-2.3969014,-408.35178
3334000000,-2.3786623,-408.26938
3335000000,-2.3754921,-408.495
3336000000,-2.3829465,-408.68475
3337000000,-2.3746393,-408.78168
3338000000,-2.386785,-408.94067
3339000000,-2.3877861,-409.16678
3340000000,-2.3723583,-409.19141
3341000000,-2.3622231,-409.18893
3342000000,-2.3401291,-409.3461
3343000000,-2.3381197,-409.65747
3344000000,-2.3645055,-409.86166
3345000000,-2.3555977,-410.00592
3346000000,-2.3575006,-410.07343
3347000000,-2.3587363,-410.33926
3348000000,-2.3618126,-410.43784
3349000000,-2.363739,-410.61234
3350000000,-2.346324,-410.86044
3351000000,-2.3571005,-410.76859
3352000000,-2.3432086,-411.15164
3353000000,-2.3346689,-411.36346
3354000000,-2.3263505,-411.45764
3355000000,-2.3582857,-411.59711
3356000000,-2.342773,-411.7977
3357000000,-2.3535383,-411.80521
3358000000,-2.3504922,-411.90079
3359000000,-2.3630264,-411.94574
3360000000,-2.3383982,-412.29694
3361000000,-2.3603082,-412.38339
3362000000,-2.3302476,-412.508
3363000000,-2.3469524,-412.84256
3364000000,-2.3285465,-412.75198
3365000000,-2.3574286,-413.19458
3366000000,-2.3481562,-413.2677
3367000000,-2.3188121,-413.3046
3368000000,-2.325567,-413.32968
3369000000,-2.3437703,-413.64056
3370000000,-2.3350582,-413.85541
3371000000,-2.3301446,-413.89694
3372000000,-2.3310907,-414.1225
3373000000,-2.3384736,-414.19376
3374000000,-2.3558567,-414.35831
3375000000,-2.3634028,-414.42847
3376000000,-2.3524716,-414.58768
3377000000,-2.368192,-414.79831
3378000000,-2.3349965,-415.04282
3379000000,-2.3333571,-415.12796
3380000000,-2.3517864,-415.31192
3381000000,-2.3199723,-415.47256
3382000000,-2.3307612,-415.65781
3383000000,-2.3238294,-415.8884
3384000000,-2.3440709,-415.9953
3385000000,-2.3351078,-416.08264
3386000000,-2.351655,-416.22717
3387000000,-2.3887701,-416.64365
3388000000,-2.346462,-416.3895
3389000000,-2.3233957,-416.72919
3390000000,-2.3505847,-417.00516
3391000000,-2.3233235,-417.24414
3392000000,-2.3243456,-417.17249
3393000000,-2.3184204,-417.21646
3394000000,-2.323436,-417.52905
3395000000,-2.3312387,-417.59091
3396000000,-2.3298323,-417.582
3397000000,-2.3088295,-417.9902
3398000000,-2.352535,-418.26529
3399000000,-2.331377,-418.48645
3400000000,-2.3047967,-418.46613
3401000000,-2.3056569,-418.64374
3402000000,-2.3211627,-418.81201
3403000000,-2.3387861,-418.95822
3404000000,-2.3458052,-419.02362
3405000000,-2.3526366,-419.24658
3406000000,-2.3244779,-419.38541
3407000000,-2.3146262,-419.42773
3408000000,-2.3155534,-419.51889
3409000000,-2.3331499,-419.8869
3410000000,-2.3125799,-420.04562
3411000000,-2.3386035,-420.17773
3412000000,-2.3391435,-420.41309
3413000000,-2.3510778,-420.43008
3414000000,-2.3490446,-420.63263
3415000000,-2.3418512,-420.89154
3416000000,-2.3448782,-420.93204
3417000000,-2.3495197,-421.05017
3418000000,-2.3495674,-421.62869
3419000000,-2.3277903,-421.45557
3420000000,-2.3337157,-421.58386
3421000000,-2.3558497,-421.76392
3422000000,-2.3207252,-421.91122
3423000000,-2.337292,-422.20114
3424000000,-2.3156855,-422.40387
3425000000,-2.3451781,-422.28494
3426000000,-2.3203704,-422.61761
3427000000,-2.3249009,-422.70435
3428000000,-2.3145642,-422.76627
3429000000,-2.3442147,-423.11606
3430000000,-2.3328366,-423.3403
3431000000,-2.291816,-423.26791
3432000000,-2.347436,-423.43869
3433000000,-2.3244119,-423.50583
3434000000,-2.324903,-423.71811
3435000000,-2.3215632,-423.92752
3436000000,-2.3269477,-424.20746
3437000000,-2.3461981,-424.11099
3438000000,-2.3309596,-424.28918
3439000000,-2.3270664,-424.6098
3440000000,-2.353101,-424.90579
3441000000,-2.3339887,-424.83334
3442000000,-2.3482292,-424.92569
3443000000,-2.3317153,-425.20499
3444000000,-2.3511651,-425.25577
3445000000,-2.3345156,-425.47064
3446000000,-2.3387234,-425.75461
3447000000,-2.3314221,-425.76736
3448000000,-2.359767,-425.97742
3449000000,-2.3264675,-426.00217
3450000000,-2.3546035,-426.56821
3451000000,-2.3833387,-426.53607
3452000000,-2.3556306,-426.47815
3453000000,-2.3097465,-426.81454
3454000000,-2.3617339,-426.94244
3455000000,-2.3638065,-427.14203
3456000000,-2.3211901,-427.33295
3457000000,-2.348748,-427.54025
3458000000,-2.3547313,-427.64572
3459000000,-2.3583131,-427.74384
3460000000,-2.3451898,-427.87003
3461000000,-2.3887055,-428.16922
3462000000,-2.387444,-428.37772
3463000000,-2.3735273,-428.388
3464000000,-2.3472366,-428.51044
3465000000,-2.3531454,-428.56314
3466000000,-2.3581219,-428.8989
3467000000,-2.3542912,-428.92651
3468000000,-2.3376384,-429.18176
3469000000,-2.3480809,-429.36261
3470000000,-2.364924,-429.52585
3471000000,-2.3630896,-429.71756
3472000000,-2.3474903,-429.70438
3473000000,-2.3525937,-430.07407
3474000000,-2.3604417,-430.05984
3475000000,-2.3719418,-430.18848
3476000000,-2.3702505,-430.65833
3477000000,-2.362077,-430.70404
3478000000,-2.3723876,-430.854
3479000000,-2.3363686,-430.90228
3480000000,-2.3703632,-431.15967
3481000000,-2.3702645,-431.35007
3482000000,-2.3859618,-431.414
3483000000,-2.3844092,-431.49994
3484000000,-2.3783078,-431.88583
3485000000,-2.3765025,-431.79843
3486000000,-2.3920786,-432.12955
3487000000,-2.4122071,-432.36789
3488000000,-2.3773885,-432.41498
3489000000,-2.4054041,-432.84494
3490000000,-2.375149,-432.8103
3491000000,-2.3776898,-433.1506
3492000000,-2.38153,-433.1785
3493000000,-2.3616166,-433.09857
3494000000,-2.38516,-433.39197
3495000000,-2.3997936,-433.54614
3496000000,-2.3816617,-433.7182
3497000000,-2.3960965,-433.92844
3498000000,-2.3791232,-434.13083
3499000000,-2.3742251,-434.31027
3500000000,-2.403003,-434.16025
3501000000,-2.4071884,-434.48538
3502000000,-2.4045341,-434.86746
3503000000,-2.4083767,-434.85303
3504000000,-2.4128242,-434.97934
3505000000,-2.4188449,-435.08478
3506000000,-2.4157548,-435.28094
3507000000,-2.3730483,-435.52399
3508000000,-2.3790901,-435.82309
3509000000,-2.4228501,-435.72562
3510000000,-2.4006994,-435.87885
3511000000,-2.4186292,-436.06668
3512000000,-2.4420168,-436.2944
3513000000,-2.4321716,-436.48105
3514000000,-2.4401414,-436.76215
3515000000,-2.4176474,-436.80173
3516000000,-2.4279118,-436.98468
3517000000,-2.4315779,-437.02151
3518000000,-2.428555,-437.19586
3519000000,-2.4425309,-437.58316
3520000000,-2.4512627,-437.63205
3521000000,-2.4192808,-437.9071
3522000000,-2.4473495,-437.9422
3523000000,-2.4390314,-438.06525
3524000000,-2.4357936,-438.2023
3525000000,-2.453145,-438.3754
3526000000,-2.461262,-438.53937
3527000000,-2.4630663,-438.61267
3528000000,-2.4594107,-438.88837
3529000000,-2.464947,-439.12418
3530000000,-2.4620078,-439.12708
3531000000,-2.4762938,-439.52194
3532000000,-2.4610596,-439.59793
3533000000,-2.4567168,-439.70001
3534000000,-2.4524946,-439.86218
3535000000,-2.4572053,-440.04941
3536000000,-2.492403,-440.16806
3537000000,-2.4517486,-440.23294
3538000000,-2.4585934,-440.61346
3539000000,-2.4844382,-440.74808
3540000000,-2.4934549,-441.0462
3541000000,-2.4659553,-441.103
3542000000,-2.468426,-441.15469
3543000000,-2.4693177,-441.3248
3544000000,-2.4860799,-441.38144
3545000000,-2.4690931,-441.73178
3546000000,-2.4842901,-441.81693
3547000000,-2.5013294,-441.86465
3548000000,-2.5194147,-442.24207
3549000000,-2.4989562,-442.48138
3550000000,-2.5091097,-442.64807
3551000000,-2.5298612,-442.67929
3552000000,-2.5239892,-442.71777
3553000000,-2.5109322,-442.81769
3554000000,-2.5228231,-443.05646
3555000000,-2.5404577,-443.4436
3556000000,-2.5405374,-443.42932
3557000000,-2.5401621,-443.63901
3558000000,-2.5632129,-443.73233
3559000000,-2.5194514,-444.04138
3560000000,-2.5481701,-444.13351
3561000000,-2.5349,-444.34741
3562000000,-2.5522685,-444.51529
3563000000,-2.5788996,-444.59982
3564000000,-2.5540459,-444.73749
3565000000,-2.5505903,-444.91727
3566000000,-2.541069,-444.90744
3567000000,-2.5762281,-445.33292
3568000000,-2.5787804,-445.36697
3569000000,-2.5729637,-445.58475
3570000000,-2.5776105,-445.65305
3571000000,-2.5882525,-445.92764
3572000000,-2.5969367,-445.79465
3573000000,-2.5748007,-446.08533
3574000000,-2.5564325,-446.26163
3575000000,-2.5735035,-446.53912
3576000000,-2.585201,-446.63684
3577000000,-2.6088421,-446.78165
3578000000,-2.6281047,-447.29251
3579000000,-2.6107013,-447.35913
3580000000,-2.5770044,-447.47342
3581000000,-2.614264,-447.4584
3582000000,-2.6246967,-447.56711
3583000000,-2.6161475,-447.82162
3584000000,-2.6313183,-447.9454
3585000000,-2.6000752,-448.00186
3586000000,-2.6423609,-448.28668
3587000000,-2.6188374,-448.45453
3588000000,-2.6098378,-448.55499
3589000000,-2.627831,-448.74829
3590000000,-2.6331627,-449.16086
3591000000,-2.6424205,-449.2088
3592000000,-2.667851,-449.23285
3593000000,-2.6723328,-449.26956
3594000000,-2.6611669,-449.61816
3595000000,-2.6487319,-449.83636
3596000000,-2.6686478,-450.12946
3597000000,-2.6720092,-450.09494
3598000000,-2.6966903,-450.30066
3599000000,-2.658772,-450.4747
3600000000,-2.6818452,-450.59042
3601000000,-2.6819956,-450.77396
3602000000,-2.6723144,-451.20364
3603000000,-2.7088306,-451.36127
3604000000,-2.6852076,-451.43655
3605000000,-2.6858859,-451.45511
3606000000,-2.6937373,-451.5946
3607000000,-2.685183,-451.80981
3608000000,-2.6912298,-451.86539
3609000000,-2.711601,-452.13199
3610000000,-2.744108,-452.34155
3611000000,-2.7101364,-452.32126
3612000000,-2.7276285,-452.63071
3613000000,-2.7489154,-452.75827
3614000000,-2.761313,-453.01489
3615000000,-2.7568116,-453.14871
3616000000,-2.7488713,-453.01953
3617000000,-2.7425218,-453.38556
3618000000,-2.7593298,-453.67276
3619000000,-2.7404759,-453.66058
3620000000,-2.7643251,-453.95255
3621000000,-2.7727602,-453.98935
3622000000,-2.7874401,-454.20978
3623000000,-2.7792172,-454.43655
3624000000,-2.792908,-454.41608
3625000000,-2.7895634,-454.70963
3626000000,-2.792135,-454.85349
3627000000,-2.7770395,-454.92523
3628000000,-2.8121643,-455.0799
3629000000,-2.7951171,-455.33954
3630000000,-2.8287194,-455.51205
3631000000,-2.7933116,-455.56277
3632000000,-2.817333,-455.69052
3633000000,-2.8160918,-456.0528
3634000000,-2.8399639,-456.22552
3635000000,-2.8415191,-456.27658
3636000000,-2.8341291,-456.62262
3637000000,-2.8353553,-456.5831
3638000000,-2.8502648,-456.88641
3639000000,-2.8565118,-456.92303
3640000000,-2.8761742,-457.14505
3641000000,-2.8682301,-457.26782
3642000000,-2.9066596,-457.17996
3643000000,-2.8765619,-457.60077
3644000000,-2.9007666,-457.72205
3645000000,-2.8691869,-457.89899
3646000000,-2.8851788,-458.12543
3647000000,-2.9146094,-458.27115
3648000000,-2.9120996,-458.27341
3649000000,-2.9190149,-458.40317
3650000000,-2.9067092,-458.49756
3651000000,-2.9542561,-458.87512
3652000000,-2.8914127,-459.14996
3653000000,-2.8969321,-459.26193
3654000000,-2.9438396,-459.15936
3655000000,-2.9239342,-459.47797
3656000000,-2.9443157,-459.55988
3657000000,-2.9423814,-459.70758
3658000000,-2.9508069,-460.02225
3659000000,-2.9623961,-460.10428
3660000000,-2.963136,-460.30295
3661000000,-2.9864199,-460.29739
3662000000,-2.9855731,-460.52475
3663000000,-2.9986546,-460.66626
3664000000,-2.9964242,-460.88565
3665000000,-3.0152733,-460.89706
3666000000,-3.012265,-461.2323
3667000000,-3.0313067,-461.52014
3668000000,-3.0145946,-461.51151
3669000000,-3.0069842,-461.54486
3670000000,-3.0438681,-461.83014
3671000000,-3.0214038,-461.96997
3672000000,-3.0674405,-462.14301
3673000000,-3.0598845,-462.32404
3674000000,-3.0419433,-462.47577
3675000000,-3.04515,-462.75522
3676000000,-3.0581179,-462.65778
3677000000,-3.0703545,-462.94775
3678000000,-3.0939555,-463.17203
3679000000,-3.1109786,-463.34152
3680000000,-3.1217988,-463.40341
3681000000,-3.1033988,-463.55243
3682000000,-3.1028554,-463.72211
3683000000,-3.1354718,-463.83218
3684000000,-3.1308141,-464.10654
3685000000,-3.1535304,-464.12753
3686000000,-3.1497755,-464.42102
3687000000,-3.1501718,-464.53329
3688000000,-3.1556492,-464.64182
3689000000,-3.1308851,-464.91403
3690000000,-3.1621075,-465.16141
3691000000,-3.1405964,-465.10596
3692000000,-3.1757538,-465.15839
3693000000,-3.1555045,-465.51068
3694000000,-3.1719685,-465.78586
3695000000,-3.201699,-465.83649
3696000000,-3.166919,-466.01328
3697000000,-3.1850104,-466.15915
3698000000,-3.2335839,-466.14966
3699000000,-3.2199054,-466.20053
3700000000,-3.2352831,-466.57117
3701000000,-3.261363,-466.6293
3702000000,-3.254982,-466.9772
3703000000,-3.2468271,-466.98523
3704000000,-3.2771487,-467.24637
3705000000,-3.2312717,-467.26157
3706000000,-3.2647328,-467.33237
3707000000,-3.2885849,-467.61279
3708000000,-3.2730072,-467.73032
3709000000,-3.2765474,-468.00513
3710000000,-3.3095372,-467.7948
3711000000,-3.2952666,-468.04398
3712000000,-3.3312907,-468.34427
3713000000,-3.3310058,-468.35538
3714000000,-3.3424261,-468.64011
3715000000,-3.3254623,-468.95969
3716000000,-3.3265753,-469.01544
3717000000,-3.3256044,-468.99286
3718000000,-3.3365321,-469.22391
3719000000,-3.3481948,-469.53104
3720000000,-3.3862345,-469.54977
3721000000,-3.3775907,-469.73877
3722000000,-3.3731644,-469.71683
3723000000,-3.3981781,-470.10144
3724000000,-3.4136131,-470.1344
3725000000,-3.3954399,-470.13931
3726000000,-3.4260073,-470.35809
3727000000,-3.4144835,-470.59839
3728000000,-3.4127491,-470.76474
3729000000,-3.4540384,-470.96143
3730000000,-3.441015,-471.14111
3731000000,-3.4486194,-471.13956
3732000000,-3.4632976,-471.43497
3733000000,-3.4787207,-471.38315
3734000000,-3.4708397,-471.4306
3735000000,-3.4824114,-471.68362
3736000000,-3.4908769,-471.98297
3737000000,-3.5127721,-472.2193
3738000000,-3.4956522,-472.12076
3739000000,-3.4858265,-472.1683
3740000000,-3.5210874,-472.37097
3741000000,-3.5471561,-472.52341
3742000000,-3.5411246,-472.69501
3743000000,-3.5286241,-472.98975
3744000000,-3.543313,-473.22879
3745000000,-3.5561287,-473.21692
3746000000,-3.5650809,-473.40839
3747000000,-3.5791202,-473.56952
3748000000,-3.5735307,-473.80334
3749000000,-3.6012042,-473.90875
3750000000,-3.5800436,-474.06064
3751000000,-3.6097312,-474.03568
3752000000,-3.5943139,-474.51987
3753000000,-3.5806916,-474.44009
3754000000,-3.6388538,-474.36221
3755000000,-3.6364846,-474.6376
3756000000,-3.6421118,-474.70767
3757000000,-3.6591632,-474.95563
3758000000,-3.6779187,-475.10971
3759000000,-3.6272299,-475.24573
3760000000,-3.6850853,-475.41422
3761000000,-3.6915827,-475.41397
3762000000,-3.6900439,-475.77338
3763000000,-3.6797867,-475.75406
3764000000,-3.7095287,-475.96851
3765000000,-3.721962,-476.1557
3766000000,-3.7257011,-476.19403
3767000000,-3.7119138,-476.29056
3768000000,-3.746578,-476.77496
3769000000,-3.7465949,-476.69476
3770000000,-3.7511337,-476.84998
3771000000,-3.7917008,-476.87137
3772000000,-3.7630284,-477.29312
3773000000,-3.8011262,-477.2962
3774000000,-3.7989659,-477.37323
3775000000,-3.8102751,-477.5181
3776000000,-3.8055725,-477.63202
3777000000,-3.8065946,-477.74524
3778000000,-3.8458467,-478.14658
3779000000,-3.835747,-478.11374
3780000000,-3.8248549,-478.40274
3781000000,-3.8642571,-478.54099
3782000000,-3.8643057,-478.34723
3783000000,-3.8767326,-478.71194
3784000000,-3.8643913,-478.70856
3785000000,-3.8842883,-478.87201
3786000000,-3.883651,-479.02362
3787000000,-3.8940828,-479.08871
3788000000,-3.8987033,-479.37393
3789000000,-3.9141343,-479.44263
3790000000,-3.9521956,-479.58398
3791000000,-3.9070845,-479.48923
3792000000,-3.9362535,-479.83347
3793000000,-3.9392424,-479.87845
3794000000,-3.9748006,-480.15759
3795000000,-3.9860973,-480.14847
3796000000,-3.9572196,-480.64386
3797000000,-3.983448,-480.38251
3798000000,-3.9844406,-480.46317
3799000000,-3.9973977,-480.77286
3800000000,-4.0235758,-480.89673
3801000000,-4.0071459,-480.96783
3802000000,-4.0090661,-481.01099
3803000000,-4.0385389,-481.2424
3804000000,-4.0262537,-481.46893
3805000000,-4.0523572,-481.59671
3806000000,-4.0684819,-481.67068
3807000000,-4.072958,-481.77643
3808000000,-4.0739365,-481.99356
3809000000,-4.0726709,-482.02737
3810000000,-4.0489855,-482.40829
3811000000,-4.051867,-482.38232
3812000000,-4.081594,-482.6358
3813000000,-4.125237,-482.40714
3814000000,-4.1082339,-482.91623
3815000000,-4.1064515,-482.76181
3816000000,-4.1310225,-483.07437
3817000000,-4.1442075,-483.16257
3818000000,-4.172688,-483.08191
3819000000,-4.1544042,-483.40735
3820000000,-4.1753178,-483.57214
3821000000,-4.1692886,-483.67133
3822000000,-4.1672659,-483.57346
3823000000,-4.2262983,-483.97754
3824000000,-4.2147665,-484.03452
3825000000,-4.2047505,-484.29861
3826000000,-4.238133,-484.38211
3827000000,-4.230854,-484.35648
3828000000,-4.226624,-484.61334
3829000000,-4.2325296,-484.57828
3830000000,-4.2454104,-484.92847
3831000000,-4.2824774,-485.03186
3832000000,-4.2749596,-484.96692
3833000000,-4.3001971,-484.99399
3834000000,-4.2744751,-485.34384
3835000000,-4.3037443,-485.4086
3836000000,-4.3305302,-485.51202
3837000000,-4.3055353,-485.65039
3838000000,-4.323565,-485.79736
3839000000,-4.3387938,-486.04239
3840000000,-4.3358264,-486.05817
3841000000,-4.3390088,-486.28128
3842000000,-4.3684244,-486.44177
3843000000,-4.3805351,-486.64053
3844000000,-4.3735185,-486.28848
3845000000,-4.3905249,-486.81857
3846000000,-4.3711681,-486.7543
3847000000,-4.4025807,-486.93063
3848000000,-4.3951893,-487.07703
3849000000,-4.4035969,-487.24002
3850000000,-4.4365659,-487.26056
3851000000,-4.436934,-487.35236
3852000000,-4.4349618,-487.57639
3853000000,-4.4432893,-487.79868
3854000000,-4.4691038,-487.84286
3855000000,-4.4557033,-487.95041
3856000000,-4.4870629,-487.90729
3857000000,-4.5049372,-487.95959
3858000000,-4.491745,-488.3512
3859000000,-4.5302105,-488.30618
3860000000,-4.5140419,-488.61142
3861000000,-4.5349145,-488.65891
3862000000,-4.5476356,-488.70633
3863000000,-4.5561161,-488.944
3864000000,-4.5418377,-489.03183
3865000000,-4.5809813,-489.10303
3866000000,-4.5531697,-489.27945
3867000000,-4.5503249,-489.3006
3868000000,-4.5891533,-489.41055
3869000000,-4.6012626,-489.82608
3870000000,-4.5731421,-489.70047
3871000000,-4.6263013,-489.83539
3872000000,-4.6255159,-489.86801
3873000000,-4.6242027,-489.8833
3874000000,-4.6317787,-490.10367
3875000000,-4.6731353,-490.29553
3876000000,-4.6207752,-490.48563
3877000000,-4.6527152,-490.31946
3878000000,-4.6937747,-490.68652
3879000000,-4.6613383,-490.77878
3880000000,-4.6795306,-491.01541
3881000000,-4.7129874,-490.98898
3882000000,-4.6915531,-491.15924
3883000000,-4.6873827,-491.13547
3884000000,-4.7232685,-491.32556
3885000000,-4.7046881,-491.5491
3886000000,-4.7639556,-491.39639
3887000000,-4.7499156,-491.62057
3888000000,-4.7375388,-491.81357
3889000000,-4.7475319,-491.8605
3890000000,-4.7629285,-491.89783
3891000000,-4.7993183,-492.19092
3892000000,-4.7756109,-492.23654
3893000000,-4.805326,-492.34628
3894000000,-4.7568021,-492.6243
3895000000,-4.8439732,-492.55106
3896000000,-4.7966747,-492.61871
3897000000,-4.8327637,-492.87024
3898000000,-4.8459153,-492.79083
3899000000,-4.8410773,-493.2706
3900000000,-4.874578,-493.09634
3901000000,-4.8693943,-493.2413
3902000000,-4.8682323,-493.27692
3903000000,-4.8799648,-493.58194
3904000000,-4.8556762,-493.51553
3905000000,-4.8639822,-493.81924
3906000000,-4.9036984,-493.64487
3907000000,-4.907279,-493.71924
3908000000,-4.9178834,-494.01053
3909000000,-4.9202137,-494.01743
3910000000,-4.9186049,-494.38184
3911000000,-4.9254565,-494.32462
3912000000,-4.9361267,-494.57672
3913000000,-4.9705238,-494.5882
3914000000,-4.9562745,-494.79755
3915000000,-4.9571538,-494.6821
3916000000,-4.9779072,-494.93481
3917000000,-4.9553623,-495.04202
3918000000,-4.9791055,-494.81311
3919000000,-5.0013046,-495.15463
3920000000,-5.0016341,-495.34232
3921000000,-4.9919271,-495.47006
3922000000,-5.0021715,-495.41446
3923000000,-5.021678,-495.56827
3924000000,-5.048049,-495.51035
3925000000,-5.0617981,-495.65515
3926000000,-5.0433569,-495.99561
3927000000,-5.0895352,-496.26566
3928000000,-5.0425572,-496.10275
3929000000,-5.0829544,-496.25238
3930000000,-5.1009707,-496.30817
3931000000,-5.0901947,-496.38586
3932000000,-5.0719113,-496.55148
3933000000,-5.0963559,-496.64169
3934000000,-5.1178541,-496.86807
3935000000,-5.1099868,-496.69638
3936000000,-5.1371589,-496.93713
3937000000,-5.1409583,-497.07407
3938000000,-5.1119623,-497.25308
3939000000,-5.1873283,-497.29941
3940000000,-5.1625566,-497.66321
3941000000,-5.1659546,-497.57813
3942000000,-5.1754074,-497.57492
3943000000,-5.1992903,-497.72107
3944000000,-5.1841197,-497.99588
3945000000,-5.1896286,-498.11133
3946000000,-5.1837354,-498.0473
3947000000,-5.183826,-497.96008
3948000000,-5.1997442,-498.22476
3949000000,-5.2184787,-498.44901
3950000000,-5.2391009,-498.48917
3951000000,-5.2342815,-498.64883
3952000000,-5.2629299,-498.60162
3953000000,-5.239778,-498.73764
3954000000,-5.2793679,-498.75845
3955000000,-5.2677484,-498.80664
3956000000,-5.2780228,-498.95532
3957000000,-5.2704778,-499.31262
3958000000,-5.2816739,-499.26624
3959000000,-5.2580943,-499.44528
3960000000,-5.324265,-499.39743
3961000000,-5.3299613,-499.75299
3962000000,-5.3263712,-499.59256
3963000000,-5.3027163,-499.6655
3964000000,-5.3214049,-500.04312
3965000000,-5.3261495,-499.96445
3966000000,-5.3129792,-500.00351
3967000000,-5.3328271,-499.94357
3968000000,-5.3700366,-500.29022
3969000000,-5.3807621,-500.17569
3970000000,-5.3733211,-500.49796
3971000000,-5.3799586,-500.76309
3972000000,-5.4000707,-500.68277
3973000000,-5.3788123,-500.73926
3974000000,-5.3754058,-500.75766
3975000000,-5.4204564,-501.03433
3976000000,-5.3953905,-500.94077
3977000000,-5.3883419,-501.43463
3978000000,-5.416688,-501.14459
3979000000,-5.4240351,-501.30759
3980000000,-5.4738588,-501.46463
3981000000,-5.4813194,-501.77936
3982000000,-5.4664259,-501.62799
3983000000,-5.4457679,-501.56543
3984000000,-5.4680142,-501.69653
3985000000,-5.4687972,-502.06552
3986000000,-5.4635763,-502.12885
3987000000,-5.4520326,-502.12152
3988000000,-5.5023623,-502.31671
3989000000,-5.488512,-502.33539
3990000000,-5.4893661,-502.39297
3991000000,-5.5435514,-502.63165
3992000000,-5.5161247,-502.6886
3993000000,-5.5433621,-502.6282
3994000000,-5.5270996,-502.73776
3995000000,-5.5516114,-502.65466
3996000000,-5.5419807,-502.96945
3997000000,-5.5407739,-503.17578
3998000000,-5.5519862,-503.08606
3999000000,-5.5770364,-503.2789
4000000000,-5.5776277,-503.46204
4001000000,-5.5430369,-503.56717
4002000000,-5.5758343,-503.44461
4003000000,-5.6059546,-503.50012
4004000000,-5.6012726,-503.63516
4005000000,-5.5789051,-503.86887
4006000000,-5.6147742,-504.10803
4007000000,-5.6341729,-503.85168
4008000000,-5.6081066,-504.13107
4009000000,-5.6361208,-504.12009
4010000000,-5.647625,-504.3728
4011000000,-5.6282554,-504.50549
4012000000,-5.6506929,-504.4274
4013000000,-5.6523232,-504.62891
4014000000,-5.6819682,-504.74918
4015000000,-5.6679711,-504.86667
4016000000,-5.6462507,-504.96634
4017000000,-5.6765718,-505.04764
4018000000,-5.664608,-504.88748
4019000000,-5.6896858,-505.21463
4020000000,-5.6965652,-505.14005
4021000000,-5.6851549,-505.30734
4022000000,-5.6826859,-505.48022
4023000000,-5.7247343,-505.56323
4024000000,-5.698245,-505.49051
4025000000,-5.709116,-505.67679
4026000000,-5.7122583,-505.85703
4027000000,-5.729435,-506.00223
4028000000,-5.7681899,-505.99448
4029000000,-5.7351151,-506.16516
4030000000,-5.7395854,-506.25198
4031000000,-5.7567062,-506.31287
4032000000,-5.7309132,-506.36734
4033000000,-5.7669911,-506.52448
4034000000,-5.7495952,-506.65378
4035000000,-5.7851348,-506.59869
4036000000,-5.7846684,-506.87747
4037000000,-5.8061681,-506.84555
4038000000,-5.7808108,-507.10315
4039000000,-5.7743549,-507.3288
4040000000,-5.7969279,-507.28351
4041000000,-5.8091869,-507.39679
4042000000,-5.802259,-507.39929
4043000000,-5.8206329,-507.6095
4044000000,-5.8419876,-507.56125
4045000000,-5.8336577,-507.7261
4046000000,-5.8241272,-507.65042
4047000000,-5.8436213,-507.67999
4048000000,-5.8472919,-507.95938
4049000000,-5.8300996,-507.9126
4050000000,-5.8678279,-508.13284
4051000000,-5.8859725,-508.19302
4052000000,-5.8844128,-508.38348
4053000000,-5.8650475,-508.29858
4054000000,-5.8659563,-508.68472
4055000000,-5.8679614,-508.62711
4056000000,-5.8558102,-508.68524
4057000000,-5.8601608,-508.64261
4058000000,-5.8647723,-508.93362
4059000000,-5.8960919,-508.98691
4060000000,-5.9198294,-509.15482
4061000000,-5.9139881,-509.26154
4062000000,-5.9009361,-509.15268
4063000000,-5.9266748,-509.21704
4064000000,-5.9316144,-509.33618
4065000000,-5.9313402,-509.55484
4066000000,-5.9531736,-509.79669
4067000000,-5.9317222,-509.70157
4068000000,-5.950192,-509.77603
4069000000,-5.9474845,-510.03235
4070000000,-5.9395423,-509.88718
4071000000,-5.9410558,-510.10748
4072000000,-5.9770932,-510.12308
4073000000,-5.9762678,-510.31061
4074000000,-5.9779558,-510.36191
4075000000,-5.9548869,-510.58682
4076000000,-6.0148673,-510.47577
4077000000,-5.9967337,-510.56003
4078000000,-5.9936309,-510.66403
4079000000,-5.9727173,-510.85712
4080000000,-5.9986711,-511.004
4081000000,-5.9753594,-510.7204
4082000000,-6.0338383,-511.17749
4083000000,-6.0281343,-511.10541
4084000000,-6.0131135,-511.19928
4085000000,-6.0081997,-511.29224
4086000000,-6.0108562,-511.50653
4087000000,-6.0387115,-511.59592
4088000000,-6.0629101,-511.7146
4089000000,-6.0442724,-511.60483
4090000000,-6.0439324,-511.68298
4091000000,-6.0415902,-511.76587
4092000000,-6.0395145,-511.91858
4093000000,-6.0621047,-512.16199
4094000000,-6.0811911,-512.24689
4095000000,-6.0448971,-512.14948
4096000000,-6.0841923,-512.12836
4097000000,-6.0784817,-512.3689
4098000000,-6.0890136,-512.50262
4099000000,-6.0942068,-512.74097
4100000000,-6.1065965,-512.72546
4101000000,-6.0669084,-512.64075
4102000000,-6.0914836,-512.82086
4103000000,-6.1183734,-512.98932
4104000000,-6.0964174,-512.935
4105000000,-6.0951486,-513.04083
4106000000,-6.0887365,-513.28552
4107000000,-6.114254,-513.22644
4108000000,-6.1241231,-513.26703
4109000000,-6.1023622,-513.42798
4110000000,-6.1090674,-513.41974
4111000000,-6.1290412,-513.48578
4112000000,-6.1316781,-513.80023
4113000000,-6.1387916,-513.82513
4114000000,-6.133738,-513.84717
4115000000,-6.1507506,-513.87238
4116000000,-6.1619058,-514.09204
4117000000,-6.1638317,-514.16498
4118000000,-6.146214,-514.24158
4119000000,-6.1404176,-514.26294
4120000000,-6.172914,-514.51135
4121000000,-6.1444149,-514.758
4122000000,-6.1451025,-514.59399
4123000000,-6.1683564,-514.9729
4124000000,-6.1728182,-514.78192
4125000000,-6.1835256,-514.78522
4126000000,-6.1802883,-515.10596
4127000000,-6.1819077,-515.16724
4128000000,-6.1857018,-515.10913
4129000000,-6.1932001,-515.31873
4130000000,-6.1895981,-515.4928
4131000000,-6.1977439,-515.44208
4132000000,-6.2124243,-515.55042
4133000000,-6.2483549,-515.5871
4134000000,-6.2108531,-515.72388
4135000000,-6.1864896,-515.78101
4136000000,-6.2249489,-515.97925
4137000000,-6.1942163,-516.07117
4138000000,-6.2180505,-516.1427
4139000000,-6.2381692,-516.12653
4140000000,-6.2463431,-516.38776
4141000000,-6.2141333,-516.50299
4142000000,-6.2297144,-516.4433
4143000000,-6.2401085,-516.49323
4144000000,-6.2517719,-516.74957
4145000000,-6.224504,-516.823
4146000000,-6.2605128,-516.89252
4147000000,-6.2363691,-517.01306
4148000000,-6.2499328,-516.92957
4149000000,-6.2513175,-517.02911
4150000000,-6.2577715,-517.1601
4151000000,-6.2795854,-517.29382
4152000000,-6.2642612,-517.31189
4153000000,-6.2642465,-517.38171
4154000000,-6.2862549,-517.69073
4155000000,-6.2822495,-517.61603
4156000000,-6.2750158,-517.58032
4157000000,-6.2702236,-517.84747
4158000000,-6.2937598,-517.99481
4159000000,-6.3053498,-517.88782
4160000000,-6.3006182,-518.11401
4161000000,-6.2946038,-518.12183
4162000000,-6.309782,-518.2912
4163000000,-6.2917089,-518.40088
4164000000,-6.299211,-518.26105
4165000000,-6.2934208,-518.51733
4166000000,-6.2877669,-518.64117
4167000000,-6.2957559,-518.81116
4168000000,-6.3203483,-518.84344
4169000000,-6.2974482,-518.80841
4170000000,-6.3233171,-519.05988
4171000000,-6.3247252,-519.12311
4172000000,-6.3171568,-519.1908
4173000000,-6.3230028,-519.3526
4174000000,-6.3391852,-519.36829
4175000000,-6.3505793,-519.29626
4176000000,-6.3500886,-519.56085
4177000000,-6.3240962,-519.72833
4178000000,-6.3258033,-519.52307
4179000000,-6.3100357,-519.84961
4180000000,-6.3231874,-519.94733
4181000000,-6.3175664,-519.98846
4182000000,-6.3326302,-519.99298
4183000000,-6.3614674,-520.04041
4184000000,-6.395236,-520.21631
4185000000,-6.3440905,-520.10681
4186000000,-6.3503637,-520.28436
4187000000,-6.3638024,-520.70471
4188000000,-6.3650827,-520.58112
4189000000,-6.3473001,-520.75305
4190000000,-6.3795218,-520.93707
4191000000,-6.3575792,-520.82556
4192000000,-6.36057,-520.84595
4193000000,-6.3833189,-521.09863
4194000000,-6.3764253,-521.03723
4195000000,-6.3694687,-521.31836
4196000000,-6.376205,-521.28021
4197000000,-6.4139299,-521.41156
4198000000,-6.3930764,-521.55359
4199000000,-6.3864322,-521.73688
4200000000,-6.3821688,-521.62006
4201000000,-6.3772383,-521.87024
4202000000,-6.3767538,-521.66956
4203000000,-6.3847637,-521.93799
4204000000,-6.3830075,-522.12964
4205000000,-6.3878779,-522.22113
4206000000,-6.4279933,-522.22034
4207000000,-6.4202757,-522.37579
4208000000,-6.439188,-522.37219
4209000000,-6.4009914,-522.42529
4210000000,-6.408205,-522.44049
4211000000,-6.4146419,-522.6026
4212000000,-6.4036994,-522.76959
4213000000,-6.439333,-522.86835
4214000000,-6.39606,-522.92303
4215000000,-6.4287419,-523.09412
4216000000,-6.4365888,-523.08405
4217000000,-6.3939338,-523.34814
4218000000,-6.4286313,-523.19916
4219000000,-6.4288945,-523.37732
4220000000,-6.4395542,-523.4397
4221000000,-6.4450202,-523.45746
4222000000,-6.4090452,-523.64227
4223000000,-6.4162159,-523.83667
4224000000,-6.4135613,-523.87299
4225000000,-6.4356809,-524.10187
4226000000,-6.4215684,-523.80713
4227000000,-6.4327269,-524.1684
4228000000,-6.4361129,-524.27106
4229000000,-6.4482913,-524.42346
4230000000,-6.4674401,-524.3645
4231000000,-6.4647455,-524.52319
4232000000,-6.4331894,-524.55621
4233000000,-6.4516463,-524.70789
4234000000,-6.4765792,-524.77673
4235000000,-6.4384761,-524.84424
4236000000,-6.4469857,-524.9422
4237000000,-6.4542789,-525.00897
4238000000,-6.4531527,-524.96484
4239000000,-6.4690514,-525.1933
4240000000,-6.4670734,-525.22577
4241000000,-6.4442706,-525.51294
4242000000,-6.4710975,-525.36682
4243000000,-6.4718022,-525.64459
4244000000,-6.4914055,-525.68286
4245000000,-6.4713182,-525.75275
4246000000,-6.4615278,-525.74988
4247000000,-6.4704995,-525.99786
4248000000,-6.4953513,-526.07233
4249000000,-6.4792442,-525.96558
4250000000,-6.4739299,-526.1933
4251000000,-6.4735022,-526.23096
4252000000,-6.50488,-526.4093
4253000000,-6.5083785,-526.49908
4254000000,-6.4733663,-526.46796
4255000000,-6.4932222,-526.6582
4256000000,-6.4475331,-526.92554
4257000000,-6.46386,-526.789
4258000000,-6.4805036,-526.88092
4259000000,-6.4960332,-527.0545
4260000000,-6.4811621,-527.23511
4261000000,-6.4639344,-527.3125
4262000000,-6.4993529,-527.27942
4263000000,-6.475287,-527.43451
4264000000,-6.5077076,-527.54651
4265000000,-6.5157499,-527.73138
4266000000,-6.5003824,-527.70215
4267000000,-6.4874973,-527.7207
4268000000,-6.5209708,-527.90454
4269000000,-6.5020661,-528.10828
4270000000,-6.5084634,-528.17169
4271000000,-6.5111141,-528.25031
4272000000,-6.5025134,-528.36267
4273000000,-6.5012684,-528.4245
4274000000,-6.5231705,-528.20386
4275000000,-6.4823999,-528.54309
4276000000,-6.5067663,-528.64569
4277000000,-6.5155234,-528.79028
4278000000,-6.5031853,-528.69141
4279000000,-6.4768972,-529.04199
4280000000,-6.5022092,-529.09344
4281000000,-6.5107212,-529.10498
4282000000,-6.5284629,-529.22058
4283000000,-6.5206771,-529.1734
4284000000,-6.5221305,-529.53296
4285000000,-6.5245533,-529.52161
4286000000,-6.5251455,-529.55865
4287000000,-6.5317044,-529.57739
4288000000,-6.5228629,-529.77496
4289000000,-6.5362902,-529.99646
4290000000,-6.5370526,-529.823
4291000000,-6.5348754,-529.8634
4292000000,-6.5088735,-530.17657
4293000000,-6.5324731,-530.1925
4294000000,-6.5208397,-530.24036
4295000000,-6.5255017,-530.25824
4296000000,-6.538424,-530.70264
4297000000,-6.5208545,-530.66626
4298000000,-6.5373278,-530.77515
4299000000,-6.5424719,-530.74054
4300000000,-6.5315313,-530.77393
4301000000,-6.5391002,-530.95575
4302000000,-6.5463285,-531.16205
4303000000,-6.5291348,-531.16693
4304000000,-6.5540209,-531.38373
4305000000,-6.5447345,-531.37878
4306000000,-6.5334191,-531.3255
4307000000,-6.5215664,-531.383
4308000000,-6.4999132,-531.64117
4309000000,-6.5226569,-531.83234
4310000000,-6.5434151,-531.95428
4311000000,-6.5424924,-531.95911
4312000000,-6.5469542,-531.81537
4313000000,-6.565136,-532.20898
4314000000,-6.551939,-532.2832
4315000000,-6.566134,-532.35297
4316000000,-6.5245333,-532.24908
4317000000,-6.5386596,-532.65082
4318000000,-6.5489383,-532.46448
4319000000,-6.5457983,-532.77094
4320000000,-6.5439901,-532.75244
4321000000,-6.5233374,-532.81677
4322000000,-6.5577588,-533.16748
4323000000,-6.5512514,-533.07111
4324000000,-6.5518274,-533.21783
4325000000,-6.5416312,-533.16858
4326000000,-6.5740118,-533.43341
4327000000,-6.5279284,-533.41187
4328000000,-6.5495281,-533.46124
4329000000,-6.5670037,-533.62146
4330000000,-6.5725222,-533.67987
4331000000,-6.5377092,-533.74762
4332000000,-6.5652833,-534.12
4333000000,-6.5657082,-533.94757
4334000000,-6.5620227,-534.16693
4335000000,-6.5565424,-534.14368
4336000000,-6.5716643,-534.37769
4337000000,-6.5692415,-534.35358
4338000000,-6.548821,-534.48737
4339000000,-6.5437527,-534.5943
4340000000,-6.5652719,-534.62347
4341000000,-6.5613799,-534.63184
4342000000,-6.5411043,-534.96228
4343000000,-6.5244021,-534.90436
4344000000,-6.5815606,-535.2453
4345000000,-6.5843325,-535.11719
4346000000,-6.5545478,-535.31628
4347000000,-6.5499964,-535.23138
4348000000,-6.5647321,-535.59845
4349000000,-6.552599,-535.57654
4350000000,-6.5571709,-535.54602
4351000000,-6.5563002,-535.62817
4352000000,-6.5973501,-535.72723
4353000000,-6.5699811,-535.86975
4354000000,-6.5659328,-536.0968
4355000000,-6.5610647,-536.20221
4356000000,-6.5782647,-536.24725
4357000000,-6.5620065,-536.46008
4358000000,-6.5678062,-536.46857
4359000000,-6.5543551,-536.50781
4360000000,-6.5644321,-536.47266
4361000000,-6.551641,-536.72107
4362000000,-6.5905404,-536.85602
4363000000,-6.5545788,-536.84888
4364000000,-6.5707822,-536.96307
4365000000,-6.5526943,-537.0921
4366000000,-6.5294275,-537.19043
4367000000,-6.5682845,-537.28461
4368000000,-6.5411673,-537.40479
4369000000,-6.5694113,-537.42871
4370000000,-6.5686855,-537.68762
4371000000,-6.5854111,-537.67896
4372000000,-6.5961094,-538.02777
4373000000,-6.6036954,-537.92365
4374000000,-6.5969539,-537.90918
4375000000,-6.5810604,-538.21021
4376000000,-6.5760765,-538.16632
4377000000,-6.5740957,-538.27588
4378000000,-6.5702219,-538.21393
4379000000,-6.5777659,-538.4845
4380000000,-6.5633855,-538.56122
4381000000,-6.5597134,-538.71875
4382000000,-6.5641875,-538.69159
4383000000,-6.5569816,-538.88989
4384000000,-6.5631862,-538.8584
4385000000,-6.5454574,-539.12476
4386000000,-6.5809121,-538.98181
4387000000,-6.5721064,-539.30505
4388000000,-6.5605125,-539.30029
4389000000,-6.5513692,-539.36285
4390000000,-6.5777483,-539.64978
4391000000,-6.5443192,-539.52539
4392000000,-6.5521164,-539.85913
4393000000,-6.557344,-539.88092
4394000000,-6.5559711,-540.04724
4395000000,-6.5753827,-539.87238
4396000000,-6.5634804,-539.98352
4397000000,-6.5531182,-540.04938
4398000000,-6.5536408,-540.34979
4399000000,-6.5420566,-540.49066
4400000000,-6.5650167,-540.44055
4401000000,-6.5622997,-540.50317
4402000000,-6.5572987,-540.59344
4403000000,-6.5412011,-540.89673
4404000000,-6.5642352,-540.90082
4405000000,-6.5623803,-540.8775
4406000000,-6.5708709,-541.22351
4407000000,-6.5511751,-541.23621
4408000000,-6.5554247,-541.21912
4409000000,-6.5302048,-541.48315
4410000000,-6.5724626,-541.45306
4411000000,-6.5632896,-541.69806
4412000000,-6.5447488,-541.68427
4413000000,-6.5453467,-541.79614
4414000000,-6.5659485,-542.01678
4415000000,-6.5706758,-541.93475
4416000000,-6.6099563,-542.07355
4417000000,-6.5819526,-542.26147
4418000000,-6.5610847,-542.46191
4419000000,-6.5780067,-542.35956
4420000000,-6.5644588,-542.31653
4421000000,-6.591579,-542.49127
4422000000,-6.5818591,-542.68976
4423000000,-6.5644855,-542.7323
4424000000,-6.5453954,-543.00427
4425000000,-6.5293174,-543.22388
4426000000,-6.5602665,-543.12933
4427000000,-6.5595684,-543.36584
4428000000,-6.5640392,-543.30249
4429000000,-6.5493588,-543.37451
4430000000,-6.5510287,-543.49701
4431000000,-6.5811749,-543.60205
4432000000,-6.5694118,-543.60358
4433000000,-6.5215883,-543.79535
4434000000,-6.5488949,-543.88074
4435000000,-6.5578942,-543.98456
4436000000,-6.5663867,-544.03986
4437000000,-6.5627751,-544.2486
4438000000,-6.5621243,-544.20117
4439000000,-6.555491,-544.27655
4440000000,-6.5744934,-544.37976
4441000000,-6.5495586,-544.62823
4442000000,-6.5933623,-544.73651
4443000000,-6.5552363,-544.62421
4444000000,-6.5591059,-544.89075
4445000000,-6.5421748,-545.14557
4446000000,-6.5469828,-545.27472
4447000000,-6.5609388,-545.14368
4448000000,-6.5636206,-545.39575
4449000000,-6.5793262,-545.35431
4450000000,-6.5637884,-545.67084
4451000000,-6.5712762,-545.59839
4452000000,-6.5757103,-545.65002
4453000000,-6.5666494,-545.85229
4454000000,-6.5308857,-545.98907
4455000000,-6.5432954,-545.94196
4456000000,-6.5435381,-546.06519
4457000000,-6.5603004,-546.19043
4458000000,-6.5351195,-546.11127
4459000000,-6.5516124,-546.48981
4460000000,-6.524406,-546.28619
4461000000,-6.5436187,-546.44257
4462000000,-6.5316205,-546.55865
4463000000,-6.5355244,-546.75989
4464000000,-6.5364137,-546.92828
4465000000,-6.5379004,-546.95575
4466000000,-6.5462413,-547.02954
4467000000,-6.555552,-547.22821
4468000000,-6.5478845,-547.28607
4469000000,-6.5217743,-547.22577
4470000000,-6.5464377,-547.72925
4471000000,-6.5410995,-547.54242
4472000000,-6.5321016,-547.74969
4473000000,-6.5602136,-547.80225
4474000000,-6.5433269,-547.95892
4475000000,-6.5352111,-548.12738
4476000000,-6.5346751,-548.16162
4477000000,-6.5539808,-548.18268
4478000000,-6.5303864,-548.39374
4479000000,-6.547812,-548.31836
4480000000,-6.5450892,-548.59583
4481000000,-6.5390143,-548.69818
4482000000,-6.5266013,-548.70123
4483000000,-6.5386701,-548.87244
4484000000,-6.5365953,-548.69342
4485000000,-6.558537,-548.92871
4486000000,-6.559783,-549.35583
4487000000,-6.5162945,-549.21075
4488000000,-6.5388713,-549.31647
4489000000,-6.5121779,-549.58392
4490000000,-6.5120859,-549.55341
4491000000,-6.5210156,-549.67017
4492000000,-6.5301657,-549.8634
4493000000,-6.5249066,-550.0321
4494000000,-6.5421562,-550.02576
4495000000,-6.5254526,-550.00488
4496000000,-6.5323763,-550.13367
4497000000,-6.5159335,-550.47443
4498000000,-6.5138335,-550.30219
4499000000,-6.5241199,-550.31647
4500000000,-6.5413866,-550.5152
4501000000,-6.5091281,-550.82043
4502000000,-6.5091953,-550.7923
4503000000,-6.5136352,-551.01276
4504000000,-6.5157752,-550.99213
4505000000,-6.5315094,-551.01025
4506000000,-6.5214095,-551.37372
4507000000,-6.5446687,-551.44855
4508000000,-6.519866,-551.37805
4509000000,-6.488338,-551.75873
4510000000,-6.5009065,-551.63141
4511000000,-6.525362,-551.81201
4512000000,-6.5240707,-551.94751
4513000000,-6.4921794,-551.96515
4514000000,-6.5237908,-552.08832
4515000000,-6.5407252,-552.1543
4516000000,-6.4991217,-552.46753
4517000000,-6.481339,-552.45776
4518000000,-6.5234728,-552.48834
4519000000,-6.5193863,-552.64929
4520000000,-6.5171356,-552.69464
4521000000,-6.5217118,-552.85553
4522000000,-6.5167394,-552.94055
4523000000,-6.5089898,-553.05286
4524000000,-6.5091023,-553.09485
4525000000,-6.4993148,-553.21008
4526000000,-6.5299482,-553.15027
4527000000,-6.5044427,-553.52386
4528000000,-6.5099945,-553.40546
4529000000,-6.4982252,-553.58588
4530000000,-6.5037155,-553.72058
4531000000,-6.5263882,-553.87958
4532000000,-6.5176473,-554.05725
4533000000,-6.4944959,-553.87128
4534000000,-6.5123076,-554.37909
4535000000,-6.5282602,-554.34796
4536000000,-6.4948564,-554.38837
4537000000,-6.5231595,-554.48431
4538000000,-6.5089545,-554.40839
4539000000,-6.5068154,-554.66406
4540000000,-6.4838352,-554.81354
4541000000,-6.4848161,-555.00696
4542000000,-6.5130558,-554.9873
4543000000,-6.4761038,-555.09839
4544000000,-6.498538,-555.26917
4545000000,-6.4919543,-555.297
4546000000,-6.4979515,-555.49304
4547000000,-6.5263329,-555.69379
4548000000,-6.4792743,-555.48309
4549000000,-6.4996896,-555.92761
4550000000,-6.4804053,-555.78137
4551000000,-6.4741836,-555.95105
4552000000,-6.5030994,-556.05981
4553000000,-6.4914694,-556.20129
4554000000,-6.4962878,-556.2113
4555000000,-6.4851999,-556.39978
4556000000,-6.4819746,-556.45337
4557000000,-6.485013,-556.65814
4558000000,-6.4810982,-556.6449
4559000000,-6.4831963,-556.82751
4560000000,-6.4888821,-556.89716
4561000000,-6.48665,-557.01129
4562000000,-6.4550095,-557.14496
4563000000,-6.4700332,-557.31805
4564000000,-6.4712477,-557.29248
4565000000,-6.4637179,-557.12878
4566000000,-6.4893432,-557.52026
4567000000,-6.4667168,-557.68024
4568000000,-6.4773269,-557.67096
4569000000,-6.4731746,-557.87823
4570000000,-6.4859614,-557.90729
4571000000,-6.4584622,-558.14117
4572000000,-6.4813628,-558.22498
4573000000,-6.4793901,-558.34637
4574000000,-6.4724045,-558.21173
4575000000,-6.4758234,-558.4563
4576000000,-6.4709086,-558.55756
4577000000,-6.4605532,-558.71198
4578000000,-6.4553618,-558.7204
4579000000,-6.4710488,-559.0274
4580000000,-6.4644456,-558.8891
4581000000,-6.4511533,-559.15491
4582000000,-6.4716172,-559.11011
4583000000,-6.4545059,-559.28827
4584000000,-6.4375658,-559.44598
4585000000,-6.4755712,-559.44373
4586000000,-6.4898405,-559.86426
4587000000,-6.4492979,-559.81659
4588000000,-6.4638271,-559.88007
4589000000,-6.4322362,-559.8147
4590000000,-6.4528084,-560.0874
4591000000,-6.4868011,-560.12372
4592000000,-6.4652119,-560.26886
4593000000,-6.4486942,-560.4458
4594000000,-6.4393239,-560.47906
4595000000,-6.447691,-560.47937
4596000000,-6.4449201,-560.80145
4597000000,-6.4843674,-560.73639
4598000000,-6.4191046,-560.84845
4599000000,-6.433991,-560.91693
4600000000,-6.4598851,-561.10248
4601000000,-6.4657912,-561.1203
4602000000,-6.4444752,-561.07117
4603000000,-6.4572043,-561.38208
4604000000,-6.4574466,-561.65173
4605000000,-6.4461174,-561.62585
4606000000,-6.4485626,-561.9032
4607000000,-6.4379854,-561.66345
4608000000,-6.4360075,-562.0705
4609000000,-6.4320521,-561.95886
4610000000,-6.449296,-562.25635
4611000000,-6.4369655,-562.15442
4612000000,-6.4365377,-562.27545
4613000000,-6.4559579,-562.50958
4614000000,-6.4155765,-562.67926
4615000000,-6.4212818,-562.76001
4616000000,-6.4181638,-562.74988
4617000000,-6.4397259,-563.11725
4618000000,-6.4478831,-562.98224
4619000000,-6.4265299,-563.33801
4620000000,-6.4336004,-563.23315
4621000000,-6.4335971,-563.3103
4622000000,-6.4126477,-563.49384
4623000000,-6.4306645,-563.53418
4624000000,-6.4010301,-563.52319
4625000000,-6.4271717,-563.65784
4626000000,-6.431561,-563.93323
4627000000,-6.4162483,-563.94574
4628000000,-6.4075789,-563.9306
4629000000,-6.4140277,-564.30591
4630000000,-6.43466,-564.42206
4631000000,-6.4246826,-564.46191
4632000000,-6.4095125,-564.52008
4633000000,-6.4272871,-564.71924
4634000000,-6.4009552,-564.80634
4635000000,-6.4029751,-564.72974
4636000000,-6.4267902,-564.92047
4637000000,-6.4052668,-565.05298
4638000000,-6.4415069,-565.26947
4639000000,-6.3964906,-565.0827
4640000000,-6.4207649,-565.50385
4641000000,-6.4102154,-565.35913
4642000000,-6.3916745,-565.64923
4643000000,-6.4333072,-565.77155
4644000000,-6.4113202,-565.80432
4645000000,-6.3847251,-565.83002
4646000000,-6.393177,-566.18073
4647000000,-6.4044557,-566.25
4648000000,-6.3847785,-566.28284
4649000000,-6.3825569,-566.25555
4650000000,-6.3792806,-566.56
4651000000,-6.3893347,-566.51062
4652000000,-6.3868213,-566.74121
4653000000,-6.3872085,-566.86523
4654000000,-6.4069357,-566.77472
4655000000,-6.3929615,-567.11029
4656000000,-6.402225,-567.25586
4657000000,-6.3763709,-567.29102
4658000000,-6.3942485,-567.21558
4659000000,-6.3921604,-567.41425
4660000000,-6.3747416,-567.56262
4661000000,-6.3641119,-567.69574
4662000000,-6.3925762,-567.81537
4663000000,-6.3724618,-567.88898
4664000000,-6.3800745,-567.96002
4665000000,-6.3724632,-568.13715
4666000000,-6.3942351,-568.19232
4667000000,-6.3811731,-568.38544
4668000000,-6.3648219,-568.33411
4669000000,-6.3983564,-568.44708
4670000000,-6.3843694,-568.46033
4671000000,-6.3783121,-568.88654
4672000000,-6.3826499,-568.92859
4673000000,-6.3722086,-568.86041
4674000000,-6.3609772,-569.00128
4675000000,-6.3721547,-569.16504
4676000000,-6.376369,-569.34106
4677000000,-6.3723264,-569.36139
4678000000,-6.3683391,-569.43707
4679000000,-6.3679905,-569.53589
4680000000,-6.3643932,-569.68854
4681000000,-6.3670735,-569.87061
4682000000,-6.3564887,-569.94507
4683000000,-6.3683648,-569.97784
4684000000,-6.332736,-570.10443
4685000000,-6.3498187,-570.5047
4686000000,-6.3561287,-570.27539
4687000000,-6.3345137,-570.38458
4688000000,-6.3669333,-570.45612
4689000000,-6.3557396,-570.76984
4690000000,-6.36972,-570.77917
4691000000,-6.3655863,-570.87909
4692000000,-6.3670654,-571.04626
4693000000,-6.3445778,-571.10297
4694000000,-6.3294282,-571.19794
4695000000,-6.3453631,-571.31104
4696000000,-6.3288174,-571.68469
4697000000,-6.3629427,-571.69391
4698000000,-6.3399196,-571.63037
4699000000,-6.3533931,-571.81641
4700000000,-6.3556089,-571.95471
4701000000,-6.3478093,-572.06964
4702000000,-6.3531389,-572.08484
4703000000,-6.3370924,-572.30579
4704000000,-6.3360438,-572.22974
4705000000,-6.3298316,-572.38013
4706000000,-6.3563805,-572.68787
4707000000,-6.3662858,-572.69446
4708000000,-6.3396392,-572.77966
4709000000,-6.3210568,-572.86304
4710000000,-6.3174667,-573.06836
4711000000,-6.3298702,-573.00677
4712000000,-6.3452029,-573.29901
4713000000,-6.337132,-573.42023
4714000000,-6.3519297,-573.39423
4715000000,-6.3358474,-573.61694
4716000000,-6.3471985,-573.75128
4717000000,-6.3278399,-573.85992
4718000000,-6.3203378,-573.90234
4719000000,-6.3299994,-574.06781
4720000000,-6.338973,-574.07117
4721000000,-6.3114076,-574.2002
4722000000,-6.3393254,-574.24896
4723000000,-6.3045225,-574.43756
4724000000,-6.2980108,-574.38501
4725000000,-6.3039308,-574.62744
4726000000,-6.2885971,-574.66638
4727000000,-6.3140836,-574.9126
4728000000,-6.2946115,-574.953
4729000000,-6.3011675,-575.10596
4730000000,-6.3162613,-575.32465
4731000000,-6.2957006,-575.30457
4732000000,-6.3154697,-575.32458
4733000000,-6.3099751,-575.44934
4734000000,-6.2845778,-575.66272
4735000000,-6.2798557,-575.88074
4736000000,-6.2880077,-575.87451
4737000000,-6.3030567,-575.93219
4738000000,-6.2924538,-575.94116
4739000000,-6.296032,-576.12769
4740000000,-6.3092046,-576.32843
4741000000,-6.2860608,-576.55597
4742000000,-6.30163,-576.48273
4743000000,-6.2757292,-576.74023
4744000000,-6.3117943,-576.83344
4745000000,-6.2704062,-576.83014
4746000000,-6.278791,-577.13702
4747000000,-6.2642231,-577.07227
4748000000,-6.2716255,-577.33148
4749000000,-6.2705579,-577.38879
4750000000,-6.2539735,-577.51416
4751000000,-6.2883096,-577.534
4752000000,-6.2597914,-577.78839
4753000000,-6.2495975,-577.76245
4754000000,-6.2669916,-577.95544
4755000000,-6.2864218,-577.95441
4756000000,-6.2786002,-578.1355
4757000000,-6.2558451,-578.18213
4758000000,-6.2808042,-578.27875
4759000000,-6.2709384,-578.43103
4760000000,-6.2465267,-578.40582
4761000000,-6.2641525,-578.56158
4762000000,-6.2784796,-578.67584
4763000000,-6.2538047,-579.01556
4764000000,-6.2635984,-579.05029
4765000000,-6.2755508,-579.11218
4766000000,-6.2589526,-579.22473
4767000000,-6.2730441,-579.27472
4768000000,-6.2658362,-579.29932
4769000000,-6.2738891,-579.60907
4770000000,-6.243638,-579.63251
4771000000,-6.2397156,-579.63904
4772000000,-6.2282143,-580.04663
4773000000,-6.2550282,-579.9765
4774000000,-6.2633653,-580.21985
4775000000,-6.2061667,-580.22229
4776000000,-6.2667589,-580.38342
4777000000,-6.255218,-580.45044
4778000000,-6.2107997,-580.50732
4779000000,-6.2088394,-580.55573
4780000000,-6.2336497,-581.0119
4781000000,-6.2268276,-580.96216
4782000000,-6.2057695,-581.07935
4783000000,-6.2214274,-581.21899
4784000000,-6.2180715,-581.23071
4785000000,-6.2032089,-581.40778
4786000000,-6.2161565,-581.76746
4787000000,-6.1700029,-581.59961
4788000000,-6.2384005,-581.84369
4789000000,-6.2329326,-581.78113
4790000000,-6.2023673,-581.74506
4791000000,-6.2487369,-581.96887
4792000000,-6.2024045,-581.9306
4793000000,-6.2048068,-582.14154
4794000000,-6.2272353,-582.3407
4795000000,-6.201067,-582.39331
4796000000,-6.2303867,-582.66052
4797000000,-6.1912656,-582.74115
4798000000,-6.2040315,-582.7428
4799000000,-6.1860461,-582.94849
4800000000,-6.1936884,-583.14264
4801000000,-6.1711473,-583.19171
4802000000,-6.2177343,-583.19617
4803000000,-6.1880841,-583.54626
4804000000,-6.1911421,-583.60284
4805000000,-6.1758528,-583.60168
4806000000,-6.1926527,-583.80463
4807000000,-6.1777878,-583.96722
4808000000,-6.2045512,-584.15167
4809000000,-6.1918001,-584.0672
4810000000,-6.2166777,-584.19843
4811000000,-6.1855884,-584.25989
4812000000,-6.155694,-584.36578
4813000000,-6.1800318,-584.53583
4814000000,-6.1776538,-584.59784
4815000000,-6.171977,-584.75842
4816000000,-6.1794248,-584.92511
4817000000,-6.1703467,-584.99664
4818000000,-6.1944356,-585.01141
4819000000,-6.1961617,-585.3728
4820000000,-6.1612706,-585.26727
4821000000,-6.1733174,-585.46631
4822000000,-6.1699495,-585.7475
4823000000,-6.1662874,-585.56256
4824000000,-6.183279,-585.94324
4825000000,-6.1807261,-585.75555
4826000000,-6.1355848,-586.01129
4827000000,-6.156405,-586.18896
4828000000,-6.1578956,-586.27246
4829000000,-6.1791749,-586.47766
4830000000,-6.159256,-586.51825
4831000000,-6.1661005,-586.82941
4832000000,-6.119431,-586.65765
4833000000,-6.1723948,-586.87891
4834000000,-6.165628,-587.08459
4835000000,-6.1168647,-587.07166
4836000000,-6.1476169,-587.20447
4837000000,-6.1510363,-587.25464
4838000000,-6.1044784,-587.5401
4839000000,-6.1546764,-587.4928
4840000000,-6.1519384,-587.56982
4841000000,-6.1155329,-587.93945
4842000000,-6.1260262,-587.98187
4843000000,-6.1294961,-588.06335
4844000000,-6.1216655,-588.1701
4845000000,-6.1200514,-588.21649
4846000000,-6.1422019,-588.35394
4847000000,-6.1523509,-588.56616
4848000000,-6.1121898,-588.6441
4849000000,-6.1302118,-588.78326
4850000000,-6.132381,-588.74084
4851000000,-6.1230278,-589.05206
4852000000,-6.1388755,-589.1463
4853000000,-6.0971274,-589.1861
4854000000,-6.1231608,-589.23602
4855000000,-6.09621,-589.39191
4856000000,-6.1230125,-589.69446
4857000000,-6.128696,-589.65515
4858000000,-6.1156297,-589.79126
4859000000,-6.118094,-589.84424
4860000000,-6.1393094,-589.75598
4861000000,-6.095211,-590.07251
4862000000,-6.0954671,-590.23126
4863000000,-6.1227078,-590.21344
4864000000,-6.105464,-590.25305
4865000000,-6.1130486,-590.48999
4866000000,-6.0972714,-590.69135
4867000000,-6.1059451,-590.91754
4868000000,-6.0908666,-590.86786
4869000000,-6.1067071,-590.93604
4870000000,-6.1250615,-591.21088
4871000000,-6.1027503,-591.33453
4872000000,-6.1144347,-591.4906
4873000000,-6.0724068,-591.66431
4874000000,-6.0847054,-591.63257
4875000000,-6.0981631,-591.82916
4876000000,-6.0694451,-591.87817
4877000000,-6.0701408,-592.04089
4878000000,-6.0842853,-592.14203
4879000000,-6.0491748,-592.32825
4880000000,-6.0737815,-592.4231
4881000000,-6.0996065,-592.47168
4882000000,-6.1048021,-592.55109
4883000000,-6.0674095,-592.65417
4884000000,-6.0597363,-592.97125
4885000000,-6.0719481,-592.99329
4886000000,-6.0709424,-593.10168
4887000000,-6.0895648,-593.2417
4888000000,-6.0574822,-593.49683
4889000000,-6.0863099,-593.43341
4890000000,-6.0389824,-593.56873
4891000000,-6.0701466,-593.71454
4892000000,-6.0665097,-593.84796
4893000000,-6.0578566,-594.10754
4894000000,-6.0968299,-594.09546
4895000000,-6.027638,-594.19806
4896000000,-6.0643673,-594.33478
4897000000,-6.0555358,-594.47864
4898000000,-6.0546117,-594.38483
4899000000,-6.0365372,-594.59717
4900000000,-6.0729871,-594.78766
4901000000,-6.0820208,-594.89313
4902000000,-6.0706692,-595.06842
4903000000,-6.0729327,-595.0661
4904000000,-6.0600557,-595.1579
4905000000,-6.0593667,-595.37653
4906000000,-6.0634451,-595.58746
4907000000,-6.0693808,-595.56909
4908000000,-6.0496254,-595.63049
4909000000,-6.0437727,-596.03131
4910000000,-6.0533099,-596.00488
4911000000,-6.0501623,-596.12885
4912000000,-6.0289512,-596.30811
4913000000,-6.0377302,-596.4566
4914000000,-6.0564885,-596.53473
4915000000,-6.0515366,-596.56409
4916000000,-6.0560288,-596.85638
4917000000,-6.0221963,-596.90308
4918000000,-6.0113826,-596.91315
4919000000,-6.0092754,-597.12207
4920000000,-6.0136366,-597.36047
4921000000,-6.0356216,-597.36206
4922000000,-6.0275536,-597.39258
4923000000,-6.0279026,-597.6853
4924000000,-6.005538,-597.74078
4925000000,-6.0277667,-597.89801
4926000000,-6.0441265,-598.04047
4927000000,-6.0145493,-598.00787
4928000000,-6.0079699,-598.15875
4929000000,-5.9987946,-598.37091
4930000000,-6.018043,-598.51086
4931000000,-6.0046458,-598.6532
4932000000,-6.0023308,-598.73376
4933000000,-6.0071106,-598.98309
4934000000,-6.0005527,-598.7608
4935000000,-6.0074787,-599.13269
4936000000,-5.9990406,-599.23102
4937000000,-6.007195,-599.21326
4938000000,-6.0242815,-599.50018
4939000000,-6.0237446,-599.48401
4940000000,-6.0578198,-599.90302
4941000000,-6.0126305,-599.78687
4942000000,-6.0396085,-600.0083
4943000000,-6.0223017,-600.09448
4944000000,-6.0027723,-600.02216
4945000000,-6.028079,-600.52026
4946000000,-6.0333538,-600.24915
4947000000,-6.0169373,-600.4873
4948000000,-6.0305619,-600.56439
4949000000,-5.9973912,-600.66583
4950000000,-6.0312243,-600.94257
4951000000,-6.0180244,-600.90009
4952000000,-6.0162363,-601.06177
4953000000,-6.0004029,-601.22943
4954000000,-5.9773006,-601.42462
4955000000,-6.0082302,-601.44
4956000000,-5.9791675,-601.50989
4957000000,-5.9851727,-601.85577
4958000000,-6.0026193,-601.94623
4959000000,-6.0029044,-602.18591
4960000000,-5.9826994,-602.24103
4961000000,-5.9720125,-602.33704
4962000000,-5.9978771,-602.46106
4963000000,-6.002543,-602.48108
4964000000,-5.977365,-602.745
4965000000,-5.9967098,-602.93805
4966000000,-5.9820457,-602.88538
4967000000,-5.9884973,-602.85608
4968000000,-6.0013866,-603.08093
4969000000,-5.9826746,-603.33533
4970000000,-5.9847417,-603.40424
4971000000,-5.9775333,-603.63354
4972000000,-6.0001769,-603.65759
4973000000,-5.9902353,-603.85846
4974000000,-5.9799447,-603.88953
4975000000,-5.9921846,-604.0788
4976000000,-6.0001369,-604.13403
4977000000,-5.988914,-604.43414
4978000000,-5.9549627,-604.43188
4979000000,-6.0113006,-604.52252
4980000000,-5.9968166,-604.76892
4981000000,-6.0003252,-604.8623
4982000000,-5.9489837,-604.97284
4983000000,-5.9680696,-605.02747
4984000000,-5.9743385,-605.29034
4985000000,-6.008285,-605.3136
4986000000,-5.9994483,-605.54919
4987000000,-6.0125446,-605.43195
4988000000,-5.9963527,-605.60211
4989000000,-6.0020566,-605.76917
4990000000,-5.9937229,-605.97644
4991000000,-6.0214663,-606.11554
4992000000,-5.9904127,-606.27478
4993000000,-5.9914913,-606.36285
4994000000,-6.0052752,-606.32306
4995000000,-5.9870367,-606.43439
4996000000,-5.9769664,-606.6181
4997000000,-5.9855075,-606.87689
4998000000,-5.9651842,-606.81
4999000000,-5.9789705,-607.15479
5000000000,-5.9480281,-607.40131
END

