!CSV A.01.01
!Agilent Technologies,E8362C,MY49020225,A.09.42.22
!Agilent E8362C: A.09.42.22
!Date: Tuesday, March 08, 2016 15:31:03
!Source: Standard

BEGIN CH1_DATA
Freq(Hz),S21 Log Mag(dB),S21 Phase(°)
1000000000,-5.0855613,-110.3532
1001000000,-5.0799122,-110.36837
1002000000,-5.0665927,-110.3242
1003000000,-5.0940833,-110.46133
1004000000,-5.061799,-110.81717
1005000000,-5.1133285,-110.88072
1006000000,-5.0642757,-111.0331
1007000000,-5.0618916,-111.22567
1008000000,-5.0716233,-111.33801
1009000000,-5.0659943,-111.37492
1010000000,-5.0594082,-111.56285
1011000000,-5.0674548,-111.80696
1012000000,-5.0869155,-111.55457
1013000000,-5.0579038,-112.0138
1014000000,-5.0576773,-112.08648
1015000000,-5.0455508,-112.32166
1016000000,-5.0538187,-112.50673
1017000000,-5.0307894,-112.24789
1018000000,-5.0582638,-112.72066
1019000000,-5.0624781,-112.79895
1020000000,-5.060513,-112.88565
1021000000,-5.047648,-113.19672
1022000000,-5.0335536,-113.10809
1023000000,-5.0670581,-113.44796
1024000000,-5.0741615,-113.47133
1025000000,-5.0833731,-113.53988
1026000000,-5.0645876,-113.66069
1027000000,-5.0266552,-113.79469
1028000000,-5.0456362,-114.15908
1029000000,-5.0373578,-114.08653
1030000000,-5.0411754,-114.30344
1031000000,-5.0434508,-114.36568
1032000000,-5.0671372,-114.53837
1033000000,-5.0654683,-114.60701
1034000000,-5.0756936,-114.76475
1035000000,-5.0466471,-114.77374
1036000000,-5.0521922,-115.09445
1037000000,-5.0263429,-115.35273
1038000000,-5.0263009,-115.21405
1039000000,-5.0272355,-115.48322
1040000000,-5.0382743,-115.54022
1041000000,-5.0568776,-115.66626
1042000000,-5.0468025,-115.84179
1043000000,-5.0149112,-115.88558
1044000000,-5.0072803,-115.96893
1045000000,-5.0743923,-116.26084
1046000000,-5.0357242,-116.63828
1047000000,-5.0300026,-116.44182
1048000000,-5.0348439,-116.49043
1049000000,-5.0048642,-116.78394
1050000000,-5.0084925,-116.93848
1051000000,-5.0513959,-117.09895
1052000000,-5.0168543,-117.16578
1053000000,-5.0067749,-117.33755
1054000000,-5.0199156,-117.45399
1055000000,-5.0330625,-117.63064
1056000000,-5.0348253,-117.48306
1057000000,-5.0325789,-118.00639
1058000000,-5.0353794,-118.01656
1059000000,-5.0349112,-118.19104
1060000000,-5.0106287,-118.21855
1061000000,-5.0343585,-118.26451
1062000000,-5.0242581,-118.45178
1063000000,-4.9852667,-118.69773
1064000000,-5.0299835,-118.97343
1065000000,-5.0021091,-118.99593
1066000000,-5.0256042,-119.20464
1067000000,-4.9891362,-119.4585
1068000000,-4.9814806,-119.52857
1069000000,-5.0017405,-119.40706
1070000000,-5.0290914,-119.60365
1071000000,-5.0110936,-119.75267
1072000000,-4.9999437,-119.99211
1073000000,-5.0243816,-119.97464
1074000000,-4.991209,-120.00145
1075000000,-5.0261478,-120.45799
1076000000,-4.9922605,-120.52832
1077000000,-5.0148544,-120.72884
1078000000,-4.9971504,-120.67837
1079000000,-4.997807,-120.83669
1080000000,-4.9931545,-120.94973
1081000000,-5.0168424,-121.17841
1082000000,-5.0253038,-121.40596
1083000000,-4.9843144,-121.51808
1084000000,-4.9676237,-121.50867
1085000000,-5.0077343,-121.78339
1086000000,-5.0106678,-122.05007
1087000000,-4.9748898,-122.13594
1088000000,-5.0065856,-122.15818
1089000000,-4.974432,-122.28748
1090000000,-4.9952593,-122.50343
1091000000,-4.9937229,-122.57824
1092000000,-4.9985633,-122.75323
1093000000,-4.9600606,-123.07845
1094000000,-4.9859028,-123.04183
1095000000,-4.9978333,-123.22456
1096000000,-4.9959683,-123.30922
1097000000,-4.9914412,-123.6152
1098000000,-4.9650145,-123.65873
1099000000,-4.9995384,-123.91034
1100000000,-4.9977942,-123.74937
1101000000,-4.9873466,-124.10207
1102000000,-5.0057631,-123.95219
1103000000,-4.9908237,-124.38511
1104000000,-4.9706526,-124.4241
1105000000,-4.985261,-124.63496
1106000000,-4.9669113,-124.7823
1107000000,-4.9880252,-124.94934
1108000000,-4.9664359,-125.18542
1109000000,-4.9443011,-125.20187
1110000000,-4.9849482,-125.33378
1111000000,-4.9777651,-125.31162
1112000000,-4.9619474,-125.79587
1113000000,-4.9657602,-125.79744
1114000000,-4.9785991,-125.85977
1115000000,-4.9666076,-125.92317
1116000000,-4.9748774,-126.17589
1117000000,-4.9432011,-126.32584
1118000000,-4.9951906,-126.34669
1119000000,-4.9751029,-126.48259
1120000000,-4.9548335,-126.61294
1121000000,-4.9669561,-126.94785
1122000000,-4.9805756,-127.10169
1123000000,-4.9419432,-127.11381
1124000000,-4.945365,-127.30806
1125000000,-4.9716473,-127.54742
1126000000,-4.9675231,-127.5742
1127000000,-4.950778,-127.70963
1128000000,-4.9946294,-128.08173
1129000000,-4.9871407,-128.21458
1130000000,-4.9982014,-128.09952
1131000000,-4.9555531,-128.39703
1132000000,-4.9752092,-128.43939
1133000000,-4.9683461,-128.75642
1134000000,-4.9404249,-128.60637
1135000000,-4.9809952,-128.89711
1136000000,-4.9794564,-129.05823
1137000000,-4.9610515,-129.2838
1138000000,-4.9645386,-129.28876
1139000000,-4.9721193,-129.43832
1140000000,-4.9625754,-129.69099
1141000000,-4.9817872,-129.7475
1142000000,-4.9975376,-129.82516
1143000000,-4.9434686,-130.05167
1144000000,-4.9622006,-130.39362
1145000000,-4.9419379,-130.71426
1146000000,-4.937283,-130.49124
1147000000,-4.9270797,-130.67619
1148000000,-4.9426351,-130.78275
1149000000,-4.941062,-131.0062
1150000000,-4.9431534,-131.09683
1151000000,-4.9505377,-131.10402
1152000000,-4.9571981,-131.49179
1153000000,-4.9425488,-131.4601
1154000000,-4.9689665,-131.65289
1155000000,-4.9751558,-131.88553
1156000000,-4.9368691,-132.05055
1157000000,-4.9421926,-132.1239
1158000000,-4.9682007,-132.35994
1159000000,-4.9601817,-132.52403
1160000000,-4.9390712,-132.71796
1161000000,-4.9492273,-132.55666
1162000000,-4.9503527,-132.95601
1163000000,-4.9655986,-133.08839
1164000000,-4.9507842,-133.21011
1165000000,-4.9348612,-133.25545
1166000000,-4.9327426,-133.5273
1167000000,-4.9299922,-133.75916
1168000000,-4.9478669,-133.77682
1169000000,-4.9502411,-133.92419
1170000000,-4.9320402,-134.04865
1171000000,-4.9432678,-134.24767
1172000000,-4.9328828,-134.46269
1173000000,-4.957047,-134.50485
1174000000,-4.9796543,-134.48811
1175000000,-4.9453969,-134.8643
1176000000,-4.9037099,-135.002
1177000000,-4.9650812,-135.18822
1178000000,-4.9381475,-135.45239
1179000000,-4.9408779,-135.41307
1180000000,-4.9462962,-135.75043
1181000000,-4.9438086,-135.67949
1182000000,-4.9345069,-136.03004
1183000000,-4.9708433,-136.0968
1184000000,-4.9650354,-136.14674
1185000000,-4.9695296,-136.35059
1186000000,-4.9712586,-136.3788
1187000000,-4.9659357,-136.74632
1188000000,-4.9457612,-136.8141
1189000000,-4.9546142,-137.06091
1190000000,-4.901547,-137.06363
1191000000,-4.948894,-137.29706
1192000000,-4.9283233,-137.35555
1193000000,-4.9516568,-137.63101
1194000000,-4.9207397,-137.63443
1195000000,-4.9379659,-137.89841
1196000000,-4.9530358,-138.05612
1197000000,-4.9455633,-138.22441
1198000000,-4.9381499,-138.39383
1199000000,-4.9211607,-138.48723
1200000000,-4.9210181,-138.73129
1201000000,-4.9370866,-138.76822
1202000000,-4.9456758,-138.93813
1203000000,-4.9640465,-139.09137
1204000000,-4.9533095,-139.22356
1205000000,-4.9483714,-139.43654
1206000000,-4.9589477,-139.4982
1207000000,-4.9419923,-139.58006
1208000000,-4.9467554,-139.68893
1209000000,-4.936029,-139.9606
1210000000,-4.9625421,-140.0367
1211000000,-4.9399743,-140.38338
1212000000,-4.9360743,-140.41397
1213000000,-4.9674616,-141.00247
1214000000,-4.9468679,-140.59016
1215000000,-4.926568,-140.90298
1216000000,-4.9399881,-141.1344
1217000000,-4.9396515,-141.34482
1218000000,-4.9264355,-141.59883
1219000000,-4.9141498,-141.5136
1220000000,-4.9049258,-141.60521
1221000000,-4.9264832,-142.03354
1222000000,-4.9375415,-141.99785
1223000000,-4.9530954,-142.18488
1224000000,-4.9176879,-142.06387
1225000000,-4.9437504,-142.48685
1226000000,-4.9413562,-142.6432
1227000000,-4.9584403,-142.99245
1228000000,-4.9737492,-143.01057
1229000000,-4.9404488,-143.17152
1230000000,-4.954155,-143.39574
1231000000,-4.9463806,-143.62837
1232000000,-4.969398,-143.56169
1233000000,-4.9486227,-143.71471
1234000000,-4.9706783,-143.90887
1235000000,-4.9364777,-144.00635
1236000000,-4.9491653,-144.19943
1237000000,-4.960597,-144.34015
1238000000,-4.9545765,-144.61386
1239000000,-4.9658198,-144.72784
1240000000,-4.946959,-144.84439
1241000000,-4.9574618,-144.93311
1242000000,-4.959116,-145.12134
1243000000,-4.9708695,-145.34315
1244000000,-4.9648724,-145.50696
1245000000,-4.9636006,-145.76279
1246000000,-4.931109,-145.8923
1247000000,-4.9565005,-146.07666
1248000000,-4.966352,-146.08664
1249000000,-4.9539914,-146.31248
1250000000,-4.9770823,-146.59822
1251000000,-4.9446163,-146.68933
1252000000,-4.9483485,-146.75656
1253000000,-4.9566326,-146.99619
1254000000,-4.9949718,-147.34006
1255000000,-4.9248576,-147.34166
1256000000,-4.9535728,-147.51624
1257000000,-4.9420652,-147.67711
1258000000,-4.9464417,-147.89769
1259000000,-4.9778037,-148.2063
1260000000,-4.9786253,-147.82841
1261000000,-4.9860883,-148.09706
1262000000,-4.9789662,-148.64749
1263000000,-4.96772,-148.62979
1264000000,-4.9817581,-148.71687
1265000000,-4.9641085,-148.72801
1266000000,-4.9448299,-149.07925
1267000000,-4.9597397,-149.44514
1268000000,-4.9643474,-149.40924
1269000000,-4.9566603,-149.62286
1270000000,-5.0024176,-149.85132
1271000000,-4.9984288,-149.95911
1272000000,-4.9851184,-150.16792
1273000000,-4.9860277,-150.20016
1274000000,-4.9604101,-150.39278
1275000000,-4.9757328,-150.70412
1276000000,-5.0002427,-150.70323
1277000000,-4.9857011,-150.866
1278000000,-4.985209,-150.96974
1279000000,-4.9727764,-151.24811
1280000000,-4.9923029,-151.52092
1281000000,-5.0079513,-151.54604
1282000000,-5.0106635,-151.76709
1283000000,-4.9812059,-152.14952
1284000000,-4.983768,-152.02029
1285000000,-4.9859896,-152.25058
1286000000,-4.9780402,-152.35458
1287000000,-4.9914212,-152.35904
1288000000,-4.9944553,-152.77899
1289000000,-5.0343809,-152.90135
1290000000,-5.0079746,-153.26614
1291000000,-5.0091414,-153.28984
1292000000,-5.001811,-153.6315
1293000000,-5.0303984,-153.63295
1294000000,-4.9861751,-153.6938
1295000000,-4.9789934,-153.89066
1296000000,-5.0281529,-153.94128
1297000000,-5.0414424,-154.33371
1298000000,-5.0142508,-154.67969
1299000000,-5.0061054,-154.49246
1300000000,-4.9926147,-154.81236
1301000000,-5.0474977,-154.8139
1302000000,-4.9935451,-155.01901
1303000000,-5.0151491,-155.45247
1304000000,-5.0371618,-155.2238
1305000000,-5.0395179,-155.57065
1306000000,-5.0329986,-155.79761
1307000000,-5.0176268,-156.17488
1308000000,-5.0559988,-155.96826
1309000000,-5.0364094,-156.28418
1310000000,-5.0267029,-156.5103
1311000000,-5.0494137,-156.54492
1312000000,-5.0422206,-156.83693
1313000000,-5.0346613,-157.00864
1314000000,-5.0482988,-157.38921
1315000000,-5.0457072,-157.32083
1316000000,-5.063108,-157.3996
1317000000,-5.0478806,-157.49039
1318000000,-5.0336251,-157.73016
1319000000,-5.0765123,-157.96445
1320000000,-5.064456,-158.07838
1321000000,-5.0679326,-158.36201
1322000000,-5.0491061,-158.37389
1323000000,-5.077466,-158.58907
1324000000,-5.0728669,-158.69379
1325000000,-5.0810113,-158.9082
1326000000,-5.0591516,-158.95895
1327000000,-5.0670199,-159.24049
1328000000,-5.07092,-159.42529
1329000000,-5.1066666,-159.509
1330000000,-5.0719161,-159.80347
1331000000,-5.0846906,-160.05736
1332000000,-5.0874381,-160.12254
1333000000,-5.1115069,-160.47223
1334000000,-5.0883536,-160.66341
1335000000,-5.0711317,-160.69157
1336000000,-5.0980535,-160.85037
1337000000,-5.0816607,-161.19257
1338000000,-5.0945754,-161.2874
1339000000,-5.0802112,-161.38585
1340000000,-5.1570683,-161.56728
1341000000,-5.1002574,-161.79486
1342000000,-5.0978937,-162.00253
1343000000,-5.1027513,-162.13831
1344000000,-5.1001534,-162.27798
1345000000,-5.1423168,-162.56789
1346000000,-5.1234198,-162.74625
1347000000,-5.1430316,-162.75356
1348000000,-5.0988731,-162.89465
1349000000,-5.154604,-163.26768
1350000000,-5.1284714,-163.44672
1351000000,-5.1274428,-163.33897
1352000000,-5.161191,-163.771
1353000000,-5.1323423,-163.80836
1354000000,-5.1482677,-163.90894
1355000000,-5.1802893,-164.09282
1356000000,-5.1437764,-164.24234
1357000000,-5.1537452,-164.56718
1358000000,-5.1732049,-164.55824
1359000000,-5.1705122,-164.95088
1360000000,-5.1503677,-165.09758
1361000000,-5.1696525,-165.28958
1362000000,-5.1688342,-165.50034
1363000000,-5.1596327,-165.66187
1364000000,-5.1768188,-165.80591
1365000000,-5.1661162,-166.05235
1366000000,-5.1750979,-166.04803
1367000000,-5.1872258,-166.29039
1368000000,-5.176477,-166.5793
1369000000,-5.1745291,-166.66454
1370000000,-5.1720257,-166.79579
1371000000,-5.2135501,-166.91476
1372000000,-5.1897769,-167.50903
1373000000,-5.2104635,-167.49658
1374000000,-5.1949749,-167.74141
1375000000,-5.2347946,-167.77942
1376000000,-5.2198863,-167.76295
1377000000,-5.2255034,-168.13484
1378000000,-5.2144222,-168.33936
1379000000,-5.2300873,-168.62794
1380000000,-5.2641926,-168.71718
1381000000,-5.2591662,-168.79187
1382000000,-5.2498226,-169.1906
1383000000,-5.2619486,-169.01085
1384000000,-5.2712026,-169.31577
1385000000,-5.2421689,-169.51202
1386000000,-5.2382293,-169.71466
1387000000,-5.2795634,-169.83141
1388000000,-5.3011074,-170.21825
1389000000,-5.2715559,-170.37779
1390000000,-5.2798944,-170.40509
1391000000,-5.2832508,-170.61099
1392000000,-5.303648,-170.69986
1393000000,-5.3046446,-170.8987
1394000000,-5.2874269,-171.22469
1395000000,-5.2807503,-171.20654
1396000000,-5.2898412,-171.71327
1397000000,-5.3026652,-171.70863
1398000000,-5.2922602,-171.9068
1399000000,-5.3075371,-171.99161
1400000000,-5.321682,-172.38956
1401000000,-5.3097391,-172.55035
1402000000,-5.3495622,-172.46512
1403000000,-5.3224902,-172.8855
1404000000,-5.3547359,-173.0661
1405000000,-5.3487449,-173.19836
1406000000,-5.341033,-173.42787
1407000000,-5.399909,-173.48625
1408000000,-5.3576965,-173.62135
1409000000,-5.3215346,-173.81706
1410000000,-5.3672662,-174.16763
1411000000,-5.3553467,-174.45117
1412000000,-5.3828797,-174.52155
1413000000,-5.3904724,-174.66966
1414000000,-5.3888984,-174.80086
1415000000,-5.3949156,-175.10658
1416000000,-5.373692,-175.32037
1417000000,-5.3913651,-175.42548
1418000000,-5.3988619,-175.57594
1419000000,-5.4070811,-176.02844
1420000000,-5.4375844,-176.02882
1421000000,-5.4125242,-176.29396
1422000000,-5.4229975,-176.18793
1423000000,-5.4227533,-176.40163
1424000000,-5.4383111,-176.82944
1425000000,-5.4270997,-176.7691
1426000000,-5.4653344,-177.14952
1427000000,-5.4481125,-177.3712
1428000000,-5.448535,-177.59967
1429000000,-5.4575844,-177.66971
1430000000,-5.4799418,-177.80844
1431000000,-5.4779215,-177.98134
1432000000,-5.471385,-178.29439
1433000000,-5.4807749,-178.45007
1434000000,-5.5092168,-178.55342
1435000000,-5.4834957,-178.77789
1436000000,-5.5157614,-178.92406
1437000000,-5.5206428,-179.26094
1438000000,-5.5183749,-179.22797
1439000000,-5.5360975,-179.53246
1440000000,-5.5355091,-179.78027
1441000000,-5.5406885,-179.78883
1442000000,-5.5687351,-179.97217
1443000000,-5.550272,-180.33719
1444000000,-5.5491076,-180.31468
1445000000,-5.5793495,-180.54169
1446000000,-5.5945344,-180.89688
1447000000,-5.5790806,-180.97372
1448000000,-5.5775366,-181.14339
1449000000,-5.6016073,-181.35565
1450000000,-5.5974598,-181.52676
1451000000,-5.6161022,-181.77066
1452000000,-5.5925632,-181.99339
1453000000,-5.6582694,-182.2684
1454000000,-5.6230655,-182.32629
1455000000,-5.6481066,-182.48219
1456000000,-5.6510878,-182.74274
1457000000,-5.6613379,-182.92673
1458000000,-5.6549845,-183.19296
1459000000,-5.6802845,-183.22661
1460000000,-5.6568217,-183.19812
1461000000,-5.6629186,-183.70277
1462000000,-5.677814,-183.76036
1463000000,-5.7007074,-183.99258
1464000000,-5.7152324,-184.21651
1465000000,-5.7223377,-184.39317
1466000000,-5.7207799,-184.52377
1467000000,-5.7291541,-184.80003
1468000000,-5.7132907,-184.91481
1469000000,-5.7381606,-185.1559
1470000000,-5.7420487,-185.38356
1471000000,-5.764636,-185.56334
1472000000,-5.7691894,-185.60146
1473000000,-5.7912979,-185.96732
1474000000,-5.7639585,-185.96111
1475000000,-5.8004746,-186.35881
1476000000,-5.7813411,-186.46214
1477000000,-5.8107862,-186.53168
1478000000,-5.8410115,-186.71466
1479000000,-5.8611088,-187.02402
1480000000,-5.8209982,-187.20413
1481000000,-5.8276281,-187.33545
1482000000,-5.8351164,-187.64136
1483000000,-5.865901,-187.67493
1484000000,-5.8666358,-188.03459
1485000000,-5.8809652,-188.14005
1486000000,-5.8879771,-188.21164
1487000000,-5.9119363,-188.56602
1488000000,-5.9153433,-188.5347
1489000000,-5.9121461,-188.94398
1490000000,-5.9176188,-189.06537
1491000000,-5.9341135,-189.47304
1492000000,-5.9283223,-189.37042
1493000000,-5.9469242,-189.45602
1494000000,-5.9586468,-189.79013
1495000000,-5.9857216,-190.00323
1496000000,-5.9666228,-190.23129
1497000000,-5.9759407,-190.59406
1498000000,-5.9798193,-190.48967
1499000000,-5.9706182,-190.69363
1500000000,-6.001327,-191.04779
1501000000,-6.0216517,-191.3354
1502000000,-6.0236039,-191.52626
1503000000,-6.0450149,-191.53554
1504000000,-6.005404,-191.56439
1505000000,-6.068573,-192.04622
1506000000,-6.0753036,-192.17796
1507000000,-6.0669999,-192.27234
1508000000,-6.0838356,-192.59476
1509000000,-6.0993338,-192.58168
1510000000,-6.0910115,-192.93248
1511000000,-6.1121764,-192.91455
1512000000,-6.1052675,-193.18159
1513000000,-6.129241,-193.30672
1514000000,-6.1392732,-193.55183
1515000000,-6.1380568,-193.81508
1516000000,-6.1856995,-194.08337
1517000000,-6.1898527,-194.21098
1518000000,-6.1935229,-194.20871
1519000000,-6.1994376,-194.39482
1520000000,-6.2063041,-194.77029
1521000000,-6.2265406,-194.9886
1522000000,-6.2393837,-195.14378
1523000000,-6.2364569,-195.38058
1524000000,-6.2701735,-195.60468
1525000000,-6.2588444,-195.74396
1526000000,-6.2648234,-196.02022
1527000000,-6.2862315,-196.25748
1528000000,-6.3076224,-196.19977
1529000000,-6.3015428,-196.19821
1530000000,-6.3097243,-196.68491
1531000000,-6.317534,-196.83998
1532000000,-6.3248148,-197.06421
1533000000,-6.3621607,-197.17409
1534000000,-6.3353329,-197.25119
1535000000,-6.3628912,-197.62114
1536000000,-6.3462434,-197.8833
1537000000,-6.3949075,-198.02373
1538000000,-6.3955603,-198.03438
1539000000,-6.4358482,-198.40628
1540000000,-6.4380145,-198.40234
1541000000,-6.4442573,-198.73546
1542000000,-6.4638505,-198.86929
1543000000,-6.4650435,-199.19693
1544000000,-6.4811673,-199.41028
1545000000,-6.5121927,-199.44717
1546000000,-6.4782796,-199.62349
1547000000,-6.5137792,-199.88829
1548000000,-6.5134382,-199.92097
1549000000,-6.508585,-200.26254
1550000000,-6.5722747,-200.38901
1551000000,-6.5403018,-200.55739
1552000000,-6.5632539,-200.8103
1553000000,-6.5869107,-200.98795
1554000000,-6.5925512,-200.92096
1555000000,-6.5974879,-201.20609
1556000000,-6.5885277,-201.33054
1557000000,-6.6289959,-201.69185
1558000000,-6.6318607,-201.88161
1559000000,-6.6461153,-202.12799
1560000000,-6.6735229,-202.30807
1561000000,-6.6574993,-202.42703
1562000000,-6.6796317,-202.72716
1563000000,-6.7062569,-202.55818
1564000000,-6.697392,-202.9007
1565000000,-6.7124319,-203.14842
1566000000,-6.7236981,-203.26273
1567000000,-6.75319,-203.46629
1568000000,-6.7621441,-203.61487
1569000000,-6.7755065,-203.87663
1570000000,-6.7717848,-204.16714
1571000000,-6.7724934,-204.49054
1572000000,-6.8177423,-204.34279
1573000000,-6.8380694,-204.84166
1574000000,-6.831387,-204.72079
1575000000,-6.8323112,-204.9859
1576000000,-6.8541665,-205.22025
1577000000,-6.837708,-205.58978
1578000000,-6.8745522,-205.56009
1579000000,-6.907486,-205.7473
1580000000,-6.9106894,-205.90619
1581000000,-6.9381423,-206.05592
1582000000,-6.9266024,-206.33174
1583000000,-6.9241581,-206.52257
1584000000,-6.9766965,-206.89552
1585000000,-7.0097294,-206.70114
1586000000,-7.0115047,-207.12599
1587000000,-7.0254121,-207.10391
1588000000,-7.0575385,-207.44847
1589000000,-7.0435247,-207.60623
1590000000,-7.0532999,-207.88524
1591000000,-7.0860844,-207.93645
1592000000,-7.0835376,-208.12805
1593000000,-7.0901003,-208.42505
1594000000,-7.114182,-208.52455
1595000000,-7.1303749,-208.68755
1596000000,-7.1713629,-208.96033
1597000000,-7.1732321,-209.00739
1598000000,-7.1522722,-209.19386
1599000000,-7.1843195,-209.43454
1600000000,-7.1752133,-209.48563
1601000000,-7.1987214,-209.73825
1602000000,-7.2245741,-210.07645
1603000000,-7.2184372,-210.01848
1604000000,-7.2477064,-210.40996
1605000000,-7.2565484,-210.33087
1606000000,-7.286036,-210.78278
1607000000,-7.3011522,-210.70447
1608000000,-7.3097153,-210.86949
1609000000,-7.3419518,-211.38617
1610000000,-7.3365202,-211.48424
1611000000,-7.3398428,-211.63661
1612000000,-7.3681259,-211.78522
1613000000,-7.3786273,-211.77475
1614000000,-7.4161539,-212.00534
1615000000,-7.4022365,-212.06364
1616000000,-7.43292,-212.41779
1617000000,-7.4643393,-212.55518
1618000000,-7.4737248,-212.79887
1619000000,-7.4527483,-213.07112
1620000000,-7.4774699,-213.20081
1621000000,-7.4774799,-213.27907
1622000000,-7.5218692,-213.44026
1623000000,-7.5267053,-213.71422
1624000000,-7.5373697,-213.66907
1625000000,-7.5700483,-214.07112
1626000000,-7.5925164,-214.16991
1627000000,-7.6055903,-214.40533
1628000000,-7.6274285,-214.46385
1629000000,-7.6414194,-214.82195
1630000000,-7.6325035,-215.0502
1631000000,-7.6798582,-215.07814
1632000000,-7.6706939,-215.23116
1633000000,-7.6916599,-215.42896
1634000000,-7.7274103,-215.56125
1635000000,-7.7372141,-215.79268
1636000000,-7.7445817,-216.01654
1637000000,-7.7622967,-216.05441
1638000000,-7.7655511,-216.36673
1639000000,-7.7922368,-216.50139
1640000000,-7.8227534,-216.47963
1641000000,-7.8441639,-216.81593
1642000000,-7.8301811,-217.01633
1643000000,-7.8455129,-217.16869
1644000000,-7.8657794,-217.19655
1645000000,-7.9130707,-217.52817
1646000000,-7.9104385,-217.69075
1647000000,-7.8925385,-217.90063
1648000000,-7.9383674,-217.86911
1649000000,-7.9600348,-218.21814
1650000000,-7.9627881,-218.33955
1651000000,-7.9750004,-218.49962
1652000000,-7.9971681,-218.84644
1653000000,-8.0202856,-218.84137
1654000000,-8.0287762,-219.11632
1655000000,-8.044404,-219.25056
1656000000,-8.0390491,-219.34914
1657000000,-8.0737085,-219.44412
1658000000,-8.094656,-219.74342
1659000000,-8.1221523,-219.86713
1660000000,-8.1351624,-220.18164
1661000000,-8.1567602,-220.02283
1662000000,-8.1746702,-220.20552
1663000000,-8.1933489,-220.37566
1664000000,-8.1929321,-220.66338
1665000000,-8.2192335,-220.74396
1666000000,-8.208024,-221.08281
1667000000,-8.2463236,-221.24007
1668000000,-8.2775812,-221.26416
1669000000,-8.2981253,-221.63435
1670000000,-8.3188667,-221.79356
1671000000,-8.3356209,-221.93973
1672000000,-8.3421268,-221.97972
1673000000,-8.3760052,-222.24962
1674000000,-8.365469,-222.35307
1675000000,-8.4029169,-222.65816
1676000000,-8.4228058,-222.57953
1677000000,-8.449295,-222.931
1678000000,-8.4498215,-222.99402
1679000000,-8.5024233,-223.27022
1680000000,-8.510664,-223.44022
1681000000,-8.49611,-223.4095
1682000000,-8.5353746,-223.48427
1683000000,-8.4980745,-223.90656
1684000000,-8.5336018,-223.86871
1685000000,-8.5882549,-223.95673
1686000000,-8.6094227,-224.35675
1687000000,-8.5963812,-224.50133
1688000000,-8.6353817,-224.51271
1689000000,-8.6187639,-224.73833
1690000000,-8.6610641,-224.90298
1691000000,-8.6671095,-225.00896
1692000000,-8.7117043,-225.32446
1693000000,-8.7320013,-225.47748
1694000000,-8.7135334,-225.73175
1695000000,-8.7482653,-225.79359
1696000000,-8.7474422,-226.02478
1697000000,-8.7927351,-225.98396
1698000000,-8.795825,-226.25121
1699000000,-8.8037205,-226.34576
1700000000,-8.8314857,-226.57672
1701000000,-8.8725853,-226.77919
1702000000,-8.8920326,-226.93715
1703000000,-8.8751917,-227.21439
1704000000,-8.8956661,-227.1991
1705000000,-8.9517641,-227.36964
1706000000,-8.9010935,-227.7278
1707000000,-8.9697676,-227.77328
1708000000,-8.9557981,-227.92484
1709000000,-9.0210562,-228.077
1710000000,-9.0026455,-228.18352
1711000000,-9.0107908,-228.08891
1712000000,-9.0375805,-228.41312
1713000000,-9.0982666,-228.78542
1714000000,-9.0825329,-228.88792
1715000000,-9.1062937,-228.8477
1716000000,-9.1491356,-229.35901
1717000000,-9.1333246,-229.1795
1718000000,-9.1665421,-229.47334
1719000000,-9.1984892,-229.65987
1720000000,-9.2094908,-229.52785
1721000000,-9.2096291,-229.63702
1722000000,-9.2295284,-230.12227
1723000000,-9.2931051,-230.14166
1724000000,-9.2618589,-230.29016
1725000000,-9.31991,-230.36179
1726000000,-9.3069973,-230.72882
1727000000,-9.3402853,-230.64713
1728000000,-9.3174829,-230.83783
1729000000,-9.3714714,-230.99004
1730000000,-9.4066296,-231.24152
1731000000,-9.4081812,-231.34042
1732000000,-9.4317484,-231.66986
1733000000,-9.4272366,-231.80586
1734000000,-9.4717932,-231.79253
1735000000,-9.4790087,-231.78777
1736000000,-9.4858255,-232.05685
1737000000,-9.5308228,-232.04871
1738000000,-9.533577,-232.46437
1739000000,-9.5328913,-232.59592
1740000000,-9.5977201,-232.64378
1741000000,-9.609498,-232.76228
1742000000,-9.6294127,-233.06786
1743000000,-9.6495905,-233.12616
1744000000,-9.640852,-233.31863
1745000000,-9.6556492,-233.36494
1746000000,-9.7007933,-233.73932
1747000000,-9.7024498,-233.88167
1748000000,-9.7130661,-234.02406
1749000000,-9.7525816,-234.03308
1750000000,-9.7698584,-234.45316
1751000000,-9.8203745,-234.50371
1752000000,-9.8031168,-234.56973
1753000000,-9.8312645,-234.47437
1754000000,-9.8181067,-234.76918
1755000000,-9.8798046,-234.9317
1756000000,-9.9044094,-235.05643
1757000000,-9.9067545,-235.3022
1758000000,-9.9269419,-235.43518
1759000000,-9.9356232,-235.55713
1760000000,-9.9644918,-235.64529
1761000000,-9.9864321,-235.84062
1762000000,-10.00606,-236.07727
1763000000,-10.024023,-236.09557
1764000000,-10.030029,-236.16675
1765000000,-10.048886,-236.46751
1766000000,-10.082887,-236.51814
1767000000,-10.113506,-236.65292
1768000000,-10.105831,-236.87537
1769000000,-10.13127,-236.9136
1770000000,-10.142595,-237.01636
1771000000,-10.179475,-237.22289
1772000000,-10.155786,-237.43803
1773000000,-10.188871,-237.34987
1774000000,-10.220754,-237.70982
1775000000,-10.24548,-237.80159
1776000000,-10.280735,-237.98584
1777000000,-10.296038,-238.02493
1778000000,-10.285265,-238.37241
1779000000,-10.349342,-238.37172
1780000000,-10.349302,-238.49113
1781000000,-10.363266,-238.60823
1782000000,-10.398569,-238.87868
1783000000,-10.407005,-238.93304
1784000000,-10.423193,-238.98889
1785000000,-10.450976,-238.96826
1786000000,-10.458583,-239.30011
1787000000,-10.472463,-239.58987
1788000000,-10.521306,-239.59091
1789000000,-10.512022,-239.65536
1790000000,-10.546656,-239.9845
1791000000,-10.575327,-239.92786
1792000000,-10.577622,-240.23645
1793000000,-10.601007,-240.26224
1794000000,-10.603366,-240.4137
1795000000,-10.640841,-240.68338
1796000000,-10.654002,-240.81805
1797000000,-10.692297,-240.9529
1798000000,-10.718569,-240.96489
1799000000,-10.74999,-241.19551
1800000000,-10.746292,-241.12054
1801000000,-10.767604,-241.46828
1802000000,-10.815486,-241.53125
1803000000,-10.828991,-241.71141
1804000000,-10.850346,-241.79755
1805000000,-10.842156,-242.0786
1806000000,-10.85954,-241.95871
1807000000,-10.883269,-242.44035
1808000000,-10.891938,-242.39241
1809000000,-10.940477,-242.69569
1810000000,-10.958703,-242.55714
1811000000,-10.942834,-242.76137
1812000000,-10.987053,-242.67796
1813000000,-11.016973,-242.94655
1814000000,-11.042535,-243.29071
1815000000,-11.062688,-243.37869
1816000000,-11.087575,-243.45892
1817000000,-11.108434,-243.62785
1818000000,-11.083922,-243.80759
1819000000,-11.146099,-243.80516
1820000000,-11.140976,-244.02974
1821000000,-11.144829,-244.05615
1822000000,-11.187108,-244.30457
1823000000,-11.199633,-244.30769
1824000000,-11.22076,-244.39581
1825000000,-11.23334,-244.47914
1826000000,-11.276957,-244.86032
1827000000,-11.26474,-244.80783
1828000000,-11.336702,-244.85266
1829000000,-11.357947,-245.01509
1830000000,-11.354133,-245.12907
1831000000,-11.375701,-245.15022
1832000000,-11.410211,-245.394
1833000000,-11.423324,-245.58046
1834000000,-11.438511,-245.68805
1835000000,-11.431042,-245.94206
1836000000,-11.442805,-245.90536
1837000000,-11.495331,-246.11588
1838000000,-11.502626,-246.23993
1839000000,-11.552666,-246.27577
1840000000,-11.576384,-246.48842
1841000000,-11.577847,-246.54355
1842000000,-11.601871,-246.77977
1843000000,-11.62009,-246.98019
1844000000,-11.653314,-247.05759
1845000000,-11.670747,-247.08481
1846000000,-11.650707,-247.35561
1847000000,-11.723658,-247.44571
1848000000,-11.723235,-247.50822
1849000000,-11.725934,-247.61116
1850000000,-11.768304,-247.67517
1851000000,-11.776189,-247.8131
1852000000,-11.803485,-248.12411
1853000000,-11.811603,-248.37778
1854000000,-11.871228,-248.20734
1855000000,-11.882181,-248.47813
1856000000,-11.89796,-248.59195
1857000000,-11.87727,-248.65271
1858000000,-11.946707,-248.77533
1859000000,-11.946095,-248.73547
1860000000,-11.976023,-249.15558
1861000000,-12.017776,-249.36755
1862000000,-11.98569,-249.31767
1863000000,-11.997466,-249.45752
1864000000,-12.037753,-249.51526
1865000000,-12.06112,-249.75401
1866000000,-12.104417,-249.78748
1867000000,-12.143801,-249.81848
1868000000,-12.153169,-249.96463
1869000000,-12.161974,-250.08817
1870000000,-12.182832,-250.28354
1871000000,-12.176169,-250.41315
1872000000,-12.163809,-250.65282
1873000000,-12.235961,-250.66595
1874000000,-12.274493,-250.71841
1875000000,-12.271373,-250.7563
1876000000,-12.296975,-251.04694
1877000000,-12.289821,-250.92902
1878000000,-12.341703,-251.24176
1879000000,-12.373268,-251.33438
1880000000,-12.402858,-251.65314
1881000000,-12.380654,-251.50232
1882000000,-12.422417,-251.83818
1883000000,-12.445516,-251.65034
1884000000,-12.474306,-251.99852
1885000000,-12.472294,-252.06743
1886000000,-12.508014,-252.27711
1887000000,-12.533228,-252.38416
1888000000,-12.527302,-252.43181
1889000000,-12.534395,-252.44678
1890000000,-12.605388,-252.61029
1891000000,-12.608912,-253.01682
1892000000,-12.635941,-252.98909
1893000000,-12.63047,-253.13782
1894000000,-12.653317,-253.21527
1895000000,-12.675674,-253.40579
1896000000,-12.672094,-253.60129
1897000000,-12.740508,-253.5325
1898000000,-12.73252,-253.68672
1899000000,-12.806662,-253.8492
1900000000,-12.77405,-254.00739
1901000000,-12.82102,-254.00783
1902000000,-12.830347,-254.03015
1903000000,-12.817413,-254.39433
1904000000,-12.885421,-254.50031
1905000000,-12.944009,-254.52965
1906000000,-12.918686,-254.63564
1907000000,-12.948494,-254.82587
1908000000,-12.965994,-254.69354
1909000000,-12.97557,-254.92786
1910000000,-13.011235,-255.23625
1911000000,-13.052262,-255.15945
1912000000,-13.047801,-255.40785
1913000000,-13.084307,-255.3145
1914000000,-13.100524,-255.43416
1915000000,-13.078124,-255.63686
1916000000,-13.125499,-255.65871
1917000000,-13.158322,-255.91753
1918000000,-13.167579,-256.06213
1919000000,-13.166314,-256.27502
1920000000,-13.235509,-256.15652
1921000000,-13.251482,-256.4469
1922000000,-13.236811,-256.71399
1923000000,-13.262352,-256.86038
1924000000,-13.304612,-256.61398
1925000000,-13.340356,-256.84152
1926000000,-13.342224,-257.1019
1927000000,-13.368678,-257.18628
1928000000,-13.38399,-257.16049
1929000000,-13.386827,-257.34271
1930000000,-13.433188,-257.32623
1931000000,-13.4305,-257.56082
1932000000,-13.44735,-257.40756
1933000000,-13.474998,-257.5946
1934000000,-13.509695,-257.78943
1935000000,-13.505363,-257.84198
1936000000,-13.567882,-258.15323
1937000000,-13.545148,-258.19012
1938000000,-13.584555,-258.3259
1939000000,-13.622283,-258.58456
1940000000,-13.614264,-258.56317
1941000000,-13.624773,-258.54111
1942000000,-13.649004,-258.61807
1943000000,-13.703671,-258.93341
1944000000,-13.738201,-258.85272
1945000000,-13.719848,-259.0274
1946000000,-13.748434,-259.28549
1947000000,-13.768785,-259.58923
1948000000,-13.796375,-259.33487
1949000000,-13.817196,-259.52951
1950000000,-13.779323,-259.60324
1951000000,-13.847704,-259.78024
1952000000,-13.898318,-259.59784
1953000000,-13.890139,-260.20752
1954000000,-13.934623,-260.20798
1955000000,-13.950302,-260.05807
1956000000,-13.975973,-260.26825
1957000000,-13.974133,-260.45432
1958000000,-14.023421,-260.38605
1959000000,-14.030987,-260.62204
1960000000,-14.082611,-260.6077
1961000000,-14.103505,-260.96463
1962000000,-14.104795,-261.09488
1963000000,-14.16741,-261.22781
1964000000,-14.123029,-261.25363
1965000000,-14.173815,-261.41122
1966000000,-14.161248,-261.3999
1967000000,-14.19063,-261.59305
1968000000,-14.219243,-261.84973
1969000000,-14.235592,-261.93573
1970000000,-14.260067,-262.04099
1971000000,-14.272412,-262.18176
1972000000,-14.284561,-262.17017
1973000000,-14.322455,-262.29666
1974000000,-14.341002,-262.58319
1975000000,-14.356453,-262.66583
1976000000,-14.363874,-262.66458
1977000000,-14.400756,-262.69626
1978000000,-14.414606,-262.73499
1979000000,-14.474236,-262.99734
1980000000,-14.477321,-262.99963
1981000000,-14.481246,-263.25443
1982000000,-14.52221,-263.13104
1983000000,-14.54083,-263.52744
1984000000,-14.547417,-263.64005
1985000000,-14.585221,-263.75537
1986000000,-14.626929,-263.57465
1987000000,-14.634282,-263.83215
1988000000,-14.613403,-264.05484
1989000000,-14.652788,-263.9812
1990000000,-14.713078,-264.1694
1991000000,-14.699694,-264.43542
1992000000,-14.75443,-264.41568
1993000000,-14.748254,-264.64172
1994000000,-14.770278,-264.65936
1995000000,-14.795986,-264.7565
1996000000,-14.804343,-265.0361
1997000000,-14.836397,-264.99335
1998000000,-14.876066,-264.96432
1999000000,-14.886979,-265.18896
2000000000,-14.904254,-265.22852
2001000000,-14.91677,-265.35754
2002000000,-14.967069,-265.40759
2003000000,-14.99494,-265.68811
2004000000,-14.999185,-265.67661
2005000000,-14.993456,-266.01974
2006000000,-15.029098,-266.06323
2007000000,-15.052931,-266.0065
2008000000,-15.091983,-266.08591
2009000000,-15.110657,-266.2532
2010000000,-15.104259,-266.35013
2011000000,-15.125449,-266.27377
2012000000,-15.177414,-266.53976
2013000000,-15.216008,-266.72702
2014000000,-15.215948,-266.71326
2015000000,-15.222653,-266.9129
2016000000,-15.283345,-267.26941
2017000000,-15.237044,-267.26352
2018000000,-15.245048,-267.09662
2019000000,-15.316345,-267.37296
2020000000,-15.349853,-267.6951
2021000000,-15.373099,-267.54562
2022000000,-15.405072,-267.5202
2023000000,-15.439595,-267.90222
2024000000,-15.420126,-267.85019
2025000000,-15.459059,-268.2457
2026000000,-15.482718,-268.06653
2027000000,-15.506799,-268.29614
2028000000,-15.519403,-268.42462
2029000000,-15.539769,-268.34668
2030000000,-15.54909,-268.55853
2031000000,-15.591474,-268.58997
2032000000,-15.612456,-268.74966
2033000000,-15.620217,-268.86053
2034000000,-15.670854,-268.89447
2035000000,-15.665583,-269.0441
2036000000,-15.694285,-269.34396
2037000000,-15.726293,-269.32629
2038000000,-15.721218,-269.49454
2039000000,-15.73181,-269.35593
2040000000,-15.824914,-269.63489
2041000000,-15.789131,-269.73315
2042000000,-15.823066,-269.94754
2043000000,-15.864521,-270.06876
2044000000,-15.875782,-270.03348
2045000000,-15.896397,-270.10065
2046000000,-15.915597,-270.34348
2047000000,-15.92742,-270.4537
2048000000,-15.967947,-270.51019
2049000000,-16.017397,-270.79767
2050000000,-16.037098,-270.87421
2051000000,-16.046383,-270.83481
2052000000,-16.045324,-270.90778
2053000000,-16.050161,-271.01309
2054000000,-16.078144,-271.17538
2055000000,-16.137585,-271.27002
2056000000,-16.151621,-271.41519
2057000000,-16.196575,-271.48676
2058000000,-16.201061,-271.70084
2059000000,-16.215342,-272.02142
2060000000,-16.230402,-272.0293
2061000000,-16.25663,-272.00763
2062000000,-16.291559,-272.01868
2063000000,-16.31411,-272.0459
2064000000,-16.327806,-272.35837
2065000000,-16.378675,-272.306
2066000000,-16.391739,-272.38776
2067000000,-16.375084,-272.5643
2068000000,-16.417372,-272.83008
2069000000,-16.426104,-272.6084
2070000000,-16.476751,-272.90121
2071000000,-16.505337,-272.9888
2072000000,-16.49634,-272.98212
2073000000,-16.54213,-273.29276
2074000000,-16.572308,-273.19504
2075000000,-16.603899,-273.40732
2076000000,-16.60037,-273.60516
2077000000,-16.625494,-273.59961
2078000000,-16.654825,-273.81732
2079000000,-16.68627,-273.94473
2080000000,-16.696739,-273.94241
2081000000,-16.73242,-273.97025
2082000000,-16.743195,-274.07318
2083000000,-16.784315,-274.36313
2084000000,-16.782623,-274.34937
2085000000,-16.837938,-274.53378
2086000000,-16.844044,-274.54715
2087000000,-16.839966,-274.85886
2088000000,-16.875534,-274.85428
2089000000,-16.901791,-274.74857
2090000000,-16.940985,-275.10846
2091000000,-16.942455,-275.19156
2092000000,-16.999268,-275.42047
2093000000,-17.029129,-275.4205
2094000000,-17.021826,-275.41678
2095000000,-17.039406,-275.68582
2096000000,-17.078609,-275.88596
2097000000,-17.085289,-275.58786
2098000000,-17.118233,-275.87256
2099000000,-17.138613,-275.95734
2100000000,-17.1609,-276.17218
2101000000,-17.184229,-276.32404
2102000000,-17.206543,-276.3486
2103000000,-17.232401,-276.62411
2104000000,-17.233902,-276.68863
2105000000,-17.30028,-276.63174
2106000000,-17.316933,-276.66141
2107000000,-17.346914,-276.96463
2108000000,-17.376064,-277.05441
2109000000,-17.344786,-277.03412
2110000000,-17.428205,-277.20688
2111000000,-17.451052,-277.45157
2112000000,-17.452768,-277.4689
2113000000,-17.492743,-277.66559
2114000000,-17.492117,-277.62656
2115000000,-17.540468,-277.82901
2116000000,-17.571901,-277.67493
2117000000,-17.571573,-278.02203
2118000000,-17.603338,-278.19849
2119000000,-17.62714,-278.08997
2120000000,-17.645662,-278.10355
2121000000,-17.677351,-278.51788
2122000000,-17.685881,-278.40344
2123000000,-17.731754,-278.52786
2124000000,-17.750837,-278.78232
2125000000,-17.790674,-278.9455
2126000000,-17.774166,-279.12692
2127000000,-17.827278,-279.06497
2128000000,-17.876528,-279.06137
2129000000,-17.87513,-279.23877
2130000000,-17.89267,-279.1864
2131000000,-17.914612,-279.42957
2132000000,-17.957354,-279.66376
2133000000,-17.9485,-279.61505
2134000000,-18.029186,-279.87411
2135000000,-18.033081,-279.84555
2136000000,-18.059099,-280.06317
2137000000,-18.078766,-280.04337
2138000000,-18.106133,-280.23328
2139000000,-18.150764,-280.45541
2140000000,-18.162447,-280.37744
2141000000,-18.18,-280.51218
2142000000,-18.189573,-280.63318
2143000000,-18.235765,-280.79092
2144000000,-18.238359,-280.93304
2145000000,-18.260105,-281.05383
2146000000,-18.29442,-281.21204
2147000000,-18.329008,-281.35089
2148000000,-18.335699,-281.17941
2149000000,-18.368319,-281.42059
2150000000,-18.382509,-281.66013
2151000000,-18.43696,-281.83609
2152000000,-18.438427,-281.79581
2153000000,-18.478302,-281.82208
2154000000,-18.480335,-281.99127
2155000000,-18.533377,-282.32874
2156000000,-18.552979,-282.07556
2157000000,-18.577433,-282.15042
2158000000,-18.583296,-282.18643
2159000000,-18.615999,-282.34119
2160000000,-18.661354,-282.69183
2161000000,-18.704641,-282.75693
2162000000,-18.682928,-282.92773
2163000000,-18.733656,-282.86639
2164000000,-18.772591,-282.892
2165000000,-18.807617,-283.039
2166000000,-18.84099,-283.39716
2167000000,-18.856064,-283.33585
2168000000,-18.876041,-283.47403
2169000000,-18.913889,-283.67032
2170000000,-18.906256,-283.67505
2171000000,-18.951878,-283.92709
2172000000,-18.961082,-284.06326
2173000000,-18.982382,-284.32373
2174000000,-19.027052,-284.14926
2175000000,-19.038431,-284.2944
2176000000,-19.116751,-284.36011
2177000000,-19.108179,-284.49496
2178000000,-19.093775,-284.60641
2179000000,-19.190609,-284.80618
2180000000,-19.21266,-284.85919
2181000000,-19.181318,-284.89523
2182000000,-19.25592,-285.03543
2183000000,-19.264153,-285.15811
2184000000,-19.293352,-285.3093
2185000000,-19.343861,-285.37955
2186000000,-19.335167,-285.51736
2187000000,-19.387136,-285.65005
2188000000,-19.419682,-285.69965
2189000000,-19.430134,-285.61316
2190000000,-19.465937,-285.7883
2191000000,-19.460295,-286.01071
2192000000,-19.536289,-286.20612
2193000000,-19.533377,-286.26004
2194000000,-19.596615,-286.47855
2195000000,-19.609116,-286.35666
2196000000,-19.627836,-286.70932
2197000000,-19.653572,-286.90857
2198000000,-19.646675,-286.74423
2199000000,-19.718267,-286.98074
2200000000,-19.73521,-287.21313
2201000000,-19.757008,-287.23477
2202000000,-19.785683,-287.30875
2203000000,-19.829746,-287.36349
2204000000,-19.838818,-287.56851
2205000000,-19.870699,-287.6102
2206000000,-19.895483,-287.63458
2207000000,-19.925995,-288.03992
2208000000,-19.938833,-288.01648
2209000000,-19.982204,-288.17853
2210000000,-20.024817,-288.17795
2211000000,-20.047445,-288.0882
2212000000,-20.098955,-288.28342
2213000000,-20.085131,-288.4903
2214000000,-20.139795,-288.73495
2215000000,-20.140583,-288.71408
2216000000,-20.201679,-288.9548
2217000000,-20.204042,-288.96323
2218000000,-20.243752,-289.20102
2219000000,-20.291937,-289.24066
2220000000,-20.321466,-289.27615
2221000000,-20.33003,-289.35718
2222000000,-20.361137,-289.3136
2223000000,-20.392586,-289.62833
2224000000,-20.412012,-289.85999
2225000000,-20.48587,-289.91528
2226000000,-20.517221,-289.96719
2227000000,-20.540108,-290.37387
2228000000,-20.53293,-290.18887
2229000000,-20.584459,-290.4534
2230000000,-20.602985,-290.55276
2231000000,-20.643175,-290.62213
2232000000,-20.698326,-290.63391
2233000000,-20.731174,-291.08777
2234000000,-20.723227,-290.9285
2235000000,-20.756973,-291.1088
2236000000,-20.790203,-291.03064
2237000000,-20.817665,-291.34305
2238000000,-20.849026,-291.46918
2239000000,-20.879873,-291.5629
2240000000,-20.899803,-291.72748
2241000000,-20.948668,-291.62549
2242000000,-20.991892,-291.89633
2243000000,-21.024452,-291.95349
2244000000,-21.036179,-292.07761
2245000000,-21.065153,-292.11951
2246000000,-21.111303,-292.24765
2247000000,-21.135231,-292.28058
2248000000,-21.153357,-292.64014
2249000000,-21.192396,-292.67966
2250000000,-21.224712,-292.77081
2251000000,-21.285969,-292.94592
2252000000,-21.275692,-293.01321
2253000000,-21.30628,-292.86389
2254000000,-21.362715,-293.20721
2255000000,-21.411392,-293.54758
2256000000,-21.435787,-293.45193
2257000000,-21.439287,-293.57968
2258000000,-21.500654,-293.85953
2259000000,-21.492538,-293.92746
2260000000,-21.549452,-293.97803
2261000000,-21.586422,-294.12759
2262000000,-21.617218,-294.39044
2263000000,-21.666346,-294.28778
2264000000,-21.687735,-294.49973
2265000000,-21.687929,-294.33163
2266000000,-21.748051,-294.69705
2267000000,-21.771162,-294.75912
2268000000,-21.811058,-294.81729
2269000000,-21.844662,-294.93231
2270000000,-21.876186,-295.02628
2271000000,-21.907087,-295.20728
2272000000,-21.938084,-295.48862
2273000000,-21.964212,-295.57861
2274000000,-22.014429,-295.66025
2275000000,-22.045954,-295.60699
2276000000,-22.111485,-295.74768
2277000000,-22.121387,-296.28122
2278000000,-22.137636,-296.1145
2279000000,-22.167353,-296.19803
2280000000,-22.214376,-296.46823
2281000000,-22.243612,-296.41843
2282000000,-22.31777,-296.62497
2283000000,-22.303911,-296.68234
2284000000,-22.364193,-296.72479
2285000000,-22.356506,-297.06464
2286000000,-22.410767,-297.28717
2287000000,-22.439999,-297.34619
2288000000,-22.490063,-297.41028
2289000000,-22.545141,-297.37296
2290000000,-22.575354,-297.49399
2291000000,-22.601744,-297.72455
2292000000,-22.629814,-297.72968
2293000000,-22.655045,-298.06586
2294000000,-22.69556,-298.03656
2295000000,-22.726652,-298.23627
2296000000,-22.767944,-298.61044
2297000000,-22.812128,-298.53622
2298000000,-22.828291,-298.62637
2299000000,-22.858202,-298.5813
2300000000,-22.857351,-298.94775
2301000000,-22.95042,-299.05573
2302000000,-22.980272,-299.28934
2303000000,-23.020672,-298.98016
2304000000,-23.072187,-299.19156
2305000000,-23.119595,-299.3562
2306000000,-23.137571,-299.48044
2307000000,-23.194252,-299.85669
2308000000,-23.223516,-299.897
2309000000,-23.273312,-299.90543
2310000000,-23.308064,-299.96494
2311000000,-23.299093,-300.07394
2312000000,-23.391792,-300.1673
2313000000,-23.445162,-300.67355
2314000000,-23.457882,-300.47452
2315000000,-23.49826,-300.59695
2316000000,-23.481375,-300.70618
2317000000,-23.577028,-300.745
2318000000,-23.590136,-301.29892
2319000000,-23.616199,-301.40155
2320000000,-23.657913,-301.4068
2321000000,-23.722385,-301.29318
2322000000,-23.731564,-301.80096
2323000000,-23.755873,-301.90622
2324000000,-23.819597,-301.86905
2325000000,-23.812336,-302.04538
2326000000,-23.920361,-302.17139
2327000000,-23.982695,-302.09259
2328000000,-23.99102,-302.58749
2329000000,-24.054953,-302.54483
2330000000,-24.067015,-302.67212
2331000000,-24.096489,-303.00397
2332000000,-24.189476,-303.17395
2333000000,-24.23489,-303.11731
2334000000,-24.218866,-302.95639
2335000000,-24.2917,-303.50839
2336000000,-24.256468,-303.32642
2337000000,-24.365917,-303.58887
2338000000,-24.416029,-303.64691
2339000000,-24.455637,-303.85336
2340000000,-24.469448,-304.04202
2341000000,-24.51615,-303.91272
2342000000,-24.527948,-304.26279
2343000000,-24.610895,-304.70667
2344000000,-24.652929,-304.5719
2345000000,-24.656384,-304.22253
2346000000,-24.743002,-305.12555
2347000000,-24.770519,-304.8511
2348000000,-24.832739,-305.18268
2349000000,-24.853037,-305.155
2350000000,-24.901564,-305.37222
2351000000,-24.968073,-305.52145
2352000000,-24.984247,-305.7356
2353000000,-25.072548,-305.82452
2354000000,-25.097351,-306.17337
2355000000,-25.115805,-306.01047
2356000000,-25.155972,-306.22614
2357000000,-25.194986,-306.47614
2358000000,-25.253819,-306.36273
2359000000,-25.311672,-306.7851
2360000000,-25.369411,-306.79037
2361000000,-25.400877,-306.90085
2362000000,-25.434156,-306.94214
2363000000,-25.477655,-307.06656
2364000000,-25.518883,-307.4614
2365000000,-25.596584,-307.69214
2366000000,-25.625961,-307.79651
2367000000,-25.698971,-307.81995
2368000000,-25.68902,-308.02213
2369000000,-25.747028,-308.19217
2370000000,-25.828903,-308.37054
2371000000,-25.884254,-308.1579
2372000000,-25.976976,-308.73727
2373000000,-25.93359,-308.85184
2374000000,-26.009974,-308.89694
2375000000,-26.067429,-309.27252
2376000000,-26.108175,-309.10077
2377000000,-26.129539,-309.49307
2378000000,-26.234341,-309.69669
2379000000,-26.275347,-309.96075
2380000000,-26.290411,-309.95782
2381000000,-26.302044,-310.08313
2382000000,-26.399588,-310.28537
2383000000,-26.433586,-310.57809
2384000000,-26.502787,-310.25723
2385000000,-26.576868,-310.88452
2386000000,-26.565868,-310.9617
2387000000,-26.631811,-311.11862
2388000000,-26.664179,-311.09747
2389000000,-26.719141,-311.28751
2390000000,-26.788305,-311.54709
2391000000,-26.826027,-311.68646
2392000000,-26.893639,-311.74991
2393000000,-26.953749,-312.05475
2394000000,-27.009241,-312.13104
2395000000,-27.035719,-312.2923
2396000000,-27.122126,-312.65378
2397000000,-27.194109,-312.5614
2398000000,-27.23901,-312.88165
2399000000,-27.28899,-313.00464
2400000000,-27.334143,-313.48999
2401000000,-27.360062,-313.14755
2402000000,-27.431747,-313.93405
2403000000,-27.485594,-313.75485
2404000000,-27.539785,-314.0098
2405000000,-27.607016,-314.3512
2406000000,-27.667765,-314.39499
2407000000,-27.738186,-314.70407
2408000000,-27.782295,-314.98648
2409000000,-27.82386,-314.77835
2410000000,-27.887642,-315.25165
2411000000,-28.004984,-315.05508
2412000000,-28.023531,-315.35599
2413000000,-28.079313,-315.77145
2414000000,-28.083345,-315.89554
2415000000,-28.185488,-316.04193
2416000000,-28.280582,-316.32739
2417000000,-28.33572,-316.19736
2418000000,-28.334732,-316.98257
2419000000,-28.411592,-316.88388
2420000000,-28.500555,-316.93683
2421000000,-28.529497,-317.58444
2422000000,-28.609802,-317.83905
2423000000,-28.682285,-317.70691
2424000000,-28.745604,-317.85181
2425000000,-28.799765,-318.03967
2426000000,-28.875992,-318.34
2427000000,-28.890965,-318.8147
2428000000,-28.932039,-318.68604
2429000000,-29.029207,-319.01981
2430000000,-29.153149,-319.20084
2431000000,-29.170315,-319.10074
2432000000,-29.25032,-319.43381
2433000000,-29.285574,-319.84854
2434000000,-29.384037,-320.10986
2435000000,-29.493074,-320.18906
2436000000,-29.571693,-320.40933
2437000000,-29.580238,-320.87595
2438000000,-29.632353,-321.38708
2439000000,-29.700169,-321.1283
2440000000,-29.77714,-321.31171
2441000000,-29.844742,-321.81961
2442000000,-29.942915,-321.91861
2443000000,-30.005203,-321.80148
2444000000,-30.054966,-322.31369
2445000000,-30.178289,-322.55328
2446000000,-30.231255,-322.98419
2447000000,-30.301792,-322.98447
2448000000,-30.389095,-323.73837
2449000000,-30.449017,-324.06784
2450000000,-30.49617,-324.26358
2451000000,-30.53853,-324.22275
2452000000,-30.649052,-324.81528
2453000000,-30.692167,-324.68713
2454000000,-30.793568,-325.15421
2455000000,-30.863832,-325.42337
2456000000,-30.970051,-325.49905
2457000000,-30.993732,-325.80399
2458000000,-31.0749,-326.07562
2459000000,-31.19001,-326.51578
2460000000,-31.225571,-326.82303
2461000000,-31.336195,-327.03171
2462000000,-31.416454,-327.35413
2463000000,-31.511507,-328.0444
2464000000,-31.62624,-328.40463
2465000000,-31.675747,-328.04764
2466000000,-31.767319,-328.64435
2467000000,-31.818083,-328.75208
2468000000,-31.865383,-329.1618
2469000000,-32.012829,-329.69348
2470000000,-32.064728,-329.9924
2471000000,-32.195698,-330.30576
2472000000,-32.235455,-330.89539
2473000000,-32.298672,-330.93369
2474000000,-32.471928,-331.45563
2475000000,-32.506039,-332.15762
2476000000,-32.64962,-332.05493
2477000000,-32.706142,-332.33569
2478000000,-32.764141,-333.01288
2479000000,-32.857082,-333.29355
2480000000,-32.96521,-333.60718
2481000000,-33.035267,-334.0043
2482000000,-33.140034,-334.53519
2483000000,-33.281296,-334.72269
2484000000,-33.329906,-335.08368
2485000000,-33.405083,-335.8327
2486000000,-33.459076,-335.95422
2487000000,-33.649654,-336.62683
2488000000,-33.63422,-337.1412
2489000000,-33.844341,-337.37787
2490000000,-33.913761,-338.08609
2491000000,-34.040462,-338.23193
2492000000,-34.045311,-339.05222
2493000000,-34.197308,-339.69098
2494000000,-34.310303,-339.80188
2495000000,-34.396297,-340.423
2496000000,-34.506371,-340.50824
2497000000,-34.598476,-341.43246
2498000000,-34.729942,-341.82712
2499000000,-34.835793,-342.74219
2500000000,-34.974159,-343.27451
2501000000,-35.025925,-343.45001
2502000000,-35.09861,-344.43781
2503000000,-35.21228,-345.09879
2504000000,-35.360893,-345.04907
2505000000,-35.466789,-346.02179
2506000000,-35.557049,-346.62253
2507000000,-35.70549,-347.18692
2508000000,-35.808422,-348.45227
2509000000,-35.863628,-348.59085
2510000000,-36.01207,-348.98526
2511000000,-36.146599,-349.93958
2512000000,-36.232121,-350.31543
2513000000,-36.299904,-351.12259
2514000000,-36.478786,-352.10181
2515000000,-36.528061,-352.7876
2516000000,-36.719284,-353.62152
2517000000,-36.783386,-354.6037
2518000000,-36.962059,-354.98553
2519000000,-36.970966,-355.9866
2520000000,-37.111446,-357.43875
2521000000,-37.187473,-357.58099
2522000000,-37.266567,-358.70508
2523000000,-37.383812,-360.04218
2524000000,-37.461491,-360.6059
2525000000,-37.655598,-361.48837
2526000000,-37.72451,-362.33942
2527000000,-37.875164,-363.50009
2528000000,-37.899258,-364.39474
2529000000,-38.048897,-365.44125
2530000000,-38.147846,-366.77655
2531000000,-38.181385,-368.58948
2532000000,-38.349602,-368.8772
2533000000,-38.349197,-369.73068
2534000000,-38.475765,-371.04538
2535000000,-38.569611,-372.03894
2536000000,-38.731522,-373.78525
2537000000,-38.744888,-374.79526
2538000000,-38.937923,-376.40808
2539000000,-38.906967,-377.50549
2540000000,-39.100426,-378.07773
2541000000,-39.070141,-379.2305
2542000000,-39.258701,-381.64307
2543000000,-39.235729,-382.30795
2544000000,-39.39732,-384.07254
2545000000,-39.414845,-385.30746
2546000000,-39.532833,-386.45148
2547000000,-39.567715,-387.80933
2548000000,-39.52182,-389.4924
2549000000,-39.523827,-390.84592
2550000000,-39.702736,-392.05063
2551000000,-39.685989,-394.03125
2552000000,-39.801094,-394.78415
2553000000,-39.764042,-397.54495
2554000000,-39.821705,-399.04709
2555000000,-39.758228,-400.2482
2556000000,-39.794113,-401.36343
2557000000,-39.78363,-402.88303
2558000000,-39.832207,-404.67514
2559000000,-39.749569,-406.50974
2560000000,-39.727581,-407.12491
2561000000,-39.776558,-408.74255
2562000000,-39.719852,-410.90512
2563000000,-39.706635,-412.08023
2564000000,-39.724285,-413.45328
2565000000,-39.654819,-414.76318
2566000000,-39.617588,-416.08856
2567000000,-39.627731,-417.49017
2568000000,-39.4403,-418.4418
2569000000,-39.481342,-420.26596
2570000000,-39.344528,-422.17789
2571000000,-39.264141,-423.1456
2572000000,-39.172844,-424.9935
2573000000,-39.146332,-426.13681
2574000000,-39.084518,-427.0813
2575000000,-39.018368,-428.62369
2576000000,-38.876251,-429.22711
2577000000,-38.814056,-430.9328
2578000000,-38.655621,-432.0224
2579000000,-38.64632,-433.48871
2580000000,-38.637543,-434.38855
2581000000,-38.455475,-436.02966
2582000000,-38.451885,-436.67087
2583000000,-38.323158,-438.17929
2584000000,-38.131062,-438.79419
2585000000,-38.148746,-439.99496
2586000000,-37.948009,-441.33887
2587000000,-37.845146,-441.80206
2588000000,-37.904415,-442.8078
2589000000,-37.718372,-444.40536
2590000000,-37.612087,-445.32709
2591000000,-37.437908,-445.36154
2592000000,-37.392494,-447.07617
2593000000,-37.209209,-448.20615
2594000000,-37.105732,-448.66504
2595000000,-37.136288,-449.75989
2596000000,-36.985065,-450.23831
2597000000,-36.849751,-451.72403
2598000000,-36.690289,-451.95682
2599000000,-36.577648,-453.11746
2600000000,-36.558792,-453.33542
2601000000,-36.441128,-454.17059
2602000000,-36.24654,-454.71576
2603000000,-36.309608,-455.59534
2604000000,-36.094498,-456.49258
2605000000,-36.021378,-457.16248
2606000000,-35.889717,-457.79526
2607000000,-35.792,-458.30222
2608000000,-35.671623,-458.90643
2609000000,-35.6292,-459.23837
2610000000,-35.49094,-459.82303
2611000000,-35.390373,-460.73297
2612000000,-35.246696,-461.22305
2613000000,-35.140469,-461.97372
2614000000,-35.068432,-462.53702
2615000000,-34.964954,-462.53305
2616000000,-34.843403,-463.49298
2617000000,-34.73064,-463.83618
2618000000,-34.640091,-464.42593
2619000000,-34.607517,-465.22617
2620000000,-34.509117,-465.30057
2621000000,-34.370667,-466.40915
2622000000,-34.28339,-466.50226
2623000000,-34.161667,-466.91342
2624000000,-34.083652,-467.4299
2625000000,-34.015694,-467.71158
2626000000,-33.942024,-468.16089
2627000000,-33.813038,-468.87839
2628000000,-33.687824,-469.05774
2629000000,-33.547218,-469.45465
2630000000,-33.571064,-469.99719
2631000000,-33.465912,-470.14612
2632000000,-33.346725,-470.40277
2633000000,-33.290245,-471.14072
2634000000,-33.192192,-472.07153
2635000000,-33.119656,-471.98477
2636000000,-32.979851,-472.64124
2637000000,-32.91618,-472.89969
2638000000,-32.863033,-472.84012
2639000000,-32.770889,-473.28162
2640000000,-32.729053,-473.88257
2641000000,-32.596848,-474.31812
2642000000,-32.453289,-474.77942
2643000000,-32.408264,-474.84903
2644000000,-32.305191,-475.4137
2645000000,-32.311436,-475.45099
2646000000,-32.194714,-476.04977
2647000000,-32.125313,-476.21713
2648000000,-32.017429,-476.55493
2649000000,-31.971062,-476.52997
2650000000,-31.844702,-476.78381
2651000000,-31.805637,-477.41882
2652000000,-31.722349,-477.68143
2653000000,-31.64436,-478.04156
2654000000,-31.565289,-478.47415
2655000000,-31.516031,-478.37964
2656000000,-31.415243,-478.99319
2657000000,-31.309618,-479.19864
2658000000,-31.29911,-479.6041
2659000000,-31.166059,-479.40848
2660000000,-31.162636,-479.73059
2661000000,-31.052063,-480.18344
2662000000,-30.992672,-480.64883
2663000000,-30.906065,-480.90112
2664000000,-30.809666,-480.97498
2665000000,-30.788916,-481.18439
2666000000,-30.693232,-481.44098
2667000000,-30.642441,-481.70499
2668000000,-30.528261,-482.14957
2669000000,-30.487146,-482.35901
2670000000,-30.408253,-482.2077
2671000000,-30.358604,-483.00699
2672000000,-30.27923,-482.97836
2673000000,-30.286333,-483.18234
2674000000,-30.198254,-483.59088
2675000000,-30.103809,-483.33014
2676000000,-30.034069,-483.85782
2677000000,-29.944654,-484.18442
2678000000,-29.904631,-484.19583
2679000000,-29.858259,-484.48526
2680000000,-29.795328,-484.77072
2681000000,-29.740433,-485.00961
2682000000,-29.662773,-485.10928
2683000000,-29.613382,-485.43057
2684000000,-29.562309,-485.58597
2685000000,-29.507154,-486.02649
2686000000,-29.435181,-485.92563
2687000000,-29.387943,-486.20422
2688000000,-29.344908,-486.29193
2689000000,-29.266651,-486.47745
2690000000,-29.220699,-486.65793
2691000000,-29.105213,-486.95267
2692000000,-29.067768,-487.37863
2693000000,-29.016403,-487.29788
2694000000,-28.928957,-487.10242
2695000000,-28.909399,-487.70889
2696000000,-28.837646,-488.15018
2697000000,-28.804958,-488.01993
2698000000,-28.737324,-488.50836
2699000000,-28.701635,-488.11194
2700000000,-28.593769,-488.81909
2701000000,-28.584322,-488.93619
2702000000,-28.491545,-489.1824
2703000000,-28.430525,-489.24655
2704000000,-28.386047,-489.24683
2705000000,-28.38998,-489.18475
2706000000,-28.27673,-489.92151
2707000000,-28.257813,-489.93195
2708000000,-28.194904,-489.92236
2709000000,-28.109375,-490.10352
2710000000,-28.105736,-490.49036
2711000000,-28.063782,-490.38083
2712000000,-27.989126,-490.75177
2713000000,-27.897749,-490.98608
2714000000,-27.888151,-491.05984
2715000000,-27.82938,-491.23627
2716000000,-27.791716,-491.54144
2717000000,-27.759912,-491.13541
2718000000,-27.649366,-491.79208
2719000000,-27.608568,-492.18082
2720000000,-27.601646,-491.72543
2721000000,-27.51479,-491.94455
2722000000,-27.47768,-492.26535
2723000000,-27.433146,-492.30206
2724000000,-27.388901,-492.57965
2725000000,-27.336651,-492.76071
2726000000,-27.297983,-492.89542
2727000000,-27.225653,-493.16556
2728000000,-27.188826,-493.22272
2729000000,-27.101309,-493.37201
2730000000,-27.122761,-493.38791
2731000000,-27.034323,-493.7941
2732000000,-27.000923,-494.0853
2733000000,-26.966282,-493.92444
2734000000,-26.922161,-493.93329
2735000000,-26.847975,-494.31812
2736000000,-26.807451,-494.49347
2737000000,-26.781057,-494.46188
2738000000,-26.730295,-494.82858
2739000000,-26.635,-494.98376
2740000000,-26.672758,-495.19562
2741000000,-26.583464,-495.31204
2742000000,-26.563124,-495.4538
2743000000,-26.47963,-495.54907
2744000000,-26.458883,-495.54352
2745000000,-26.402208,-495.72559
2746000000,-26.373262,-495.75989
2747000000,-26.327936,-495.60242
2748000000,-26.292517,-496.35614
2749000000,-26.274685,-496.11469
2750000000,-26.185558,-496.53827
2751000000,-26.168718,-496.62512
2752000000,-26.086555,-496.53464
2753000000,-26.083344,-496.73901
2754000000,-26.02972,-496.95758
2755000000,-25.985474,-496.76938
2756000000,-25.959923,-497.01697
2757000000,-25.887182,-497.34027
2758000000,-25.853945,-497.27011
2759000000,-25.83143,-497.61923
2760000000,-25.766552,-497.57306
2761000000,-25.759491,-497.84894
2762000000,-25.705135,-498.03403
2763000000,-25.655519,-498.1326
2764000000,-25.63232,-498.13303
2765000000,-25.546587,-498.1911
2766000000,-25.515053,-498.4342
2767000000,-25.46162,-498.61703
2768000000,-25.43429,-498.50037
2769000000,-25.395105,-498.72839
2770000000,-25.363443,-498.6265
2771000000,-25.298088,-499.25925
2772000000,-25.296003,-499.00391
2773000000,-25.26992,-499.30267
2774000000,-25.179314,-499.3699
2775000000,-25.14591,-499.52896
2776000000,-25.158312,-499.47452
2777000000,-25.077841,-499.77069
2778000000,-25.114243,-499.81308
2779000000,-25.017204,-499.92331
2780000000,-24.997932,-500.08258
2781000000,-24.948839,-500.28796
2782000000,-24.91485,-500.17722
2783000000,-24.897867,-500.41315
2784000000,-24.814882,-500.42212
2785000000,-24.775097,-500.53134
2786000000,-24.722307,-500.76752
2787000000,-24.760353,-500.67603
2788000000,-24.667969,-501.16574
2789000000,-24.661121,-501.10956
2790000000,-24.5952,-501.28787
2791000000,-24.553648,-501.23578
2792000000,-24.56217,-501.24591
2793000000,-24.522215,-501.66275
2794000000,-24.491682,-501.53238
2795000000,-24.400442,-501.83105
2796000000,-24.371504,-501.78757
2797000000,-24.31435,-502.11856
2798000000,-24.354603,-502.18744
2799000000,-24.26572,-502.04935
2800000000,-24.267656,-502.38452
2801000000,-24.273115,-502.23895
2802000000,-24.201002,-502.77292
2803000000,-24.114742,-502.8157
2804000000,-24.105871,-502.85587
2805000000,-24.106529,-502.81525
2806000000,-24.090532,-503.129
2807000000,-24.014509,-503.33865
2808000000,-23.966955,-503.18961
2809000000,-23.956833,-503.20145
2810000000,-23.886112,-503.52304
2811000000,-23.854843,-503.4007
2812000000,-23.816368,-503.897
2813000000,-23.81665,-504.00372
2814000000,-23.75713,-503.85611
2815000000,-23.737061,-504.15472
2816000000,-23.682726,-504.12949
2817000000,-23.653593,-504.3616
2818000000,-23.675175,-504.38876
2819000000,-23.591936,-504.31799
2820000000,-23.571642,-504.5976
2821000000,-23.522617,-504.48843
2822000000,-23.504654,-504.75269
2823000000,-23.47332,-504.80936
2824000000,-23.454201,-504.88055
2825000000,-23.387487,-505.00626
2826000000,-23.368786,-505.22424
2827000000,-23.334141,-505.43777
2828000000,-23.251362,-505.285
2829000000,-23.236277,-505.3544
2830000000,-23.245436,-505.50159
2831000000,-23.194633,-505.77722
2832000000,-23.143755,-505.88025
2833000000,-23.156548,-505.83716
2834000000,-23.094576,-505.94507
2835000000,-23.048611,-506.03934
2836000000,-23.045321,-506.17352
2837000000,-23.001389,-506.40198
2838000000,-22.992336,-506.39438
2839000000,-22.955294,-506.57913
2840000000,-22.917286,-506.43683
2841000000,-22.912445,-506.70584
2842000000,-22.830204,-506.79294
2843000000,-22.80743,-506.95816
2844000000,-22.815386,-507.12561
2845000000,-22.72526,-507.15378
2846000000,-22.727737,-507.13467
2847000000,-22.700171,-507.41296
2848000000,-22.689089,-507.25772
2849000000,-22.658659,-507.27225
2850000000,-22.60545,-507.4429
2851000000,-22.592638,-507.63501
2852000000,-22.555223,-507.65808
2853000000,-22.531534,-508.03397
2854000000,-22.470419,-507.98889
2855000000,-22.453003,-508.15292
2856000000,-22.448938,-508.05597
2857000000,-22.394955,-508.39148
2858000000,-22.369518,-508.37592
2859000000,-22.327623,-508.47504
2860000000,-22.323225,-508.64584
2861000000,-22.264482,-508.63223
2862000000,-22.228804,-508.5123
2863000000,-22.218405,-508.80435
2864000000,-22.147047,-508.88889
2865000000,-22.159842,-508.9903
2866000000,-22.120243,-509.30154
2867000000,-22.108049,-509.29355
2868000000,-22.074778,-509.23361
2869000000,-22.040119,-509.41589
2870000000,-21.993967,-509.50735
2871000000,-21.985397,-509.55841
2872000000,-21.946505,-509.48328
2873000000,-21.908112,-509.83566
2874000000,-21.884054,-509.80811
2875000000,-21.916313,-509.80228
2876000000,-21.87237,-509.78461
2877000000,-21.830297,-510.25006
2878000000,-21.82535,-510.16263
2879000000,-21.764925,-510.48248
2880000000,-21.735855,-510.65149
2881000000,-21.685806,-510.4938
2882000000,-21.63796,-510.63669
2883000000,-21.651268,-510.58429
2884000000,-21.635548,-510.94247
2885000000,-21.603657,-510.88275
2886000000,-21.549105,-511.04788
2887000000,-21.523962,-511.03641
2888000000,-21.493034,-511.30087
2889000000,-21.446861,-511.05502
2890000000,-21.44072,-511.18671
2891000000,-21.42642,-511.19479
2892000000,-21.369568,-511.37076
2893000000,-21.346745,-511.64755
2894000000,-21.324184,-511.74625
2895000000,-21.267923,-511.75281
2896000000,-21.271814,-512.10297
2897000000,-21.239672,-512.02972
2898000000,-21.223917,-511.91541
2899000000,-21.149994,-512.18488
2900000000,-21.16073,-512.26282
2901000000,-21.125652,-512.26355
2902000000,-21.122372,-512.42743
2903000000,-21.098705,-512.50854
2904000000,-21.051594,-512.61163
2905000000,-21.028206,-512.63983
2906000000,-21.000399,-512.56726
2907000000,-20.991499,-512.89734
2908000000,-20.938322,-512.90948
2909000000,-20.93,-512.8443
2910000000,-20.871508,-513.13153
2911000000,-20.889887,-513.32196
2912000000,-20.839735,-513.35229
2913000000,-20.822052,-513.1944
2914000000,-20.747721,-513.30713
2915000000,-20.755733,-513.63226
2916000000,-20.754438,-513.60101
2917000000,-20.68648,-513.6593
2918000000,-20.689619,-513.72552
2919000000,-20.633795,-514.05096
2920000000,-20.588396,-513.79938
2921000000,-20.593182,-513.98962
2922000000,-20.581974,-514.13452
2923000000,-20.521402,-514.17426
2924000000,-20.472616,-514.25922
2925000000,-20.474169,-514.17725
2926000000,-20.456699,-514.53827
2927000000,-20.441275,-514.5661
2928000000,-20.395508,-514.59247
2929000000,-20.408329,-514.81866
2930000000,-20.38287,-514.87305
2931000000,-20.324112,-514.95343
2932000000,-20.32538,-514.98303
2933000000,-20.301716,-515.02332
2934000000,-20.225567,-515.1283
2935000000,-20.200823,-515.37775
2936000000,-20.181108,-515.37292
2937000000,-20.163279,-515.45245
2938000000,-20.159832,-515.2804
2939000000,-20.119173,-515.72101
2940000000,-20.100998,-515.76245
2941000000,-20.076559,-515.71881
2942000000,-20.036438,-515.96259
2943000000,-20.029045,-515.9361
2944000000,-19.985973,-515.92126
2945000000,-19.945324,-516.24933
2946000000,-19.941078,-516.28607
2947000000,-19.903065,-516.41742
2948000000,-19.892921,-516.3678
2949000000,-19.870403,-516.41431
2950000000,-19.816332,-516.68469
2951000000,-19.81595,-516.45282
2952000000,-19.804394,-516.6333
2953000000,-19.731968,-516.77759
2954000000,-19.750656,-516.82733
2955000000,-19.725237,-517.00317
2956000000,-19.656326,-516.93793
2957000000,-19.642393,-517.27386
2958000000,-19.63324,-517.01294
2959000000,-19.62236,-517.39551
2960000000,-19.563202,-517.33405
2961000000,-19.545874,-517.54218
2962000000,-19.520662,-517.409
2963000000,-19.520405,-517.52374
2964000000,-19.493862,-517.70526
2965000000,-19.463737,-517.90594
2966000000,-19.394781,-517.76947
2967000000,-19.375372,-517.96643
2968000000,-19.384111,-518.05603
2969000000,-19.343121,-518.13342
2970000000,-19.326931,-518.26385
2971000000,-19.283997,-518.2121
2972000000,-19.26755,-518.34485
2973000000,-19.225414,-518.5119
2974000000,-19.21298,-518.71295
2975000000,-19.185915,-518.67926
2976000000,-19.191717,-518.72339
2977000000,-19.143034,-518.90546
2978000000,-19.107058,-519.00677
2979000000,-19.071871,-519.15063
2980000000,-19.019436,-519.12177
2981000000,-19.010458,-519.19592
2982000000,-18.978771,-519.17969
2983000000,-18.965532,-519.35614
2984000000,-18.953516,-519.57391
2985000000,-18.957792,-519.63
2986000000,-18.889116,-519.76764
2987000000,-18.886913,-519.88293
2988000000,-18.876234,-519.75684
2989000000,-18.836445,-520.16077
2990000000,-18.776495,-520.10223
2991000000,-18.775049,-520.02209
2992000000,-18.76017,-520.33136
2993000000,-18.740099,-520.2973
2994000000,-18.70702,-520.24762
2995000000,-18.697538,-520.36951
2996000000,-18.669044,-520.5365
2997000000,-18.634432,-520.70471
2998000000,-18.594385,-520.90985
2999000000,-18.588858,-520.77277
3000000000,-18.573334,-520.78937
3001000000,-18.547365,-520.8822
3002000000,-18.514996,-520.97723
3003000000,-18.484018,-521.08868
3004000000,-18.475901,-521.2099
3005000000,-18.437939,-521.19031
3006000000,-18.412981,-521.32428
3007000000,-18.393946,-521.47815
3008000000,-18.383602,-521.62872
3009000000,-18.33461,-521.62701
3010000000,-18.319901,-521.78125
3011000000,-18.294474,-521.78741
3012000000,-18.227503,-521.79974
3013000000,-18.26646,-522.01868
3014000000,-18.231836,-522.31958
3015000000,-18.233112,-522.15015
3016000000,-18.17288,-522.29004
3017000000,-18.167374,-522.42487
3018000000,-18.142334,-522.49384
3019000000,-18.11492,-522.495
3020000000,-18.079906,-522.70081
3021000000,-18.058353,-522.79102
3022000000,-18.019186,-522.86273
3023000000,-18.024744,-522.93396
3024000000,-17.987244,-523.15302
3025000000,-17.970491,-523.07843
3026000000,-17.93432,-523.21252
3027000000,-17.885355,-523.1673
3028000000,-17.918388,-523.1828
3029000000,-17.8384,-523.29236
3030000000,-17.821161,-523.53906
3031000000,-17.802,-523.73572
3032000000,-17.832047,-523.86194
3033000000,-17.786865,-523.57776
3034000000,-17.712568,-523.92303
3035000000,-17.703447,-523.94592
3036000000,-17.713726,-523.98975
3037000000,-17.653229,-524.2475
3038000000,-17.655296,-524.05823
3039000000,-17.643801,-524.38837
3040000000,-17.582926,-524.27655
3041000000,-17.583242,-524.50604
3042000000,-17.561443,-524.39636
3043000000,-17.539967,-524.78326
3044000000,-17.518148,-524.71533
3045000000,-17.461905,-524.79846
3046000000,-17.416927,-525.20325
3047000000,-17.410345,-524.97107
3048000000,-17.420471,-525.41858
3049000000,-17.370579,-525.26917
3050000000,-17.332092,-525.38727
3051000000,-17.331177,-525.39484
3052000000,-17.323828,-525.46661
3053000000,-17.315149,-525.44232
3054000000,-17.274004,-525.72205
3055000000,-17.246363,-525.80884
3056000000,-17.226873,-525.96252
3057000000,-17.209513,-525.84796
3058000000,-17.189686,-526.13983
3059000000,-17.166435,-526.06976
3060000000,-17.154486,-526.26086
3061000000,-17.10961,-526.44867
3062000000,-17.109459,-526.31091
3063000000,-17.060179,-526.44385
3064000000,-17.030443,-526.43121
3065000000,-16.996586,-526.74554
3066000000,-16.999445,-526.75092
3067000000,-16.996336,-526.66046
3068000000,-16.926168,-527.08752
3069000000,-16.95763,-527.19165
3070000000,-16.889412,-527.04297
3071000000,-16.901255,-527.35223
3072000000,-16.861874,-527.36432
3073000000,-16.808411,-527.55341
3074000000,-16.792685,-527.31909
3075000000,-16.812424,-527.4585
3076000000,-16.773863,-527.6095
3077000000,-16.714848,-527.80322
3078000000,-16.702492,-527.81268
3079000000,-16.680498,-527.9201
3080000000,-16.644009,-528.14117
3081000000,-16.628023,-528.37988
3082000000,-16.594837,-528.29285
3083000000,-16.599625,-528.30176
3084000000,-16.556398,-528.35706
3085000000,-16.54981,-528.34723
3086000000,-16.487572,-528.67084
3087000000,-16.503384,-528.66504
3088000000,-16.503819,-528.74841
3089000000,-16.47459,-528.92059
3090000000,-16.412405,-529.2984
3091000000,-16.428085,-529.11243
3092000000,-16.369444,-529.03418
3093000000,-16.396736,-529.3363
3094000000,-16.338444,-529.44653
3095000000,-16.318935,-529.34967
3096000000,-16.266294,-529.63629
3097000000,-16.272491,-529.84875
3098000000,-16.271406,-529.7041
3099000000,-16.254282,-529.80359
3100000000,-16.222906,-529.76984
3101000000,-16.193512,-530.06818
3102000000,-16.182047,-530.23486
3103000000,-16.15163,-530.03387
3104000000,-16.113348,-530.32166
3105000000,-16.059702,-530.39154
3106000000,-16.094582,-530.61041
3107000000,-16.055782,-530.52966
3108000000,-16.036573,-530.67175
3109000000,-16.01269,-530.55823
3110000000,-15.971348,-530.89673
3111000000,-15.963247,-530.99127
3112000000,-15.910749,-531.18518
3113000000,-15.911689,-531.09637
3114000000,-15.854378,-531.28925
3115000000,-15.857854,-531.42853
3116000000,-15.837375,-531.33521
3117000000,-15.802817,-531.56677
3118000000,-15.780117,-531.7652
3119000000,-15.750559,-531.49481
3120000000,-15.710631,-531.8996
3121000000,-15.694589,-531.79407
3122000000,-15.706071,-531.93347
3123000000,-15.644552,-532.12109
3124000000,-15.619735,-532.0592
3125000000,-15.615069,-532.32904
3126000000,-15.613008,-532.33972
3127000000,-15.566308,-532.56
3128000000,-15.55505,-532.68274
3129000000,-15.515092,-532.61694
3130000000,-15.501672,-532.86584
3131000000,-15.463405,-533.19183
3132000000,-15.441557,-533.01245
3133000000,-15.431211,-533.18805
3134000000,-15.400563,-533.15485
3135000000,-15.399871,-533.37762
3136000000,-15.378809,-533.39642
3137000000,-15.344384,-533.4248
3138000000,-15.302318,-533.54529
3139000000,-15.316635,-533.87274
3140000000,-15.26925,-533.67279
3141000000,-15.275453,-533.80957
3142000000,-15.207552,-533.83197
3143000000,-15.208155,-534.06274
3144000000,-15.173815,-534.47729
3145000000,-15.170805,-534.22681
3146000000,-15.125768,-534.53723
3147000000,-15.101081,-534.49127
3148000000,-15.12172,-534.5199
3149000000,-15.089569,-534.52277
3150000000,-15.025089,-534.85266
3151000000,-15.016434,-535.01495
3152000000,-15.034436,-534.6972
3153000000,-14.994274,-535.18744
3154000000,-14.915565,-535.05798
3155000000,-14.932553,-535.21948
3156000000,-14.918162,-535.25647
3157000000,-14.902514,-535.65521
3158000000,-14.857445,-535.58862
3159000000,-14.820012,-535.62854
3160000000,-14.798207,-535.80585
3161000000,-14.779395,-535.93286
3162000000,-14.774592,-535.87646
3163000000,-14.703463,-536.3139
3164000000,-14.727851,-536.10974
3165000000,-14.699836,-536.33881
3166000000,-14.67923,-536.25793
3167000000,-14.68103,-536.73572
3168000000,-14.6118,-536.75171
3169000000,-14.587189,-536.83649
3170000000,-14.602464,-536.86816
3171000000,-14.554323,-536.94495
3172000000,-14.537689,-537.09576
3173000000,-14.511691,-537.18561
3174000000,-14.533764,-537.19299
3175000000,-14.492571,-537.39532
3176000000,-14.466752,-537.39349
3177000000,-14.414615,-537.60974
3178000000,-14.421272,-537.57013
3179000000,-14.385311,-537.83771
3180000000,-14.362223,-537.74799
3181000000,-14.350542,-538.09192
3182000000,-14.294739,-538.1994
3183000000,-14.300098,-538.1814
3184000000,-14.25741,-538.44617
3185000000,-14.243145,-538.50757
3186000000,-14.239844,-538.70929
3187000000,-14.195218,-538.69989
3188000000,-14.210857,-538.80939
3189000000,-14.15158,-538.85443
3190000000,-14.174402,-538.92645
3191000000,-14.119101,-539.14972
3192000000,-14.114762,-539.18658
3193000000,-14.073243,-539.22467
3194000000,-14.075452,-539.52124
3195000000,-14.030799,-539.49683
3196000000,-14.009218,-539.64337
3197000000,-13.976202,-539.67358
3198000000,-13.951408,-539.82062
3199000000,-13.919898,-539.90533
3200000000,-13.887029,-540.17822
3201000000,-13.894276,-540.21539
3202000000,-13.861102,-540.34857
3203000000,-13.86225,-540.09631
3204000000,-13.806539,-540.4743
3205000000,-13.806942,-540.49475
3206000000,-13.764699,-540.78595
3207000000,-13.777175,-540.70746
3208000000,-13.718848,-540.93646
3209000000,-13.680349,-541.14215
3210000000,-13.660165,-541.00836
3211000000,-13.68434,-541.2157
3212000000,-13.629009,-541.40289
3213000000,-13.625788,-541.38989
3214000000,-13.597706,-541.63538
3215000000,-13.568596,-541.77557
3216000000,-13.542361,-541.71301
3217000000,-13.56516,-541.97955
3218000000,-13.525621,-542.03448
3219000000,-13.461879,-542.073
3220000000,-13.469651,-542.30524
3221000000,-13.420431,-542.41113
3222000000,-13.417469,-542.44287
3223000000,-13.381405,-542.72253
3224000000,-13.395073,-542.73779
3225000000,-13.337858,-542.82843
3226000000,-13.324687,-543.13739
3227000000,-13.306134,-543.1817
3228000000,-13.281055,-543.08191
3229000000,-13.245956,-543.32251
3230000000,-13.238228,-543.38373
3231000000,-13.213988,-543.62201
3232000000,-13.178519,-543.62366
3233000000,-13.18963,-543.70752
3234000000,-13.137254,-544.20264
3235000000,-13.12804,-544.01532
3236000000,-13.112771,-544.13464
3237000000,-13.072607,-544.16412
3238000000,-13.056823,-544.44824
3239000000,-13.069546,-544.57422
3240000000,-13.015078,-544.47693
3241000000,-12.984458,-544.92987
3242000000,-12.93539,-544.91028
3243000000,-12.939049,-545.03961
3244000000,-12.924005,-544.84674
3245000000,-12.909151,-545.03247
3246000000,-12.933376,-545.03253
3247000000,-12.860879,-545.16748
3248000000,-12.844157,-545.6264
3249000000,-12.814281,-545.64526
3250000000,-12.788393,-545.75458
3251000000,-12.752077,-545.97772
3252000000,-12.746803,-546.16718
3253000000,-12.733917,-546.11774
3254000000,-12.727162,-546.25824
3255000000,-12.671654,-546.23108
3256000000,-12.698978,-546.32007
3257000000,-12.648563,-546.54077
3258000000,-12.630745,-546.83514
3259000000,-12.636054,-546.76746
3260000000,-12.582576,-547.06506
3261000000,-12.562057,-546.9444
3262000000,-12.493591,-547.078
3263000000,-12.539489,-547.20441
3264000000,-12.506796,-547.38983
3265000000,-12.462027,-547.58679
3266000000,-12.454525,-547.74866
3267000000,-12.426128,-547.91498
3268000000,-12.414855,-547.81281
3269000000,-12.370497,-548.03369
3270000000,-12.336062,-548.20734
3271000000,-12.333556,-548.38446
3272000000,-12.30563,-548.28308
3273000000,-12.319055,-548.58398
3274000000,-12.241399,-548.6358
3275000000,-12.212644,-548.9245
3276000000,-12.23575,-549.112
3277000000,-12.209311,-549.03656
3278000000,-12.19125,-549.56586
3279000000,-12.177378,-549.33746
3280000000,-12.152163,-549.58167
3281000000,-12.135114,-549.7052
3282000000,-12.091091,-549.75348
3283000000,-12.115012,-549.81989
3284000000,-12.04233,-549.7677
3285000000,-12.007426,-550.11224
3286000000,-11.979815,-550.28021
3287000000,-11.977235,-550.24036
3288000000,-11.961577,-550.42773
3289000000,-11.997614,-550.62683
3290000000,-11.960979,-550.75751
3291000000,-11.916301,-551.11407
3292000000,-11.883387,-550.90033
3293000000,-11.87511,-551.15741
3294000000,-11.829779,-551.29657
3295000000,-11.825565,-551.42957
3296000000,-11.789282,-551.56256
3297000000,-11.778873,-551.80176
3298000000,-11.787136,-552.05237
3299000000,-11.777257,-551.95282
3300000000,-11.695563,-552.3175
3301000000,-11.683125,-552.21686
3302000000,-11.644012,-552.21735
3303000000,-11.654764,-552.46704
3304000000,-11.628762,-552.62927
3305000000,-11.624349,-552.62579
3306000000,-11.565781,-553.02112
3307000000,-11.572218,-552.93927
3308000000,-11.548197,-552.88849
3309000000,-11.555069,-553.20062
3310000000,-11.497337,-553.5376
3311000000,-11.552106,-553.66357
3312000000,-11.487717,-553.81219
3313000000,-11.456373,-553.9234
3314000000,-11.422213,-553.92969
3315000000,-11.396767,-553.90466
3316000000,-11.360827,-554.2431
3317000000,-11.351068,-554.39081
3318000000,-11.343532,-554.36749
3319000000,-11.365627,-554.6272
3320000000,-11.295029,-554.48932
3321000000,-11.288118,-554.82269
3322000000,-11.215455,-554.80609
3323000000,-11.25107,-554.95758
3324000000,-11.232003,-555.37079
3325000000,-11.185288,-555.35999
3326000000,-11.164067,-555.7182
3327000000,-11.11832,-555.83893
3328000000,-11.10505,-555.71295
3329000000,-11.09916,-555.80542
3330000000,-11.067146,-555.96118
3331000000,-11.038444,-556.39539
3332000000,-11.064057,-556.35663
3333000000,-11.020051,-556.5473
3334000000,-11.022093,-556.77771
3335000000,-10.97625,-556.97723
3336000000,-10.98937,-557.01727
3337000000,-10.907878,-556.92029
3338000000,-10.907238,-557.34235
3339000000,-10.936677,-557.44196
3340000000,-10.921556,-557.44812
3341000000,-10.844969,-557.56189
3342000000,-10.820972,-557.82336
3343000000,-10.808953,-557.83197
3344000000,-10.791241,-558.09119
3345000000,-10.772374,-558.32526
3346000000,-10.796034,-558.20801
3347000000,-10.733336,-558.65277
3348000000,-10.708399,-558.6037
3349000000,-10.693698,-558.86609
3350000000,-10.675453,-559.05902
3351000000,-10.660213,-559.14661
3352000000,-10.61608,-559.30768
3353000000,-10.616388,-559.53143
3354000000,-10.58051,-559.40771
3355000000,-10.594357,-559.77496
3356000000,-10.545028,-559.72644
3357000000,-10.515258,-559.93457
3358000000,-10.515706,-560.00159
3359000000,-10.486829,-560.22473
3360000000,-10.463417,-560.40179
3361000000,-10.437575,-560.69232
3362000000,-10.406348,-560.6109
3363000000,-10.444819,-560.92578
3364000000,-10.363437,-560.71594
3365000000,-10.367874,-561.22583
3366000000,-10.334054,-561.32269
3367000000,-10.328297,-561.5072
3368000000,-10.287343,-561.44836
3369000000,-10.315009,-561.75568
3370000000,-10.272441,-561.9978
3371000000,-10.284977,-561.7265
3372000000,-10.193558,-562.26758
3373000000,-10.232304,-562.3916
3374000000,-10.199907,-562.5473
3375000000,-10.178805,-562.45483
3376000000,-10.1585,-562.82428
3377000000,-10.177684,-562.88977
3378000000,-10.115903,-563.10767
3379000000,-10.068936,-563.42999
3380000000,-10.063342,-563.41119
3381000000,-10.052433,-563.66394
3382000000,-10.025016,-563.7049
3383000000,-10.026126,-563.93652
3384000000,-9.9848318,-564.08405
3385000000,-9.9214211,-564.04883
3386000000,-9.9663773,-564.37714
3387000000,-9.9460382,-564.62292
3388000000,-9.9360666,-564.62158
3389000000,-9.8721361,-564.93439
3390000000,-9.902853,-564.9223
3391000000,-9.8486147,-565.18805
3392000000,-9.8467541,-565.15936
3393000000,-9.8162813,-565.21747
3394000000,-9.7792339,-565.62817
3395000000,-9.7815952,-565.7851
3396000000,-9.7594194,-565.84009
3397000000,-9.7525816,-566.04065
3398000000,-9.7447052,-566.30182
3399000000,-9.7079763,-566.3053
3400000000,-9.663084,-566.87372
3401000000,-9.6262016,-566.78467
3402000000,-9.6471281,-566.70508
3403000000,-9.6453648,-567.10547
3404000000,-9.6209421,-567.30469
3405000000,-9.6154852,-567.24457
3406000000,-9.5719728,-567.35565
3407000000,-9.5582724,-567.61719
3408000000,-9.5248165,-567.4809
3409000000,-9.5151291,-567.9198
3410000000,-9.4909859,-568.20203
3411000000,-9.464901,-568.30219
3412000000,-9.4588099,-568.276
3413000000,-9.4589214,-568.40515
3414000000,-9.4205637,-568.67487
3415000000,-9.424015,-568.85559
3416000000,-9.3982162,-568.96167
3417000000,-9.3766413,-569.27625
3418000000,-9.3654633,-569.35297
3419000000,-9.350791,-569.60022
3420000000,-9.33253,-569.71136
3421000000,-9.3386717,-569.83588
3422000000,-9.2647896,-570.13348
3423000000,-9.2866859,-570.42084
3424000000,-9.2495308,-570.3299
3425000000,-9.2263737,-570.3161
3426000000,-9.2160454,-570.64996
3427000000,-9.1922445,-570.75177
3428000000,-9.1870823,-571.0423
3429000000,-9.1626205,-571.28467
3430000000,-9.1244316,-571.46881
3431000000,-9.0978489,-571.37793
3432000000,-9.1164331,-571.59766
3433000000,-9.0598326,-571.7251
3434000000,-9.0540895,-572.11121
3435000000,-9.0356541,-572.18732
3436000000,-9.032011,-572.33661
3437000000,-9.0142193,-572.38049
3438000000,-8.9729958,-572.43921
3439000000,-8.9859982,-572.6839
3440000000,-8.9443407,-572.86554
3441000000,-8.9576521,-572.94202
3442000000,-8.9013939,-573.26782
3443000000,-8.9187222,-573.33044
3444000000,-8.9079561,-573.6817
3445000000,-8.8839645,-573.65485
3446000000,-8.8559465,-573.88544
3447000000,-8.8001909,-574.00635
3448000000,-8.8374348,-574.18689
3449000000,-8.799799,-574.28436
3450000000,-8.7879734,-574.85217
3451000000,-8.7891207,-574.64758
3452000000,-8.7437973,-574.99011
3453000000,-8.7317724,-575.2157
3454000000,-8.7358274,-575.3078
3455000000,-8.7042341,-575.45404
3456000000,-8.6717196,-575.61243
3457000000,-8.6418953,-575.99249
3458000000,-8.685626,-576.01276
3459000000,-8.6106653,-576.20392
3460000000,-8.6128206,-576.29498
3461000000,-8.5965052,-576.61249
3462000000,-8.6116228,-576.70776
3463000000,-8.5698214,-576.79401
3464000000,-8.5462942,-577.25494
3465000000,-8.546073,-577.04718
3466000000,-8.5187445,-577.30231
3467000000,-8.4895744,-577.33282
3468000000,-8.4652929,-577.7478
3469000000,-8.4725904,-577.91443
3470000000,-8.4576902,-578.01355
3471000000,-8.4246092,-578.42786
3472000000,-8.42414,-578.4751
3473000000,-8.3967361,-578.6571
3474000000,-8.3874817,-578.54193
3475000000,-8.3895617,-578.7746
3476000000,-8.355752,-579.21564
3477000000,-8.360076,-579.24658
3478000000,-8.3362656,-579.43219
3479000000,-8.2947264,-579.36176
3480000000,-8.2988377,-579.73987
3481000000,-8.2544899,-579.96521
3482000000,-8.2613964,-580.33411
3483000000,-8.2457466,-580.27209
3484000000,-8.242487,-580.61615
3485000000,-8.2019415,-580.5459
3486000000,-8.1911278,-580.87762
3487000000,-8.2298565,-581.06207
3488000000,-8.163312,-581.0957
3489000000,-8.1650352,-581.55701
3490000000,-8.1290646,-581.62244
3491000000,-8.0954914,-581.91345
3492000000,-8.1305304,-582.02112
3493000000,-8.0525703,-582.14539
3494000000,-8.0797758,-582.18964
3495000000,-8.073823,-582.4198
3496000000,-8.047431,-582.65759
3497000000,-8.0496769,-583.0661
3498000000,-8.0109339,-583.05505
3499000000,-7.9637704,-583.16406
3500000000,-7.95333,-583.2522
3501000000,-7.9621,-583.31879
3502000000,-7.9522939,-583.81262
3503000000,-7.9449568,-583.79175
3504000000,-7.9171815,-584.01129
3505000000,-7.9240761,-584.14026
3506000000,-7.9104614,-584.51617
3507000000,-7.8848333,-584.62445
3508000000,-7.8935142,-584.90582
3509000000,-7.8295221,-584.88782
3510000000,-7.8371735,-585.08472
3511000000,-7.8360605,-585.18005
3512000000,-7.826283,-585.45282
3513000000,-7.8105559,-585.75555
3514000000,-7.7856297,-585.91339
3515000000,-7.7707162,-586.08636
3516000000,-7.7564259,-586.34821
3517000000,-7.717627,-586.2868
3518000000,-7.7077508,-586.56885
3519000000,-7.7079501,-586.68665
3520000000,-7.6942506,-587.00647
3521000000,-7.6611738,-587.28009
3522000000,-7.6728506,-587.30994
3523000000,-7.6337056,-587.64258
3524000000,-7.6345067,-587.93176
3525000000,-7.6422563,-587.74005
3526000000,-7.60357,-588.05408
3527000000,-7.6045957,-588.20581
3528000000,-7.576251,-588.31934
3529000000,-7.5780063,-588.58142
3530000000,-7.5765786,-588.64856
3531000000,-7.5381608,-588.9751
3532000000,-7.530313,-588.99146
3533000000,-7.5465107,-589.42761
3534000000,-7.470583,-589.4494
3535000000,-7.4691811,-589.83813
3536000000,-7.498055,-589.74738
3537000000,-7.4677072,-590.02887
3538000000,-7.4347339,-590.32678
3539000000,-7.465261,-590.59106
3540000000,-7.4354048,-590.78162
3541000000,-7.3950372,-591.08154
3542000000,-7.3672042,-590.97925
3543000000,-7.3959231,-591.2132
3544000000,-7.3773584,-591.1662
3545000000,-7.3393097,-591.56549
3546000000,-7.3238673,-591.68048
3547000000,-7.3349319,-591.8974
3548000000,-7.3287673,-592.22375
3549000000,-7.3080621,-592.42749
3550000000,-7.3208303,-592.36011
3551000000,-7.312736,-592.5119
3552000000,-7.2853451,-592.68555
3553000000,-7.250833,-592.88434
3554000000,-7.2411833,-593.05109
3555000000,-7.2398877,-593.58868
3556000000,-7.2462974,-593.4375
3557000000,-7.209527,-593.841
3558000000,-7.2068434,-593.86652
3559000000,-7.1622772,-594.1571
3560000000,-7.1894732,-594.46576
3561000000,-7.1453013,-594.47479
3562000000,-7.147079,-594.72406
3563000000,-7.1632438,-594.90955
3564000000,-7.1212673,-594.89722
3565000000,-7.1340823,-595.26453
3566000000,-7.105988,-595.27661
3567000000,-7.1020794,-595.68164
3568000000,-7.0995693,-595.73578
3569000000,-7.1002121,-595.9519
3570000000,-7.0490656,-596.07483
3571000000,-7.0657392,-596.35535
3572000000,-7.0570002,-596.26178
3573000000,-7.0453873,-596.89948
3574000000,-7.0087094,-596.73853
3575000000,-7.0004196,-597.19629
3576000000,-7.0006175,-597.0968
3577000000,-7.011302,-597.53711
3578000000,-6.973475,-597.69354
3579000000,-6.9912958,-598.03772
3580000000,-6.9092364,-598.13861
3581000000,-6.9387617,-598.22144
3582000000,-6.9528432,-598.39606
3583000000,-6.9215679,-598.54852
3584000000,-6.9364681,-598.77692
3585000000,-6.9018292,-598.89703
3586000000,-6.9047093,-599.34509
3587000000,-6.8544931,-599.29034
3588000000,-6.8503656,-599.41217
3589000000,-6.8466725,-599.6557
3590000000,-6.8382769,-600.03455
3591000000,-6.8620167,-599.97223
3592000000,-6.8411374,-600.08472
3593000000,-6.8123064,-600.42035
3594000000,-6.7936592,-600.57605
3595000000,-6.8010335,-600.83209
3596000000,-6.7982659,-601.1098
3597000000,-6.7644358,-601.18225
3598000000,-6.7691298,-601.28595
3599000000,-6.7305532,-601.44397
3600000000,-6.7408137,-601.69482
3601000000,-6.6987271,-601.87402
3602000000,-6.6900463,-602.19257
3603000000,-6.7162275,-602.35693
3604000000,-6.657948,-602.50824
3605000000,-6.684649,-602.71045
3606000000,-6.6471205,-602.77667
3607000000,-6.6440539,-603.17517
3608000000,-6.6380219,-603.27527
3609000000,-6.627492,-603.46906
3610000000,-6.6602573,-603.65692
3611000000,-6.6334605,-603.92737
3612000000,-6.6203613,-603.927
3613000000,-6.5910444,-604.2453
3614000000,-6.6146927,-604.39539
3615000000,-6.5927405,-604.95593
3616000000,-6.5681486,-604.60193
3617000000,-6.5745525,-604.90808
3618000000,-6.5655012,-605.32104
3619000000,-6.5420432,-605.27869
3620000000,-6.5256538,-605.7207
3621000000,-6.5491209,-605.94995
3622000000,-6.5567861,-605.96368
3623000000,-6.5240526,-606.18701
3624000000,-6.5313325,-606.34363
3625000000,-6.5381336,-606.55487
3626000000,-6.4983168,-606.80975
3627000000,-6.507658,-606.74512
3628000000,-6.4827137,-606.95862
3629000000,-6.4482298,-607.12793
3630000000,-6.489368,-607.57349
3631000000,-6.4301558,-607.66168
3632000000,-6.4551616,-607.62659
3633000000,-6.4335003,-608.03949
3634000000,-6.4146171,-608.22833
3635000000,-6.448051,-608.33777
3636000000,-6.4226513,-608.60828
3637000000,-6.433764,-608.76947
3638000000,-6.410399,-608.91632
3639000000,-6.3851581,-609.17944
3640000000,-6.3959823,-609.32922
3641000000,-6.3399801,-609.48157
3642000000,-6.3960409,-609.44318
3643000000,-6.3729925,-609.94208
3644000000,-6.3498325,-610.02563
3645000000,-6.3599854,-610.28198
3646000000,-6.3396783,-610.36407
3647000000,-6.3607864,-610.53558
3648000000,-6.3126173,-610.79016
3649000000,-6.2968974,-611.09094
3650000000,-6.2998195,-611.04736
3651000000,-6.3160596,-611.53009
3652000000,-6.2627783,-611.71765
3653000000,-6.2609196,-611.93109
3654000000,-6.2914257,-611.74866
3655000000,-6.2755198,-612.19702
3656000000,-6.2528648,-612.3183
3657000000,-6.2351189,-612.47681
3658000000,-6.2391658,-612.86041
3659000000,-6.2298441,-612.95087
3660000000,-6.2309661,-613.086
3661000000,-6.2426982,-613.20764
3662000000,-6.2401676,-613.388
3663000000,-6.2067575,-613.80762
3664000000,-6.2297502,-613.8548
3665000000,-6.2064385,-613.8786
3666000000,-6.2183709,-614.26312
3667000000,-6.1848192,-614.64655
3668000000,-6.1770062,-614.47437
3669000000,-6.1996946,-614.56989
3670000000,-6.1802874,-614.90631
3671000000,-6.1662164,-615.17554
3672000000,-6.1594801,-615.05658
3673000000,-6.1521664,-615.65021
3674000000,-6.1371789,-615.59149
3675000000,-6.1263461,-615.93622
3676000000,-6.1223588,-616.02411
3677000000,-6.1386204,-616.23083
3678000000,-6.1098337,-616.4032
3679000000,-6.1157513,-616.81598
3680000000,-6.1347971,-616.91473
3681000000,-6.0900917,-617.05493
3682000000,-6.073144,-617.284
3683000000,-6.046217,-617.47607
3684000000,-6.0867071,-617.46594
3685000000,-6.1028705,-617.80225
3686000000,-6.0913792,-618.18207
3687000000,-6.1046696,-618.18219
3688000000,-6.0564137,-618.35632
3689000000,-6.0359769,-618.53754
3690000000,-6.059823,-618.8006
3691000000,-6.04917,-618.98651
3692000000,-6.0617485,-618.93958
3693000000,-6.0065403,-619.54596
3694000000,-5.9767609,-619.612
3695000000,-6.0198212,-619.72839
3696000000,-6.0022802,-619.99969
3697000000,-5.9899583,-620.1015
3698000000,-6.0294213,-620.15045
3699000000,-6.0075345,-620.31097
3700000000,-5.9723582,-620.5979
3701000000,-6.0135312,-620.72485
3702000000,-6.0031171,-620.89581
3703000000,-5.9813242,-621.10382
3704000000,-5.9874086,-621.45483
3705000000,-5.9905462,-621.35992
3706000000,-5.9780116,-621.51349
3707000000,-5.9672418,-621.92859
3708000000,-5.972168,-622.09247
3709000000,-5.9514689,-622.24438
3710000000,-5.9619117,-622.315
3711000000,-5.9401326,-622.45215
3712000000,-5.9533353,-622.72925
3713000000,-5.9334607,-623.02905
3714000000,-5.9440403,-623.06207
3715000000,-5.9022803,-623.45282
3716000000,-5.9244428,-623.44604
3717000000,-5.8959332,-623.59143
3718000000,-5.8975821,-623.89026
3719000000,-5.8935547,-623.99359
3720000000,-5.9067569,-624.26624
3721000000,-5.9155173,-624.41003
3722000000,-5.9162807,-624.64886
3723000000,-5.913403,-624.70422
3724000000,-5.883523,-624.93677
3725000000,-5.8787484,-625.04321
3726000000,-5.8891535,-625.33698
3727000000,-5.8989463,-625.37811
3728000000,-5.8755736,-625.78778
3729000000,-5.8833904,-625.82007
3730000000,-5.8430867,-625.89069
3731000000,-5.8434787,-626.23572
3732000000,-5.877295,-626.56738
3733000000,-5.8572888,-626.53851
3734000000,-5.8546157,-626.7652
3735000000,-5.8641582,-626.82874
3736000000,-5.8611569,-627.20807
3737000000,-5.8529925,-627.33417
3738000000,-5.8478975,-627.4964
3739000000,-5.8246064,-627.51306
3740000000,-5.8362489,-627.74231
3741000000,-5.8223076,-628.04517
3742000000,-5.8330364,-628.14728
3743000000,-5.8145394,-628.31549
3744000000,-5.834291,-628.6933
3745000000,-5.8132925,-628.7713
3746000000,-5.8086472,-628.98248
3747000000,-5.7921395,-629.0108
3748000000,-5.8235102,-629.38257
3749000000,-5.8067794,-629.3645
3750000000,-5.8004332,-629.81689
3751000000,-5.8115692,-629.62408
3752000000,-5.7970471,-630.1228
3753000000,-5.7605901,-630.03064
3754000000,-5.8013153,-630.25385
3755000000,-5.7887011,-630.51532
3756000000,-5.7808661,-630.70917
3757000000,-5.7963142,-630.76642
3758000000,-5.8083358,-631.1424
3759000000,-5.7619395,-631.21625
3760000000,-5.7847223,-631.43695
3761000000,-5.7996111,-631.46375
3762000000,-5.7879276,-631.90991
3763000000,-5.7577038,-631.98206
3764000000,-5.7606039,-632.19983
3765000000,-5.7423992,-632.22144
3766000000,-5.7762389,-632.48529
3767000000,-5.7478046,-632.58899
3768000000,-5.7184143,-632.89368
3769000000,-5.764338,-632.97107
3770000000,-5.7532921,-633.16302
3771000000,-5.7503066,-633.39691
3772000000,-5.7404604,-633.487
3773000000,-5.73383,-633.58026
3774000000,-5.7524619,-633.74976
3775000000,-5.7638645,-634.04285
3776000000,-5.7327189,-634.32007
3777000000,-5.7034755,-634.35706
3778000000,-5.7421885,-634.77173
3779000000,-5.7238746,-634.78326
3780000000,-5.7311769,-634.90326
3781000000,-5.7538147,-635.22296
3782000000,-5.7443585,-635.18457
3783000000,-5.7527094,-635.54102
3784000000,-5.7274394,-635.49597
3785000000,-5.7116442,-635.82013
3786000000,-5.6910195,-635.94525
3787000000,-5.6980171,-635.96838
3788000000,-5.706275,-636.26813
3789000000,-5.6988297,-636.49188
3790000000,-5.7254229,-636.47345
3791000000,-5.7084785,-636.79675
3792000000,-5.7134194,-637.00787
3793000000,-5.7422442,-637.08307
3794000000,-5.7109346,-637.23438
3795000000,-5.7267466,-637.42346
3796000000,-5.7062268,-637.68451
3797000000,-5.7079482,-637.52899
3798000000,-5.6935649,-637.87714
3799000000,-5.6695833,-638.17487
3800000000,-5.6933408,-638.22705
3801000000,-5.6569438,-638.43005
3802000000,-5.7014794,-638.60504
3803000000,-5.6980281,-638.88953
3804000000,-5.665431,-638.91272
3805000000,-5.7124696,-639.03107
3806000000,-5.6761203,-639.19696
3807000000,-5.6886363,-639.44659
3808000000,-5.6692576,-639.75397
3809000000,-5.7041469,-639.92255
3810000000,-5.6620021,-640.06805
3811000000,-5.6739259,-640.15698
3812000000,-5.6516881,-640.25488
3813000000,-5.6959848,-640.29132
3814000000,-5.6517329,-640.77979
3815000000,-5.6542616,-640.56403
3816000000,-5.664619,-640.99316
3817000000,-5.6645932,-641.33496
3818000000,-5.6965404,-641.27606
3819000000,-5.6588111,-641.42188
3820000000,-5.654036,-641.6358
3821000000,-5.6491489,-641.89539
3822000000,-5.6518755,-641.85815
3823000000,-5.6777849,-642.07935
3824000000,-5.6478305,-642.21136
3825000000,-5.6618981,-642.38507
3826000000,-5.6570225,-642.75696
3827000000,-5.6645374,-642.83429
3828000000,-5.6460657,-642.86877
3829000000,-5.6599631,-643.02686
3830000000,-5.6593747,-643.25854
3831000000,-5.6694236,-643.5448
3832000000,-5.6531978,-643.58356
3833000000,-5.6620688,-643.60504
3834000000,-5.6403451,-643.85541
3835000000,-5.6507187,-644.0545
3836000000,-5.6580963,-644.14758
3837000000,-5.6587601,-644.3606
3838000000,-5.6407375,-644.58411
3839000000,-5.655139,-644.73584
3840000000,-5.6283579,-644.84882
3841000000,-5.6534314,-645.28717
3842000000,-5.6628733,-645.28625
3843000000,-5.6518459,-645.46362
3844000000,-5.6433058,-645.46466
3845000000,-5.6646037,-645.73523
3846000000,-5.6195912,-645.96313
3847000000,-5.6386876,-646.14386
3848000000,-5.6316037,-646.20795
3849000000,-5.6212101,-646.54181
3850000000,-5.6633978,-646.45026
3851000000,-5.6670933,-646.43665
3852000000,-5.6168737,-646.83832
3853000000,-5.6526237,-647.10254
3854000000,-5.6839981,-647.24738
3855000000,-5.6294646,-647.2182
3856000000,-5.6550288,-647.46173
3857000000,-5.6628633,-647.54968
3858000000,-5.6616726,-647.92816
3859000000,-5.6389632,-648.03894
3860000000,-5.6409674,-648.10779
3861000000,-5.6616278,-648.24219
3862000000,-5.6797929,-648.57196
3863000000,-5.6312256,-648.61804
3864000000,-5.65798,-648.79272
3865000000,-5.669219,-648.87683
3866000000,-5.6151285,-648.97565
3867000000,-5.6297884,-649.23669
3868000000,-5.6582131,-649.52911
3869000000,-5.6344585,-649.745
3870000000,-5.6324339,-649.57709
3871000000,-5.6604457,-649.875
3872000000,-5.6638494,-649.96118
3873000000,-5.664465,-650.03046
3874000000,-5.6609259,-650.3349
3875000000,-5.668169,-650.60107
3876000000,-5.6341891,-650.68311
3877000000,-5.6421103,-650.68109
3878000000,-5.693284,-650.92865
3879000000,-5.657568,-651.08325
3880000000,-5.6490107,-651.29077
3881000000,-5.6841769,-651.42395
3882000000,-5.6469312,-651.66364
3883000000,-5.656321,-651.7525
3884000000,-5.6617389,-651.89661
3885000000,-5.6369891,-652.15265
3886000000,-5.6680737,-652.24115
3887000000,-5.6708865,-652.30133
3888000000,-5.6138144,-652.43518
3889000000,-5.6630058,-652.84003
3890000000,-5.6359191,-652.6861
3891000000,-5.6596093,-652.99646
3892000000,-5.6600165,-653.1748
3893000000,-5.6312609,-653.28448
3894000000,-5.6219459,-653.42664
3895000000,-5.669683,-653.61182
3896000000,-5.663456,-653.73218
3897000000,-5.6628695,-653.8526
3898000000,-5.6609163,-653.89209
3899000000,-5.6559167,-654.3692
3900000000,-5.6817002,-654.508
3901000000,-5.6664333,-654.40692
3902000000,-5.6775727,-654.62299
3903000000,-5.6910548,-654.82098
3904000000,-5.6649947,-654.9577
3905000000,-5.6666784,-655.10144
3906000000,-5.6684608,-655.06903
3907000000,-5.6826248,-655.29187
3908000000,-5.6699781,-655.44336
3909000000,-5.6650968,-655.54993
3910000000,-5.6596746,-655.88507
3911000000,-5.667881,-656.01758
3912000000,-5.6664057,-656.0838
3913000000,-5.6672931,-656.31433
3914000000,-5.6722641,-656.44055
3915000000,-5.6658545,-656.72443
3916000000,-5.6813965,-656.70618
3917000000,-5.6462464,-656.83643
3918000000,-5.688899,-656.85724
3919000000,-5.6842809,-657.06549
3920000000,-5.6877561,-657.43597
3921000000,-5.6654129,-657.54077
3922000000,-5.6831241,-657.41571
3923000000,-5.6767349,-657.75031
3924000000,-5.6820402,-657.93213
3925000000,-5.6728907,-657.93152
3926000000,-5.6748247,-658.29297
3927000000,-5.6749234,-658.27679
3928000000,-5.6679673,-658.43365
3929000000,-5.7047033,-658.70447
3930000000,-5.6825752,-658.74237
3931000000,-5.6827569,-658.86835
3932000000,-5.6853075,-659.14795
3933000000,-5.6611557,-659.23431
3934000000,-5.6981282,-659.41461
3935000000,-5.7008252,-659.50317
3936000000,-5.6848998,-659.53503
3937000000,-5.6912298,-659.86554
3938000000,-5.6826339,-660.03662
3939000000,-5.6902962,-660.20404
3940000000,-5.6937103,-660.31189
3941000000,-5.6883106,-660.36743
3942000000,-5.7031665,-660.56744
3943000000,-5.6860619,-660.68463
3944000000,-5.6802249,-660.87634
3945000000,-5.6804309,-661.10858
3946000000,-5.6944685,-661.2666
3947000000,-5.7015977,-661.06671
3948000000,-5.6910868,-661.53406
3949000000,-5.685257,-661.65472
3950000000,-5.6956882,-661.62549
3951000000,-5.6996431,-661.89777
3952000000,-5.7029686,-661.91571
3953000000,-5.7004881,-662.02087
3954000000,-5.7182527,-662.3064
3955000000,-5.6978574,-662.44183
3956000000,-5.6863556,-662.52246
3957000000,-5.7046599,-662.69318
3958000000,-5.7057943,-662.79352
3959000000,-5.6989608,-662.95343
3960000000,-5.7287078,-663.17041
3961000000,-5.7102203,-663.37274
3962000000,-5.7150059,-663.35706
3963000000,-5.6891098,-663.57996
3964000000,-5.7169266,-663.85114
3965000000,-5.7019339,-663.91278
3966000000,-5.7074165,-664.05151
3967000000,-5.7111611,-663.91284
3968000000,-5.7170062,-664.23712
3969000000,-5.7429452,-664.20782
3970000000,-5.7341032,-664.53656
3971000000,-5.7013083,-664.62665
3972000000,-5.736176,-664.91553
3973000000,-5.7372928,-664.98651
3974000000,-5.6958585,-665.0899
3975000000,-5.7276063,-665.29663
3976000000,-5.7450614,-665.41895
3977000000,-5.7222004,-665.57037
3978000000,-5.7178531,-665.60278
3979000000,-5.7158532,-665.80768
3980000000,-5.7397928,-665.91583
3981000000,-5.7659063,-666.25098
3982000000,-5.7292309,-666.24432
3983000000,-5.7560043,-666.33868
3984000000,-5.7437859,-666.27393
3985000000,-5.7266002,-666.72235
3986000000,-5.7272477,-666.77258
3987000000,-5.713614,-666.97949
3988000000,-5.7788715,-666.9848
3989000000,-5.7263827,-667.24237
3990000000,-5.7296243,-667.36224
3991000000,-5.7664065,-667.46216
3992000000,-5.75212,-667.58691
3993000000,-5.7664905,-667.86224
3994000000,-5.7653193,-667.88287
3995000000,-5.7409015,-667.94934
3996000000,-5.7671642,-668.14264
3997000000,-5.7509837,-668.36377
3998000000,-5.7572856,-668.52838
3999000000,-5.7669654,-668.70898
4000000000,-5.7595177,-668.84515
4001000000,-5.7523742,-668.77643
4002000000,-5.7434039,-669.12177
4003000000,-5.7947555,-668.80573
4004000000,-5.7722778,-669.18854
4005000000,-5.7595105,-669.25458
4006000000,-5.7795587,-669.59277
4007000000,-5.7716365,-669.61212
4008000000,-5.7682056,-669.73297
4009000000,-5.7906818,-669.98834
4010000000,-5.778111,-670.10773
4011000000,-5.7754936,-670.36957
4012000000,-5.7753611,-670.25049
4013000000,-5.781949,-670.33447
4014000000,-5.7902498,-670.50287
4015000000,-5.7786593,-670.81689
4016000000,-5.7608638,-670.97882
4017000000,-5.7981625,-671.04883
4018000000,-5.7878361,-671.03308
4019000000,-5.7903843,-671.25195
4020000000,-5.7989922,-671.3031
4021000000,-5.7711663,-671.61267
4022000000,-5.7805023,-671.6554
4023000000,-5.7648497,-671.88776
4024000000,-5.7960029,-671.82721
4025000000,-5.785635,-671.98016
4026000000,-5.7794824,-672.14362
4027000000,-5.7762151,-672.31274
4028000000,-5.8194733,-672.48651
4029000000,-5.8103447,-672.62805
4030000000,-5.797348,-672.88361
4031000000,-5.7808027,-672.90076
4032000000,-5.7932792,-673.05933
4033000000,-5.8013134,-673.12671
4034000000,-5.792695,-673.31342
4035000000,-5.8210621,-673.31976
4036000000,-5.8103781,-673.47632
4037000000,-5.8303585,-673.51965
4038000000,-5.8090606,-673.71606
4039000000,-5.8350239,-674.01794
4040000000,-5.8125277,-674.07458
4041000000,-5.8358059,-674.33319
4042000000,-5.8202286,-674.32013
4043000000,-5.8337445,-674.48016
4044000000,-5.8213263,-674.74158
4045000000,-5.8126574,-674.73999
4046000000,-5.8304105,-674.76233
4047000000,-5.8122749,-674.89709
4048000000,-5.8319502,-675.14319
4049000000,-5.8188906,-675.00604
4050000000,-5.8284492,-675.36267
4051000000,-5.8214312,-675.5072
4052000000,-5.8172121,-675.6701
4053000000,-5.8252735,-675.74298
4054000000,-5.843101,-675.89343
4055000000,-5.8434844,-675.97015
4056000000,-5.8252087,-676.32996
4057000000,-5.8241448,-676.13263
4058000000,-5.8564277,-676.4151
4059000000,-5.8401313,-676.60272
4060000000,-5.8539572,-676.53076
4061000000,-5.8369708,-676.76184
4062000000,-5.840868,-676.89087
4063000000,-5.8276343,-677.01801
4064000000,-5.8389854,-677.0553
4065000000,-5.8544402,-677.28326
4066000000,-5.8749609,-677.5188
4067000000,-5.8342085,-677.61371
4068000000,-5.8474941,-677.5777
4069000000,-5.8784289,-678.01221
4070000000,-5.8379664,-677.93262
4071000000,-5.8806205,-678.10449
4072000000,-5.8877378,-678.23016
4073000000,-5.870625,-678.31543
4074000000,-5.8820686,-678.50183
4075000000,-5.8573608,-678.64539
4076000000,-5.8806009,-678.67059
4077000000,-5.8621888,-678.91351
4078000000,-5.8619537,-678.94257
4079000000,-5.8699198,-679.03589
4080000000,-5.8591633,-679.36627
4081000000,-5.8764105,-679.22455
4082000000,-5.8797832,-679.54755
4083000000,-5.8602171,-679.56537
4084000000,-5.8554864,-679.69244
4085000000,-5.8523726,-679.77795
4086000000,-5.8445878,-680.01904
4087000000,-5.8975673,-680.11658
4088000000,-5.8919058,-680.3493
4089000000,-5.9121304,-680.41119
4090000000,-5.876678,-680.57019
4091000000,-5.8787904,-680.72052
4092000000,-5.8847823,-680.7337
4093000000,-5.8959947,-681.00464
4094000000,-5.8973684,-681.01825
4095000000,-5.9014478,-681.27393
4096000000,-5.9116931,-681.02728
4097000000,-5.9096155,-681.42883
4098000000,-5.9179873,-681.51782
4099000000,-5.9085436,-681.80328
4100000000,-5.8961306,-681.75885
4101000000,-5.8965607,-681.74915
4102000000,-5.8961477,-681.91724
4103000000,-5.9272237,-682.09039
4104000000,-5.8910761,-682.24866
4105000000,-5.9095531,-682.43011
4106000000,-5.9145355,-682.63434
4107000000,-5.9283342,-682.67841
4108000000,-5.9265132,-682.81128
4109000000,-5.8915911,-683.01868
4110000000,-5.8930898,-682.88556
4111000000,-5.8999462,-683.03595
4112000000,-5.902391,-683.13342
4113000000,-5.9344616,-683.21588
4114000000,-5.9242773,-683.29321
4115000000,-5.8873882,-683.57153
4116000000,-5.9313693,-683.70032
4117000000,-5.9343748,-683.97272
4118000000,-5.9436994,-683.99481
4119000000,-5.9170361,-684.10065
4120000000,-5.9137406,-684.1814
4121000000,-5.9147463,-684.52997
4122000000,-5.8854113,-684.52899
4123000000,-5.9284401,-684.70917
4124000000,-5.9100418,-684.6297
4125000000,-5.9366422,-684.81506
4126000000,-5.9050908,-684.80359
4127000000,-5.9354315,-685.03552
4128000000,-5.9394717,-685.15533
4129000000,-5.9334097,-685.40454
4130000000,-5.9438744,-685.61377
4131000000,-5.909348,-685.58301
4132000000,-5.9300752,-685.91675
4133000000,-5.9506669,-685.89667
4134000000,-5.9131064,-685.87347
4135000000,-5.9109325,-685.98517
4136000000,-5.9480419,-686.15826
4137000000,-5.9304996,-686.19684
4138000000,-5.9716625,-686.43597
4139000000,-5.9569063,-686.59344
4140000000,-5.9651651,-686.69983
4141000000,-5.9139771,-686.71393
4142000000,-5.9734855,-686.78442
4143000000,-5.9471273,-686.98578
4144000000,-5.9570112,-687.1228
4145000000,-5.9231658,-687.41571
4146000000,-5.9322109,-687.47852
4147000000,-5.9417233,-687.5686
4148000000,-5.9509835,-687.59833
4149000000,-5.9409051,-687.63263
4150000000,-5.9767323,-687.88361
4151000000,-5.9658384,-688.13977
4152000000,-5.9680452,-688.13306
4153000000,-5.9583864,-688.28577
4154000000,-5.9929328,-688.40131
4155000000,-5.9664755,-688.46478
4156000000,-5.9606571,-688.5799
4157000000,-5.9555383,-688.75952
4158000000,-5.9827232,-688.94476
4159000000,-5.9670315,-688.94751
4160000000,-5.9741149,-689.21381
4161000000,-5.9947701,-689.14172
4162000000,-5.9852252,-689.33136
4163000000,-5.9732528,-689.34161
4164000000,-5.9711752,-689.37451
4165000000,-5.9573493,-689.61438
4166000000,-5.9754729,-689.90234
4167000000,-5.9789815,-689.8197
4168000000,-5.9695616,-689.96356
4169000000,-5.9687614,-690.00421
4170000000,-5.9706755,-690.36145
4171000000,-5.9839954,-690.2536
4172000000,-5.971384,-690.42377
4173000000,-5.9636579,-690.58954
4174000000,-5.9717112,-690.73401
4175000000,-5.9879513,-690.7865
4176000000,-5.9753642,-690.89606
4177000000,-5.9695091,-691.07434
4178000000,-5.9930053,-691.08038
4179000000,-5.9564743,-691.4541
4180000000,-5.9830422,-691.47296
4181000000,-5.9874759,-691.53674
4182000000,-5.9507413,-691.58691
4183000000,-5.9989362,-691.72357
4184000000,-6.0149512,-692.07062
4185000000,-5.9820151,-691.98859
4186000000,-5.9948797,-692.03351
4187000000,-6.0047607,-692.47827
4188000000,-5.9830585,-692.32544
4189000000,-5.9768972,-692.44391
4190000000,-6.0097408,-692.67639
4191000000,-5.9774795,-692.75702
4192000000,-5.9985342,-692.84149
4193000000,-5.9831042,-692.92633
4194000000,-6.0140882,-692.98706
4195000000,-6.0114951,-693.24463
4196000000,-5.9833417,-693.328
4197000000,-5.9864187,-693.36511
4198000000,-5.9989524,-693.59686
4199000000,-6.0142012,-693.74176
4200000000,-6.0161119,-693.75433
4201000000,-6.0148454,-693.95605
4202000000,-6.0103436,-693.99512
4203000000,-6.0105934,-694.15424
4204000000,-5.9827056,-694.37012
4205000000,-6.0052781,-694.48517
4206000000,-6.040206,-694.43378
4207000000,-6.0273018,-694.65387
4208000000,-6.0362163,-694.6142
4209000000,-6.0122781,-694.96014
4210000000,-5.9906464,-694.94708
4211000000,-6.0235496,-694.96155
4212000000,-6.0004959,-695.26624
4213000000,-6.0150876,-695.36273
4214000000,-6.0158367,-695.25653
4215000000,-6.0225797,-695.55896
4216000000,-6.0044055,-695.64465
4217000000,-6.0323153,-695.7749
4218000000,-6.0163708,-695.80573
4219000000,-6.0042367,-695.86816
4220000000,-6.0370364,-696.13513
4221000000,-6.0160298,-696.17603
4222000000,-6.0175686,-696.26593
4223000000,-6.0134664,-696.56299
4224000000,-6.0156593,-696.60803
4225000000,-6.0142069,-696.84711
4226000000,-6.0135617,-696.81909
4227000000,-6.0289207,-696.96857
4228000000,-6.0355563,-697.09808
4229000000,-6.0427246,-697.22064
4230000000,-6.0406542,-697.31537
4231000000,-6.0210729,-697.38416
4232000000,-6.0104556,-697.46759
4233000000,-6.0273776,-697.71759
4234000000,-6.0275931,-697.84839
4235000000,-6.0361276,-697.94989
4236000000,-6.0466862,-697.79688
4237000000,-6.0330281,-698.13245
4238000000,-6.0537806,-698.19684
4239000000,-6.0237255,-698.4292
4240000000,-6.0230074,-698.20966
4241000000,-6.0212154,-698.55048
4242000000,-6.0635676,-698.71912
4243000000,-6.0595331,-698.75104
4244000000,-6.0381198,-699.0033
4245000000,-6.0509677,-699.18835
4246000000,-6.0421762,-699.14355
4247000000,-6.0362911,-699.30548
4248000000,-6.0534043,-699.3891
4249000000,-6.0340242,-699.49121
4250000000,-6.0409665,-699.49078
4251000000,-6.0184288,-699.63708
4252000000,-6.0603757,-699.91083
4253000000,-6.0703087,-699.94098
4254000000,-6.0275207,-700.01685
4255000000,-6.0532513,-700.08832
4256000000,-6.0345893,-700.30981
4257000000,-6.0460138,-700.37543
4258000000,-6.0333924,-700.41821
4259000000,-6.0546603,-700.77179
4260000000,-6.0574951,-700.79492
4261000000,-6.0661335,-700.67566
4262000000,-6.0561881,-700.75195
4263000000,-6.0386543,-700.95007
4264000000,-6.0377092,-701.26086
4265000000,-6.0577374,-701.18933
4266000000,-6.0461617,-701.31732
4267000000,-6.0601115,-701.4765
4268000000,-6.0821242,-701.6991
4269000000,-6.0335617,-701.80652
4270000000,-6.0699625,-701.86823
4271000000,-6.0566258,-702.11023
4272000000,-6.0627265,-702.07294
4273000000,-6.0349016,-702.39667
4274000000,-6.0722666,-702.20081
4275000000,-6.0508332,-702.35492
4276000000,-6.0509648,-702.51862
4277000000,-6.0797501,-702.78259
4278000000,-6.0744743,-702.75708
4279000000,-6.0364714,-702.82336
4280000000,-6.0480647,-703.13306
4281000000,-6.059279,-703.1665
4282000000,-6.0571942,-703.26501
4283000000,-6.0685635,-703.18573
4284000000,-6.0466866,-703.6828
4285000000,-6.0623264,-703.7157
4286000000,-6.0587831,-703.70746
4287000000,-6.0975447,-703.61566
4288000000,-6.0777874,-703.81055
4289000000,-6.0643787,-704.05511
4290000000,-6.0808492,-704.23608
4291000000,-6.0774679,-704.16144
4292000000,-6.0614586,-704.36957
4293000000,-6.0835853,-704.64447
4294000000,-6.0789943,-704.50879
4295000000,-6.0505128,-704.7077
4296000000,-6.0767307,-704.8291
4297000000,-6.0669947,-705.05109
4298000000,-6.0639644,-705.07935
4299000000,-6.0662937,-705.27008
4300000000,-6.0741916,-705.25818
4301000000,-6.0802255,-705.367
4302000000,-6.0980158,-705.48956
4303000000,-6.0600481,-705.56049
4304000000,-6.0977149,-705.8067
4305000000,-6.0963812,-705.96558
4306000000,-6.0885205,-705.98541
4307000000,-6.0804119,-706.01208
4308000000,-6.069757,-706.09265
4309000000,-6.0682077,-706.38348
4310000000,-6.0743275,-706.34406
4311000000,-6.0888891,-706.45544
4312000000,-6.0898542,-706.5459
4313000000,-6.0985146,-706.69397
4314000000,-6.0824466,-706.86694
4315000000,-6.1012897,-707.11578
4316000000,-6.0620894,-706.88745
4317000000,-6.1077313,-707.2312
4318000000,-6.0768714,-707.22382
4319000000,-6.098835,-707.46002
4320000000,-6.085875,-707.39551
4321000000,-6.0661349,-707.75604
4322000000,-6.0907154,-708.09387
4323000000,-6.0833831,-707.92224
4324000000,-6.0760021,-708.05695
4325000000,-6.0963268,-707.98053
4326000000,-6.0900502,-708.14136
4327000000,-6.0922027,-708.31958
4328000000,-6.0885372,-708.36133
4329000000,-6.1281266,-708.65723
4330000000,-6.1122179,-708.46509
4331000000,-6.0793185,-708.67645
4332000000,-6.1117611,-709.07745
4333000000,-6.0909419,-708.90942
4334000000,-6.0796814,-709.13293
4335000000,-6.0786018,-709.25793
4336000000,-6.0959849,-709.31604
4337000000,-6.095006,-709.36676
4338000000,-6.1033702,-709.61523
4339000000,-6.0999856,-709.53943
4340000000,-6.0893006,-709.73987
4341000000,-6.0816512,-709.79767
4342000000,-6.0674701,-709.82373
4343000000,-6.0612068,-710.18048
4344000000,-6.114265,-710.12909
4345000000,-6.1241856,-710.29034
4346000000,-6.1064377,-710.41669
4347000000,-6.1034579,-710.46936
4348000000,-6.1045365,-710.76233
4349000000,-6.0669169,-710.75995
4350000000,-6.0890856,-710.64154
4351000000,-6.0948968,-711.03046
4352000000,-6.0985985,-711.12
4353000000,-6.0870466,-711.06305
4354000000,-6.1093025,-711.31671
4355000000,-6.0783339,-711.52533
4356000000,-6.0808868,-711.59308
4357000000,-6.0870061,-711.60364
4358000000,-6.1147366,-711.88959
4359000000,-6.0962,-711.81744
4360000000,-6.103435,-711.78845
4361000000,-6.1045833,-712.0116
4362000000,-6.118432,-712.13281
4363000000,-6.1049862,-712.3479
4364000000,-6.1004658,-712.45648
4365000000,-6.096993,-712.57629
4366000000,-6.0726957,-712.58521
4367000000,-6.1002512,-712.67328
4368000000,-6.0771656,-712.84515
4369000000,-6.0894194,-713.02753
4370000000,-6.1072736,-713.08374
4371000000,-6.1135182,-713.27264
4372000000,-6.1278148,-713.35931
4373000000,-6.0963707,-713.49542
4374000000,-6.081212,-713.43567
4375000000,-6.1025677,-713.72076
4376000000,-6.1005807,-713.7486
4377000000,-6.1060853,-713.93073
4378000000,-6.1292701,-713.95337
4379000000,-6.1104717,-714.17505
4380000000,-6.1065607,-714.26355
4381000000,-6.1112232,-714.23889
4382000000,-6.0855169,-714.40796
4383000000,-6.0793204,-714.62592
4384000000,-6.0862012,-714.63556
4385000000,-6.1073928,-714.85516
4386000000,-6.1001496,-714.75629
4387000000,-6.1076756,-715.06982
4388000000,-6.1072822,-714.8924
4389000000,-6.1067443,-715.08289
4390000000,-6.0950704,-715.19397
4391000000,-6.1032715,-715.21729
4392000000,-6.0897837,-715.56604
4393000000,-6.084959,-715.53644
4394000000,-6.09655,-715.79669
4395000000,-6.1205072,-715.83319
4396000000,-6.1108356,-715.8667
4397000000,-6.0866923,-715.95453
4398000000,-6.1128721,-716.17999
4399000000,-6.0888062,-716.31494
4400000000,-6.0909257,-716.30402
4401000000,-6.0827909,-716.35083
4402000000,-6.1182704,-716.4834
4403000000,-6.1078019,-716.7887
4404000000,-6.1085076,-716.76758
4405000000,-6.0982013,-716.7373
4406000000,-6.1148753,-717.11023
4407000000,-6.0907869,-717.24634
4408000000,-6.0750961,-717.29004
4409000000,-6.0895638,-717.4325
4410000000,-6.0937667,-717.36261
4411000000,-6.1115618,-717.77692
4412000000,-6.0952201,-717.79865
4413000000,-6.1087394,-718.07983
4414000000,-6.0693407,-718.10913
4415000000,-6.0929422,-717.93353
4416000000,-6.0942745,-718.11725
4417000000,-6.1151981,-718.32019
4418000000,-6.0986047,-718.42151
4419000000,-6.1145244,-718.49158
4420000000,-6.0855379,-718.7038
4421000000,-6.1209178,-718.71979
4422000000,-6.1056252,-718.8197
4423000000,-6.1278019,-718.83893
4424000000,-6.1029949,-719.06848
4425000000,-6.0957818,-719.22253
4426000000,-6.0971608,-719.25623
4427000000,-6.1272869,-719.44623
4428000000,-6.0993247,-719.3205
4429000000,-6.1099324,-719.61298
4430000000,-6.0941825,-719.59973
4431000000,-6.1029491,-719.72327
4432000000,-6.126708,-719.82294
4433000000,-6.0725241,-719.9162
4434000000,-6.0944109,-720.15387
4435000000,-6.1072917,-720.24493
4436000000,-6.1097841,-720.29944
4437000000,-6.104692,-720.36121
4438000000,-6.083137,-720.53271
4439000000,-6.1051555,-720.58453
4440000000,-6.0866442,-720.7605
4441000000,-6.0743394,-720.9339
4442000000,-6.1220832,-721.1405
4443000000,-6.1068888,-721.02216
4444000000,-6.1163263,-721.17664
4445000000,-6.0807705,-721.23419
4446000000,-6.1206841,-721.53729
4447000000,-6.0992742,-721.56024
4448000000,-6.0977697,-721.86536
4449000000,-6.0965734,-721.7796
4450000000,-6.0730262,-721.8999
4451000000,-6.1051002,-721.88983
4452000000,-6.097887,-722.0025
4453000000,-6.1073451,-722.38464
4454000000,-6.084712,-722.35559
4455000000,-6.0900679,-722.37634
4456000000,-6.0662303,-722.41608
4457000000,-6.0994253,-722.74261
4458000000,-6.1028075,-722.50604
4459000000,-6.0967722,-722.88538
4460000000,-6.0644088,-723.07111
4461000000,-6.0992422,-722.88788
4462000000,-6.0898833,-723.12335
4463000000,-6.0462313,-723.29987
4464000000,-6.0905514,-723.46118
4465000000,-6.0749135,-723.41138
4466000000,-6.1061382,-723.75977
4467000000,-6.1048298,-723.75201
4468000000,-6.0922565,-723.88007
4469000000,-6.0705509,-723.80219
4470000000,-6.0822163,-724.11798
4471000000,-6.0851593,-724.20502
4472000000,-6.0939355,-724.37463
4473000000,-6.075994,-724.40741
4474000000,-6.0870924,-724.51605
4475000000,-6.0986695,-724.73303
4476000000,-6.0746875,-724.82745
4477000000,-6.0789595,-724.86694
4478000000,-6.0918469,-725.07928
4479000000,-6.1033707,-725.0097
4480000000,-6.0955195,-725.33331
4481000000,-6.0957141,-725.37903
4482000000,-6.0879402,-725.32068
4483000000,-6.1068988,-725.37817
4484000000,-6.0875502,-725.42902
4485000000,-6.1008825,-725.72296
4486000000,-6.1077256,-725.87
4487000000,-6.0875473,-725.85626
4488000000,-6.1166458,-726.12415
4489000000,-6.0783181,-726.20563
4490000000,-6.0608697,-726.17975
4491000000,-6.050005,-726.53308
4492000000,-6.0371132,-726.50574
4493000000,-6.0770187,-726.72412
4494000000,-6.0720592,-726.75397
4495000000,-6.093801,-726.64886
4496000000,-6.0596566,-727.04382
4497000000,-6.073482,-727.05566
4498000000,-6.0683212,-727.13129
4499000000,-6.0703025,-727.28723
4500000000,-6.08989,-727.4566
4501000000,-6.0733609,-727.49591
4502000000,-6.0565319,-727.6438
4503000000,-6.0779343,-727.71021
4504000000,-6.1047068,-727.84918
4505000000,-6.0891566,-727.9317
4506000000,-6.0664654,-728.19397
4507000000,-6.104341,-728.34235
4508000000,-6.0811033,-728.25092
4509000000,-6.0716147,-728.31677
4510000000,-6.063735,-728.47083
4511000000,-6.0855527,-728.633
4512000000,-6.0737238,-728.85138
4513000000,-6.0708756,-728.86139
4514000000,-6.0852079,-729.14618
4515000000,-6.0806689,-729.09674
4516000000,-6.0529871,-729.43378
4517000000,-6.0703878,-729.35229
4518000000,-6.0951419,-729.2453
4519000000,-6.0733061,-729.56207
4520000000,-6.0717111,-729.43518
4521000000,-6.1039419,-729.77991
4522000000,-6.0652595,-729.8678
4523000000,-6.0677505,-730.01105
4524000000,-6.075995,-730.01532
4525000000,-6.0587888,-730.10742
4526000000,-6.0993371,-730.13031
4527000000,-6.067441,-730.26538
4528000000,-6.0602551,-730.48511
4529000000,-6.0745893,-730.64838
4530000000,-6.0508666,-730.66992
4531000000,-6.0837121,-730.91113
4532000000,-6.0780573,-730.83008
4533000000,-6.0545211,-730.99158
4534000000,-6.0678911,-731.23615
4535000000,-6.0712533,-731.23853
4536000000,-6.0577483,-731.37946
4537000000,-6.065177,-731.58362
4538000000,-6.0693793,-731.67444
4539000000,-6.0966454,-731.72345
4540000000,-6.0320721,-731.8299
4541000000,-6.0481162,-732.00671
4542000000,-6.0849509,-732.08075
4543000000,-6.0554624,-732.1814
4544000000,-6.061204,-732.44141
4545000000,-6.0875072,-732.44507
4546000000,-6.0751896,-732.50818
4547000000,-6.0525346,-732.6676
4548000000,-6.0656209,-732.6026
4549000000,-6.0815454,-732.96979
4550000000,-6.0419269,-732.91821
4551000000,-6.0361824,-733.06976
4552000000,-6.0741806,-733.21594
4553000000,-6.0487323,-733.28021
4554000000,-6.0726347,-733.51782
4555000000,-6.0587049,-733.52649
4556000000,-6.0540128,-733.54663
4557000000,-6.0583048,-733.68365
4558000000,-6.0369692,-733.90094
4559000000,-6.0636973,-733.93005
4560000000,-6.0605669,-734.21918
4561000000,-6.0642834,-734.27869
4562000000,-6.0473585,-734.34088
4563000000,-6.0556211,-734.41486
4564000000,-6.0583835,-734.42151
4565000000,-6.0636907,-734.49219
4566000000,-6.0670419,-734.6604
4567000000,-6.0486326,-734.76105
4568000000,-6.0376582,-734.85864
4569000000,-6.0768523,-735.13159
4570000000,-6.0739379,-735.11121
4571000000,-6.0491047,-735.30121
4572000000,-6.0576487,-735.38312
4573000000,-6.0549712,-735.56305
4574000000,-6.0519376,-735.43585
4575000000,-6.0491266,-735.76782
4576000000,-6.045835,-735.79578
4577000000,-6.0572562,-735.94446
4578000000,-6.0498753,-735.94849
4579000000,-6.0587311,-736.22858
4580000000,-6.0547042,-736.3017
4581000000,-6.0589972,-736.51031
4582000000,-6.0734649,-736.46167
4583000000,-6.0392199,-736.60638
4584000000,-6.0348258,-736.8476
4585000000,-6.0431261,-736.64868
4586000000,-6.0516915,-736.974
4587000000,-6.0524459,-737.10333
4588000000,-6.0318375,-737.09302
4589000000,-6.0434289,-737.31207
4590000000,-6.0282774,-737.27222
4591000000,-6.0533242,-737.49921
4592000000,-6.0399404,-737.51929
4593000000,-6.0420661,-737.80676
4594000000,-6.0383635,-737.75702
4595000000,-6.024694,-737.88019
4596000000,-6.0358758,-737.99817
4597000000,-6.0651026,-738.11139
4598000000,-6.0143828,-738.24969
4599000000,-6.0464158,-738.35791
4600000000,-6.0352759,-738.4469
4601000000,-6.0571074,-738.48993
4602000000,-6.028542,-738.61053
4603000000,-6.0178041,-738.82709
4604000000,-6.0358405,-738.95654
4605000000,-6.0318151,-739.01935
4606000000,-6.0358057,-739.15479
4607000000,-6.0164728,-739.19489
4608000000,-6.0256152,-739.36346
4609000000,-6.0242462,-739.30872
4610000000,-6.0343456,-739.55347
4611000000,-6.0366607,-739.71777
4612000000,-6.0380845,-739.72101
4613000000,-6.0455642,-739.97107
4614000000,-6.0353599,-740.198
4615000000,-6.0262699,-740.08075
4616000000,-6.0228548,-740.10803
4617000000,-6.0303578,-740.45538
4618000000,-6.0548344,-740.42188
4619000000,-6.020277,-740.54016
4620000000,-6.0202231,-740.70874
4621000000,-6.0294027,-740.84344
4622000000,-6.0412197,-741.02228
4623000000,-6.0281491,-740.90363
4624000000,-6.0164347,-741.08966
4625000000,-6.0377483,-741.1355
4626000000,-6.0329485,-741.27081
4627000000,-6.0425005,-741.45795
4628000000,-6.0126677,-741.55286
4629000000,-6.0103841,-741.76941
4630000000,-6.0409822,-741.98871
4631000000,-6.0445781,-741.9726
4632000000,-6.0238943,-742.00317
4633000000,-6.0306125,-742.23572
4634000000,-6.0040946,-742.25067
4635000000,-6.0190978,-742.30365
4636000000,-6.0340309,-742.51715
4637000000,-6.0079188,-742.58136
4638000000,-6.0454946,-742.70013
4639000000,-5.9879575,-742.77551
4640000000,-6.0341487,-743.00311
4641000000,-6.0318637,-742.92395
4642000000,-6.0251803,-743.04791
4643000000,-6.0370822,-743.31628
4644000000,-6.0214043,-743.33978
4645000000,-6.0233059,-743.43811
4646000000,-6.0198832,-743.5257
4647000000,-6.0226369,-743.73285
4648000000,-5.9931531,-743.85455
4649000000,-6.0118284,-743.78564
4650000000,-6.0362744,-744.10895
4651000000,-6.0052691,-744.12073
4652000000,-6.0138421,-744.34888
4653000000,-6.0322175,-744.31494
4654000000,-6.0023732,-744.34729
4655000000,-6.0292788,-744.50543
4656000000,-6.0221391,-744.84802
4657000000,-6.0389361,-744.81445
4658000000,-6.0152054,-744.84033
4659000000,-6.0249486,-744.98126
4660000000,-6.0227194,-745.04468
4661000000,-6.0086823,-745.0553
4662000000,-6.0187111,-745.4408
4663000000,-5.983943,-745.47229
4664000000,-6.0178461,-745.5907
4665000000,-6.0131702,-745.66895
4666000000,-6.0127187,-745.72369
4667000000,-6.0124745,-745.93079
4668000000,-6.0192647,-745.85785
4669000000,-6.025835,-746.08624
4670000000,-6.0164938,-746.11279
4671000000,-5.9948187,-746.49811
4672000000,-6.0274229,-746.57465
4673000000,-5.9974213,-746.51147
4674000000,-5.9904065,-746.62939
4675000000,-5.997714,-746.72791
4676000000,-6.0068879,-746.98773
4677000000,-6.0109353,-746.8197
4678000000,-5.9923692,-747.14233
4679000000,-6.0214605,-747.25061
4680000000,-6.0238156,-747.29535
4681000000,-5.9985952,-747.33594
4682000000,-6.0312591,-747.55103
4683000000,-6.0026202,-747.59863
4684000000,-5.995966,-747.63422
4685000000,-5.9832911,-747.86072
4686000000,-5.9983392,-747.94794
4687000000,-6.0153108,-747.91626
4688000000,-6.0112004,-748.10211
4689000000,-5.9820638,-748.31403
4690000000,-6.0060139,-748.36902
4691000000,-5.9890666,-748.41351
4692000000,-6.0113363,-748.5744
4693000000,-5.9941173,-748.83704
4694000000,-5.9736843,-748.82532
4695000000,-6.0096169,-748.89923
4696000000,-5.9934969,-749.32074
4697000000,-6.0185075,-749.14105
4698000000,-5.9936481,-749.15045
4699000000,-5.9727187,-749.29865
4700000000,-6.0130858,-749.54523
4701000000,-6.0091848,-749.69836
4702000000,-6.0037155,-749.68652
4703000000,-5.9828796,-749.97345
4704000000,-5.9690943,-749.9549
4705000000,-5.9713287,-750.01245
4706000000,-5.9952321,-750.3421
4707000000,-5.9887662,-750.27423
4708000000,-5.9727087,-750.32965
4709000000,-5.9461589,-750.56506
4710000000,-5.9703269,-750.5827
4711000000,-5.9955978,-750.74188
4712000000,-5.9806175,-750.85822
4713000000,-6.0041075,-750.95129
4714000000,-5.9949398,-751.07373
4715000000,-5.9770279,-751.14386
4716000000,-5.9706326,-751.24878
4717000000,-5.9696226,-751.50647
4718000000,-5.970643,-751.41779
4719000000,-5.9784064,-751.55365
4720000000,-5.9794383,-751.79663
4721000000,-5.9678807,-751.79932
4722000000,-5.9898257,-751.87463
4723000000,-5.9677992,-752.10126
4724000000,-5.9729176,-752.08679
4725000000,-5.9593949,-752.32172
4726000000,-5.9677668,-752.27502
4727000000,-5.9975338,-752.61792
4728000000,-5.9746909,-752.6131
4729000000,-5.9781919,-752.60748
4730000000,-5.9557705,-752.70715
4731000000,-5.9603586,-752.92352
4732000000,-5.9664607,-752.92682
4733000000,-5.9722371,-753.02533
4734000000,-5.9844241,-753.34094
4735000000,-5.9414697,-753.43915
4736000000,-5.9727764,-753.45734
4737000000,-5.950407,-753.68585
4738000000,-5.9417872,-753.79095
4739000000,-5.9622235,-753.82312
4740000000,-5.965446,-753.82355
4741000000,-5.9738879,-754.17816
4742000000,-5.9534392,-753.9884
4743000000,-5.9638405,-754.15472
4744000000,-5.9630609,-754.37952
4745000000,-5.9607177,-754.4671
4746000000,-5.9459405,-754.59857
4747000000,-5.9395809,-754.85724
4748000000,-5.9457703,-754.7832
4749000000,-5.9384847,-754.96906
4750000000,-5.9419241,-754.97406
4751000000,-5.97334,-755.15765
4752000000,-5.9544711,-755.28345
4753000000,-5.9230037,-755.4472
4754000000,-5.9450488,-755.5127
4755000000,-5.9581738,-755.63019
4756000000,-5.9732294,-755.77179
4757000000,-5.9567232,-755.71948
4758000000,-5.9627509,-755.88232
4759000000,-5.9476485,-756.0434
4760000000,-5.9379287,-756.07593
4761000000,-5.938694,-756.35956
4762000000,-5.9636269,-756.27661
4763000000,-5.9552498,-756.59589
4764000000,-5.9477687,-756.68768
4765000000,-5.9519672,-756.6972
4766000000,-5.9461327,-757.00153
4767000000,-5.9381037,-756.96869
4768000000,-5.9473438,-757.00293
4769000000,-5.9494071,-757.16107
4770000000,-5.9442139,-757.34943
4771000000,-5.9408288,-757.33716
4772000000,-5.9348941,-757.6358
4773000000,-5.9463878,-757.55627
4774000000,-5.9366808,-757.7511
4775000000,-5.9090319,-757.76892
4776000000,-5.9179363,-757.98242
4777000000,-5.9331002,-757.95569
4778000000,-5.9074621,-758.32623
4779000000,-5.9335666,-758.39178
4780000000,-5.8977699,-758.53455
4781000000,-5.9298849,-758.55695
4782000000,-5.8934212,-758.7323
4783000000,-5.9385891,-758.76569
4784000000,-5.9054017,-758.87848
4785000000,-5.9010019,-759.04535
4786000000,-5.9004169,-759.28424
4787000000,-5.9108748,-759.23474
4788000000,-5.897222,-759.30151
4789000000,-5.9263034,-759.51862
4790000000,-5.9220815,-759.78064
4791000000,-5.9292874,-759.53015
4792000000,-5.9362898,-759.60938
4793000000,-5.9236503,-759.95782
4794000000,-5.9247265,-759.97314
4795000000,-5.9303169,-760.10114
4796000000,-5.9269338,-760.177
4797000000,-5.9134083,-760.48663
4798000000,-5.9085932,-760.43677
4799000000,-5.9169164,-760.66071
4800000000,-5.8867402,-760.7851
4801000000,-5.9095631,-760.73157
4802000000,-5.9010105,-760.71033
4803000000,-5.9014764,-760.97278
4804000000,-5.9138675,-761.07422
4805000000,-5.9011006,-761.10828
4806000000,-5.9186106,-761.33545
4807000000,-5.8790331,-761.45007
4808000000,-5.9089975,-761.5835
4809000000,-5.9035997,-761.70575
4810000000,-5.9110012,-761.82611
4811000000,-5.9137053,-761.91309
4812000000,-5.8896241,-762.01855
4813000000,-5.8884392,-762.01843
4814000000,-5.8986077,-762.21399
4815000000,-5.9122386,-762.24762
4816000000,-5.8944154,-762.56934
4817000000,-5.8892393,-762.52045
4818000000,-5.9132032,-762.638
4819000000,-5.8988438,-762.93738
4820000000,-5.8873181,-762.90033
4821000000,-5.9144688,-763.23242
4822000000,-5.8877792,-763.12646
4823000000,-5.8871126,-763.22144
4824000000,-5.9176059,-763.55267
4825000000,-5.9014063,-763.48773
4826000000,-5.8848372,-763.70764
4827000000,-5.8746409,-763.8598
4828000000,-5.8855128,-763.98309
4829000000,-5.8947721,-764.07495
4830000000,-5.8773084,-764.05475
4831000000,-5.8883247,-764.18976
4832000000,-5.8479772,-764.18719
4833000000,-5.9020925,-764.4787
4834000000,-5.8762808,-764.70404
4835000000,-5.8683763,-764.64996
4836000000,-5.8779955,-764.77753
4837000000,-5.8767633,-764.90588
4838000000,-5.8554888,-765.03394
4839000000,-5.8902149,-765.17651
4840000000,-5.8833628,-765.35504
4841000000,-5.8690906,-765.37317
4842000000,-5.866025,-765.4566
4843000000,-5.8879423,-765.60938
4844000000,-5.8611178,-765.67725
4845000000,-5.8699861,-765.71246
4846000000,-5.8636131,-766.03394
4847000000,-5.8982201,-766.04846
4848000000,-5.8663249,-766.10889
4849000000,-5.8640561,-766.22882
4850000000,-5.8703895,-766.33386
4851000000,-5.8981557,-766.51343
4852000000,-5.8576927,-766.72266
4853000000,-5.8572865,-766.72113
4854000000,-5.867239,-766.72211
4855000000,-5.8575039,-766.83423
4856000000,-5.8917007,-767.29321
4857000000,-5.8596725,-767.1452
4858000000,-5.8641267,-767.22534
4859000000,-5.8653021,-767.47375
4860000000,-5.887116,-767.43652
4861000000,-5.874054,-767.51752
4862000000,-5.8332658,-767.98883
4863000000,-5.8855338,-767.98438
4864000000,-5.8784738,-767.82202
4865000000,-5.8533759,-768.09338
4866000000,-5.8680634,-768.12311
4867000000,-5.8635054,-768.22729
4868000000,-5.854322,-768.30389
4869000000,-5.846036,-768.6579
4870000000,-5.8794918,-768.76813
4871000000,-5.8651543,-768.94604
4872000000,-5.88446,-768.74036
4873000000,-5.8597593,-769.01538
4874000000,-5.8608465,-769.08221
4875000000,-5.8698115,-769.185
4876000000,-5.8238163,-769.37286
4877000000,-5.8474073,-769.65619
4878000000,-5.8670273,-769.69647
4879000000,-5.8488655,-769.71808
4880000000,-5.855135,-769.87689
4881000000,-5.8499103,-769.8186
4882000000,-5.8806472,-770.02094
4883000000,-5.8524151,-770.25079
4884000000,-5.8353038,-770.39374
4885000000,-5.8475151,-770.37225
4886000000,-5.8355613,-770.61755
4887000000,-5.852025,-770.73364
4888000000,-5.8436384,-770.8147
4889000000,-5.8559489,-771.03577
4890000000,-5.84583,-771.09045
4891000000,-5.8411727,-771.07471
4892000000,-5.8614378,-771.38165
4893000000,-5.8252878,-771.36688
4894000000,-5.8361893,-771.49854
4895000000,-5.8327355,-771.59851
4896000000,-5.8400817,-771.68884
4897000000,-5.8427672,-771.78461
4898000000,-5.8493028,-771.92755
4899000000,-5.8212256,-771.99426
4900000000,-5.8638678,-772.15918
4901000000,-5.8488336,-772.3811
4902000000,-5.8639793,-772.47101
4903000000,-5.8368144,-772.59015
4904000000,-5.8496852,-772.4859
4905000000,-5.8643346,-772.64911
4906000000,-5.8446865,-772.83942
4907000000,-5.8425889,-772.85754
4908000000,-5.8439498,-773.00562
4909000000,-5.8550339,-773.27118
4910000000,-5.8441482,-773.54108
4911000000,-5.8304849,-773.63959
4912000000,-5.8220387,-773.49451
4913000000,-5.8496923,-773.91223
4914000000,-5.8332748,-773.78552
4915000000,-5.8396382,-774.03674
4916000000,-5.8759408,-774.2066
4917000000,-5.8428664,-774.19061
4918000000,-5.8186498,-774.29352
4919000000,-5.8125119,-774.43689
4920000000,-5.825891,-774.65259
4921000000,-5.8340793,-774.62103
4922000000,-5.8299174,-774.67499
4923000000,-5.841846,-774.92706
4924000000,-5.8110638,-774.96692
4925000000,-5.8305373,-775.07104
4926000000,-5.8432794,-775.31244
4927000000,-5.8126502,-775.37054
4928000000,-5.8375053,-775.36426
4929000000,-5.8160429,-775.51807
4930000000,-5.8281446,-775.74036
4931000000,-5.8198757,-775.9245
4932000000,-5.8185825,-775.95978
4933000000,-5.8153152,-776.13544
4934000000,-5.8159356,-776.125
4935000000,-5.8311181,-776.42889
4936000000,-5.8417597,-776.46771
4937000000,-5.8353424,-776.4715
4938000000,-5.8437629,-776.74707
4939000000,-5.8506074,-776.70544
4940000000,-5.8375788,-777.07886
4941000000,-5.8337898,-777.00952
4942000000,-5.8334703,-777.15149
4943000000,-5.8227348,-777.16302
4944000000,-5.8229098,-777.24207
4945000000,-5.8295364,-777.62238
4946000000,-5.8308287,-777.5603
4947000000,-5.8279738,-777.68604
4948000000,-5.8535037,-777.7428
4949000000,-5.8260698,-777.85864
4950000000,-5.8513036,-778.08105
4951000000,-5.8432908,-778.2323
4952000000,-5.8444028,-778.18243
4953000000,-5.824482,-778.53552
4954000000,-5.8186274,-778.45435
4955000000,-5.8167162,-778.71979
4956000000,-5.8212709,-778.66547
4957000000,-5.8114672,-778.87085
4958000000,-5.8047657,-779.06982
4959000000,-5.818965,-779.26483
4960000000,-5.8356452,-779.38782
4961000000,-5.8193779,-779.349
4962000000,-5.828939,-779.54486
4963000000,-5.8428421,-779.39783
4964000000,-5.7904911,-779.71527
4965000000,-5.8232765,-779.99023
4966000000,-5.7951703,-780.09473
4967000000,-5.8196874,-780.01031
4968000000,-5.816669,-780.24182
4969000000,-5.8014717,-780.37457
4970000000,-5.8125095,-780.44183
4971000000,-5.8146176,-780.51862
4972000000,-5.8102674,-780.74219
4973000000,-5.8240719,-780.78253
4974000000,-5.8283634,-780.9519
4975000000,-5.8256025,-781.03064
4976000000,-5.8098922,-781.0343
4977000000,-5.8236351,-781.31714
4978000000,-5.7951498,-781.39343
4979000000,-5.8422279,-781.56506
4980000000,-5.8375726,-781.76892
4981000000,-5.8266811,-781.74469
4982000000,-5.7845826,-781.89172
4983000000,-5.8375711,-781.95923
4984000000,-5.8066359,-782.20758
4985000000,-5.8113003,-782.35065
4986000000,-5.7974696,-782.28424
4987000000,-5.8417606,-782.42651
4988000000,-5.8205004,-782.43115
4989000000,-5.8100719,-782.5838
4990000000,-5.8356233,-782.96021
4991000000,-5.8522611,-782.89972
4992000000,-5.8226905,-783.0553
4993000000,-5.820693,-783.15222
4994000000,-5.8190279,-783.27606
4995000000,-5.8336616,-783.50488
4996000000,-5.8143287,-783.4104
4997000000,-5.8075709,-783.47302
4998000000,-5.8164306,-783.43909
4999000000,-5.8292408,-783.77142
5000000000,-5.7883387,-784.0434
END

