Freq(Hz),S21 Log Mag(dB),S21 Phase(°)
1000000000,-5.0894923,-110.7171
1001000000,-5.1105781,-110.85009
1002000000,-5.0846372,-110.87883
1003000000,-5.1136713,-111.02031
1004000000,-5.0754099,-111.0807
1005000000,-5.1202607,-111.21053
1006000000,-5.1103477,-111.52405
1007000000,-5.1107173,-111.64703
1008000000,-5.0785789,-111.7986
1009000000,-5.0987659,-111.85131
1010000000,-5.0590086,-112.0648
1011000000,-5.1070566,-112.16209
1012000000,-5.1076727,-112.20076
1013000000,-5.0623684,-112.61054
1014000000,-5.0857639,-112.59702
1015000000,-5.0808792,-113.02396
1016000000,-5.0479631,-112.7019
1017000000,-5.073379,-113.1161
1018000000,-5.067327,-113.35509
1019000000,-5.0914373,-113.3861
1020000000,-5.1056161,-113.45958
1021000000,-5.0606737,-113.78935
1022000000,-5.0521159,-113.71742
1023000000,-5.0903654,-113.88863
1024000000,-5.114718,-113.75024
1025000000,-5.102385,-114.01382
1026000000,-5.0809245,-114.20036
1027000000,-5.0478244,-114.27916
1028000000,-5.0752311,-114.54472
1029000000,-5.0682573,-114.53995
1030000000,-5.0529232,-114.76285
1031000000,-5.0837359,-114.79133
1032000000,-5.0932488,-115.07124
1033000000,-5.0783386,-115.00243
1034000000,-5.0890079,-115.28542
1035000000,-5.0719862,-115.25378
1036000000,-5.0538478,-115.56839
1037000000,-5.0610824,-115.8311
1038000000,-5.0565758,-115.73234
1039000000,-5.0605664,-115.82334
1040000000,-5.04039,-116.0491
1041000000,-5.0740771,-116.17877
1042000000,-5.0595174,-116.22635
1043000000,-5.003365,-116.18597
1044000000,-5.0312715,-116.51695
1045000000,-5.0744829,-116.76117
1046000000,-5.0560536,-117.16549
1047000000,-5.0466218,-116.73773
1048000000,-5.0714259,-117.12498
1049000000,-5.0240321,-117.3123
1050000000,-5.0552616,-117.3108
1051000000,-5.0433545,-117.40367
1052000000,-5.0361061,-117.72523
1053000000,-5.0601864,-117.92697
1054000000,-5.0417714,-118.1174
1055000000,-5.0434394,-117.94917
1056000000,-5.0372367,-118.07543
1057000000,-5.0507827,-118.46194
1058000000,-5.0662041,-118.55919
1059000000,-5.0498953,-118.57135
1060000000,-5.0268912,-118.70792
1061000000,-5.0515981,-118.87897
1062000000,-5.0439062,-119.04663
1063000000,-5.0098891,-119.25151
1064000000,-5.027184,-119.4767
1065000000,-5.0265565,-119.58275
1066000000,-5.0200882,-119.68906
1067000000,-5.0022559,-119.78236
1068000000,-5.0099969,-119.93236
1069000000,-5.0286126,-120.0518
1070000000,-5.0498729,-120.10448
1071000000,-5.0164056,-120.25175
1072000000,-5.0308809,-120.43423
1073000000,-5.0451174,-120.52428
1074000000,-5.011929,-120.59523
1075000000,-5.0365252,-120.90776
1076000000,-5.0246034,-121.07748
1077000000,-5.0424528,-121.23438
1078000000,-5.0093555,-121.29327
1079000000,-5.0200424,-121.40724
1080000000,-5.0063758,-121.57226
1081000000,-5.0201669,-121.57084
1082000000,-5.0149865,-121.87989
1083000000,-5.0292096,-122.1553
1084000000,-4.9979668,-122.07619
1085000000,-5.0220675,-122.18434
1086000000,-5.0104251,-122.54015
1087000000,-5.0085292,-122.44468
1088000000,-5.0169387,-122.7303
1089000000,-5.0032592,-122.91486
1090000000,-4.973134,-123.05991
1091000000,-5.0007277,-122.88125
1092000000,-4.997889,-123.16138
1093000000,-4.9927211,-123.42928
1094000000,-4.9975209,-123.60197
1095000000,-4.974515,-123.79472
1096000000,-4.9940243,-123.84995
1097000000,-4.9898314,-124.09458
1098000000,-4.9774261,-124.01005
1099000000,-4.993022,-124.44478
1100000000,-5.0020056,-124.3868
1101000000,-5.0143261,-124.56792
1102000000,-5.0108752,-124.62892
1103000000,-4.9926267,-124.81003
1104000000,-4.9741158,-124.95396
1105000000,-4.9939404,-125.09964
1106000000,-4.9800825,-125.22124
1107000000,-5.0078611,-125.35517
1108000000,-5.0008793,-125.74963
1109000000,-4.9742036,-125.75316
1110000000,-4.9874406,-125.87769
1111000000,-4.9760208,-125.79811
1112000000,-4.9651027,-126.28899
1113000000,-4.9884548,-126.29266
1114000000,-4.9977846,-126.41993
1115000000,-4.9702702,-126.4257
1116000000,-4.9994936,-126.84327
1117000000,-4.9537358,-126.91922
1118000000,-5.0068078,-126.82507
1119000000,-4.9585381,-127.14825
1120000000,-4.9660048,-127.31865
1121000000,-4.9845343,-127.63914
1122000000,-4.9985266,-127.55657
1123000000,-4.9552178,-127.50063
1124000000,-4.9500761,-127.90333
1125000000,-4.9800773,-128.08502
1126000000,-4.9748764,-128.1834
1127000000,-4.9734612,-128.27086
1128000000,-4.966527,-128.42799
1129000000,-4.9815869,-128.71005
1130000000,-4.9769335,-128.71556
1131000000,-4.931706,-128.83838
1132000000,-4.9573798,-129.00679
1133000000,-4.9614921,-129.22876
1134000000,-4.9335623,-129.44165
1135000000,-5.0001588,-129.47116
1136000000,-4.9836287,-129.6967
1137000000,-4.9857316,-129.74724
1138000000,-4.9498849,-130.00366
1139000000,-4.9939771,-130.12567
1140000000,-4.9844556,-130.44659
1141000000,-4.9658766,-130.58838
1142000000,-4.9935641,-130.72423
1143000000,-4.9498487,-130.51735
1144000000,-4.9568105,-130.97884
1145000000,-4.9508681,-131.07069
1146000000,-4.9358711,-131.06194
1147000000,-4.9409165,-131.3131
1148000000,-4.946023,-131.50685
1149000000,-4.9589648,-131.3808
1150000000,-4.9723954,-131.84781
1151000000,-4.9663286,-131.76076
1152000000,-4.9484277,-131.94754
1153000000,-4.946476,-132.01396
1154000000,-4.9579124,-132.17339
1155000000,-4.9559402,-132.54156
1156000000,-4.9514756,-132.70842
1157000000,-4.9486179,-132.6893
1158000000,-4.9554806,-132.87552
1159000000,-4.9517393,-133.17999
1160000000,-4.9221368,-133.19484
1161000000,-4.9349737,-133.20114
1162000000,-4.9197006,-133.53288
1163000000,-4.9718504,-133.68573
1164000000,-4.9543324,-133.88287
1165000000,-4.9548283,-133.88507
1166000000,-4.9366078,-134.08824
1167000000,-4.9260125,-134.41982
1168000000,-4.9372234,-134.3968
1169000000,-4.941083,-134.44958
1170000000,-4.9069791,-134.74644
1171000000,-4.9301009,-135.01883
1172000000,-4.9480815,-135.09543
1173000000,-4.9548922,-135.10628
1174000000,-4.9429312,-135.25102
1175000000,-4.9574227,-135.42918
1176000000,-4.9281254,-135.595
1177000000,-4.9658527,-135.85678
1178000000,-4.9364796,-135.95856
1179000000,-4.9192824,-136.16238
1180000000,-4.9338641,-136.36943
1181000000,-4.9354143,-136.41293
1182000000,-4.9218879,-136.72565
1183000000,-4.9373999,-136.73798
1184000000,-4.9608879,-136.88
1185000000,-4.9367714,-137.06648
1186000000,-4.9379845,-137.16747
1187000000,-4.9509459,-137.51117
1188000000,-4.9360008,-137.62189
1189000000,-4.9532094,-137.76747
1190000000,-4.9227009,-137.81161
1191000000,-4.9384084,-137.97308
1192000000,-4.9303875,-138.23869
1193000000,-4.9301219,-138.29523
1194000000,-4.9552174,-138.33051
1195000000,-4.945487,-138.60832
1196000000,-4.9469609,-138.66447
1197000000,-4.9290762,-138.95331
1198000000,-4.9384851,-139.09067
1199000000,-4.9077477,-139.27621
1200000000,-4.9533257,-139.44466
1201000000,-4.9226437,-139.54861
1202000000,-4.9360232,-139.81502
1203000000,-4.9506626,-139.81787
1204000000,-4.956809,-139.96851
1205000000,-4.9368339,-140.29428
1206000000,-4.9493055,-140.19373
1207000000,-4.9452696,-140.25052
1208000000,-4.9439411,-140.6804
1209000000,-4.9214334,-140.66112
1210000000,-4.9860702,-141.09201
1211000000,-4.9352617,-141.08231
1212000000,-4.9405475,-141.20271
1213000000,-4.9591451,-141.57582
1214000000,-4.92169,-141.47964
1215000000,-4.922441,-141.86311
1216000000,-4.9110103,-141.86969
1217000000,-4.9170265,-141.91742
1218000000,-4.9204397,-142.18439
1219000000,-4.9396472,-142.18201
1220000000,-4.9182453,-142.42261
1221000000,-4.9619379,-142.66141
1222000000,-4.9498734,-142.715
1223000000,-4.9490943,-143.02539
1224000000,-4.9118524,-142.94266
1225000000,-4.9496984,-143.17926
1226000000,-4.9596286,-143.47862
1227000000,-4.9611206,-143.74455
1228000000,-4.9643106,-143.87685
1229000000,-4.9173117,-144.09338
1230000000,-4.9216051,-144.27356
1231000000,-4.9438677,-144.40446
1232000000,-4.9758382,-144.36777
1233000000,-4.9159021,-144.50041
1234000000,-4.9776258,-144.74486
1235000000,-4.9113488,-144.87151
1236000000,-4.9623404,-145.0488
1237000000,-4.9499488,-145.10913
1238000000,-4.9624634,-145.32382
1239000000,-4.9456086,-145.44261
1240000000,-4.961525,-145.69324
1241000000,-4.9361248,-145.92346
1242000000,-4.956943,-146.06154
1243000000,-4.9364285,-146.18947
1244000000,-4.9855151,-146.23802
1245000000,-4.9621081,-146.54198
1246000000,-4.9499702,-146.73381
1247000000,-4.964467,-147.02905
1248000000,-4.965529,-146.99161
1249000000,-4.9605656,-147.22644
1250000000,-4.9679523,-147.43892
1251000000,-4.9336982,-147.45326
1252000000,-4.9515328,-147.61534
1253000000,-4.9837608,-147.8454
1254000000,-4.9769931,-148.04115
1255000000,-4.9429131,-148.25092
1256000000,-4.9409885,-148.39345
1257000000,-4.9584193,-148.47615
1258000000,-4.9353952,-148.73753
1259000000,-4.9376483,-148.84926
1260000000,-4.9707365,-148.73711
1261000000,-4.9798093,-148.95419
1262000000,-4.9598584,-149.49449
1263000000,-4.96387,-149.40652
1264000000,-4.9730649,-149.51421
1265000000,-4.9605517,-149.78841
1266000000,-4.9483376,-149.87523
1267000000,-4.9393358,-150.03387
1268000000,-4.9604282,-150.45998
1269000000,-4.9633045,-150.49091
1270000000,-4.9973478,-150.54648
1271000000,-4.9743605,-150.71521
1272000000,-4.980689,-151.14459
1273000000,-4.9667873,-151.09976
1274000000,-4.9507742,-151.32368
1275000000,-4.9828353,-151.60817
1276000000,-4.9877706,-151.59009
1277000000,-4.9776506,-151.77437
1278000000,-4.9644771,-151.82939
1279000000,-4.9757023,-152.16742
1280000000,-4.9733939,-152.41634
1281000000,-4.9999142,-152.4162
1282000000,-5.0151644,-152.70764
1283000000,-4.9768229,-152.91989
1284000000,-4.9588075,-153.08263
1285000000,-4.987679,-153.1028
1286000000,-4.9860606,-153.1356
1287000000,-4.9768004,-153.42744
1288000000,-4.9860697,-153.606
1289000000,-5.0090923,-153.94888
1290000000,-5.0027514,-154.04132
1291000000,-4.9976449,-154.09805
1292000000,-4.9813499,-154.40697
1293000000,-4.9938664,-154.55197
1294000000,-5.0017853,-154.67628
1295000000,-4.9725151,-154.82597
1296000000,-4.998219,-154.8557
1297000000,-5.0270419,-155.21127
1298000000,-5.0132952,-155.51785
1299000000,-4.9862218,-155.4245
1300000000,-4.9902515,-155.7991
1301000000,-5.0378714,-155.71548
1302000000,-5.0033622,-156.0036
1303000000,-4.9979162,-156.39488
1304000000,-5.0147281,-156.32895
1305000000,-5.0252862,-156.58115
1306000000,-5.0042677,-156.77464
1307000000,-5.0170417,-156.91475
1308000000,-5.0168257,-156.81921
1309000000,-5.0222731,-157.06917
1310000000,-5.0401893,-157.47005
1311000000,-5.0292802,-157.58307
1312000000,-5.0234509,-157.76079
1313000000,-5.0299134,-158.01433
1314000000,-5.0467963,-158.18869
1315000000,-5.0377579,-158.3092
1316000000,-5.0601473,-158.40402
1317000000,-5.0452104,-158.65601
1318000000,-5.0331197,-158.7054
1319000000,-5.039012,-159.07515
1320000000,-5.0370393,-159.01897
1321000000,-5.0484734,-159.29205
1322000000,-5.0419049,-159.30676
1323000000,-5.0455489,-159.63422
1324000000,-5.0523052,-159.70793
1325000000,-5.053237,-159.81334
1326000000,-5.0476713,-160.2123
1327000000,-5.05513,-160.20555
1328000000,-5.0648112,-160.4277
1329000000,-5.0803585,-160.67476
1330000000,-5.0626535,-160.79936
1331000000,-5.0767369,-161.09016
1332000000,-5.0825553,-161.14961
1333000000,-5.0759749,-161.51828
1334000000,-5.0793433,-161.54227
1335000000,-5.0702686,-161.89757
1336000000,-5.0892167,-161.92725
1337000000,-5.0623188,-162.05659
1338000000,-5.0775928,-162.29205
1339000000,-5.0653496,-162.66501
1340000000,-5.1080532,-162.58177
1341000000,-5.0896978,-162.75612
1342000000,-5.0416722,-163.07042
1343000000,-5.0721488,-163.22137
1344000000,-5.0896101,-163.2664
1345000000,-5.1193452,-163.51959
1346000000,-5.1143794,-163.73813
1347000000,-5.1348472,-164.04399
1348000000,-5.0896606,-163.9826
1349000000,-5.1368599,-164.32184
1350000000,-5.1315246,-164.57097
1351000000,-5.1011806,-164.49066
1352000000,-5.1391034,-164.85632
1353000000,-5.1223636,-165.03967
1354000000,-5.144454,-165.10028
1355000000,-5.1553516,-165.1064
1356000000,-5.1387973,-165.51547
1357000000,-5.1329732,-165.8062
1358000000,-5.1667247,-165.74533
1359000000,-5.139998,-165.98772
1360000000,-5.1380568,-166.17799
1361000000,-5.1665249,-166.51564
1362000000,-5.138658,-166.65468
1363000000,-5.1489153,-166.76727
1364000000,-5.1610289,-166.94925
1365000000,-5.1789446,-167.10973
1366000000,-5.1422453,-167.19496
1367000000,-5.1626678,-167.41548
1368000000,-5.1872759,-167.65642
1369000000,-5.1567063,-167.73688
1370000000,-5.1845913,-168.06647
1371000000,-5.2007957,-168.19182
1372000000,-5.1811447,-168.51302
1373000000,-5.1966858,-168.67047
1374000000,-5.1796331,-168.842
1375000000,-5.2121048,-168.90765
1376000000,-5.1994686,-168.94751
1377000000,-5.1957974,-169.3851
1378000000,-5.1995573,-169.41846
1379000000,-5.2138748,-169.67699
1380000000,-5.2329164,-169.8777
1381000000,-5.2688389,-170.14378
1382000000,-5.2180014,-170.37775
1383000000,-5.2236276,-170.433
1384000000,-5.2486262,-170.51697
1385000000,-5.2446342,-170.9229
1386000000,-5.2358747,-171.1442
1387000000,-5.2687321,-171.2251
1388000000,-5.2775002,-171.31383
1389000000,-5.2570515,-171.57422
1390000000,-5.256453,-171.84254
1391000000,-5.255959,-171.91747
1392000000,-5.2833214,-172.07767
1393000000,-5.2699695,-172.05946
1394000000,-5.290988,-172.56392
1395000000,-5.2766576,-172.53662
1396000000,-5.280539,-172.98734
1397000000,-5.2859602,-173.06242
1398000000,-5.305943,-173.19499
1399000000,-5.2931318,-173.27119
1400000000,-5.314301,-173.64729
1401000000,-5.2807207,-173.87605
1402000000,-5.3144794,-173.75406
1403000000,-5.309093,-174.0676
1404000000,-5.3577008,-174.25172
1405000000,-5.346262,-174.58603
1406000000,-5.3344769,-174.70959
1407000000,-5.3537607,-174.84203
1408000000,-5.3686776,-174.99493
1409000000,-5.3338032,-175.00888
1410000000,-5.3425717,-175.52223
1411000000,-5.3277926,-175.74301
1412000000,-5.3605189,-175.98201
1413000000,-5.3303103,-175.96182
1414000000,-5.3803196,-176.12036
1415000000,-5.3601375,-176.46315
1416000000,-5.3813038,-176.53639
1417000000,-5.3761425,-176.78857
1418000000,-5.3869066,-176.95708
1419000000,-5.3808465,-177.26147
1420000000,-5.4174933,-177.25949
1421000000,-5.4010611,-177.59024
1422000000,-5.4134421,-177.67
1423000000,-5.4032888,-177.67119
1424000000,-5.4303684,-178.18005
1425000000,-5.4157066,-178.18266
1426000000,-5.4505029,-178.46587
1427000000,-5.4533176,-178.85721
1428000000,-5.4472885,-178.93494
1429000000,-5.4569907,-178.90816
1430000000,-5.469521,-179.10738
1431000000,-5.4752164,-179.34471
1432000000,-5.4811735,-179.64706
1433000000,-5.4858017,-179.78561
1434000000,-5.4869318,-180.07368
1435000000,-5.482595,-180.24963
1436000000,-5.5155149,-180.42873
1437000000,-5.5232668,-180.65965
1438000000,-5.5072927,-180.85515
1439000000,-5.5285869,-181.00481
1440000000,-5.5235486,-181.02821
1441000000,-5.5486245,-181.20186
1442000000,-5.5639634,-181.39569
1443000000,-5.548676,-181.70683
1444000000,-5.5334806,-181.83357
1445000000,-5.5815597,-182.03119
1446000000,-5.5832238,-182.41566
1447000000,-5.5469093,-182.41217
1448000000,-5.5605507,-182.61697
1449000000,-5.592485,-182.85359
1450000000,-5.6022925,-182.98701
1451000000,-5.601758,-183.34248
1452000000,-5.5744987,-183.33124
1453000000,-5.6312971,-183.83754
1454000000,-5.6080451,-183.903
1455000000,-5.6270881,-184.02556
1456000000,-5.6515326,-184.26405
1457000000,-5.6347299,-184.36551
1458000000,-5.6665797,-184.59665
1459000000,-5.6597285,-184.81152
1460000000,-5.6636286,-184.7942
1461000000,-5.6585383,-185.41795
1462000000,-5.6762242,-185.41066
1463000000,-5.6963735,-185.70575
1464000000,-5.6869388,-185.5712
1465000000,-5.7292266,-186.18536
1466000000,-5.7202168,-186.17424
1467000000,-5.7052512,-186.2867
1468000000,-5.7348685,-186.52759
1469000000,-5.7123904,-186.88251
1470000000,-5.7339549,-186.95735
1471000000,-5.7489486,-187.19034
1472000000,-5.7603211,-187.39043
1473000000,-5.7834678,-187.60674
1474000000,-5.7762899,-187.64862
1475000000,-5.8187199,-187.8868
1476000000,-5.783483,-187.99788
1477000000,-5.7943907,-188.04758
1478000000,-5.8164687,-188.31422
1479000000,-5.8255091,-188.76874
1480000000,-5.8221159,-188.94748
1481000000,-5.8238115,-189.07796
1482000000,-5.8439078,-189.37466
1483000000,-5.8656125,-189.3983
1484000000,-5.8790545,-189.81082
1485000000,-5.8799486,-189.74585
1486000000,-5.8697348,-190.00172
1487000000,-5.8987541,-190.33789
1488000000,-5.9111962,-190.41005
1489000000,-5.8928685,-190.59116
1490000000,-5.9028406,-190.76053
1491000000,-5.9318891,-191.02713
1492000000,-5.9343209,-191.27444
1493000000,-5.9184585,-191.11581
1494000000,-5.9484305,-191.72087
1495000000,-5.9419231,-191.71127
1496000000,-5.9517756,-191.98344
1497000000,-5.975471,-192.257
1498000000,-5.9744239,-192.31781
1499000000,-5.9757957,-192.64375
1500000000,-6.0129375,-192.78635
1501000000,-6.0164399,-193.13422
1502000000,-6.0273933,-193.15454
1503000000,-6.0217075,-193.32198
1504000000,-6.0309134,-193.48256
1505000000,-6.060276,-193.83524
1506000000,-6.0839653,-194.04631
1507000000,-6.0751781,-194.13499
1508000000,-6.0652957,-194.5033
1509000000,-6.099371,-194.43411
1510000000,-6.0954127,-194.73512
1511000000,-6.1215477,-194.73448
1512000000,-6.1333423,-194.95456
1513000000,-6.1383381,-195.18071
1514000000,-6.1348357,-195.48766
1515000000,-6.1536813,-195.65039
1516000000,-6.1841516,-195.99673
1517000000,-6.1888013,-195.94641
1518000000,-6.1903949,-196.14885
1519000000,-6.1865239,-196.36293
1520000000,-6.2066836,-196.76689
1521000000,-6.2281628,-196.7578
1522000000,-6.230804,-197.12503
1523000000,-6.2369018,-197.41652
1524000000,-6.2610345,-197.41626
1525000000,-6.2707119,-197.66985
1526000000,-6.2688718,-197.98064
1527000000,-6.2874975,-198.08315
1528000000,-6.2987127,-198.01216
1529000000,-6.322989,-198.39523
1530000000,-6.3115163,-198.562
1531000000,-6.3296762,-198.79474
1532000000,-6.3409581,-199.04947
1533000000,-6.3409109,-199.27391
1534000000,-6.3410592,-199.31949
1535000000,-6.3496499,-199.45628
1536000000,-6.3525877,-200.05763
1537000000,-6.3914018,-200.07483
1538000000,-6.4011083,-200.16922
1539000000,-6.4213214,-200.28378
1540000000,-6.4512548,-200.63214
1541000000,-6.4348955,-200.81946
1542000000,-6.4582396,-200.91772
1543000000,-6.4745727,-201.17474
1544000000,-6.4614248,-201.23497
1545000000,-6.5282502,-201.59213
1546000000,-6.4913683,-201.77893
1547000000,-6.5367498,-201.87402
1548000000,-6.5135164,-202.05287
1549000000,-6.5477791,-202.40422
1550000000,-6.5860147,-202.52206
1551000000,-6.5738826,-202.57661
1552000000,-6.5313125,-202.98671
1553000000,-6.5882268,-203.18105
1554000000,-6.5960956,-203.15208
1555000000,-6.5925412,-203.31215
1556000000,-6.6040163,-203.34344
1557000000,-6.6516027,-203.86006
1558000000,-6.6694427,-204.09338
1559000000,-6.6551151,-204.17552
1560000000,-6.7021875,-204.47363
1561000000,-6.6888199,-204.61089
1562000000,-6.7165327,-204.9283
1563000000,-6.7262006,-204.91675
1564000000,-6.7298636,-205.25946
1565000000,-6.7639961,-205.58855
1566000000,-6.7534399,-205.36783
1567000000,-6.7740059,-205.63356
1568000000,-6.8043957,-205.79996
1569000000,-6.8060493,-206.00562
1570000000,-6.8074851,-206.31378
1571000000,-6.8223534,-206.49037
1572000000,-6.8126245,-206.68724
1573000000,-6.8659759,-206.98254
1574000000,-6.8545723,-206.99512
1575000000,-6.851162,-207.35478
1576000000,-6.8758307,-207.41335
1577000000,-6.9035077,-207.56798
1578000000,-6.9114814,-207.76718
1579000000,-6.9360704,-208.0107
1580000000,-6.9356961,-208.22035
1581000000,-6.9560914,-208.5136
1582000000,-6.999723,-208.59676
1583000000,-6.9703727,-208.82141
1584000000,-7.0312142,-209.39992
1585000000,-7.0470824,-209.21933
1586000000,-7.0513697,-209.5562
1587000000,-7.0547767,-209.42769
1588000000,-7.0807624,-209.64299
1589000000,-7.0893817,-209.98143
1590000000,-7.0851417,-210.09854
1591000000,-7.1176801,-210.31897
1592000000,-7.1286645,-210.50531
1593000000,-7.1082172,-210.68349
1594000000,-7.1559229,-210.90698
1595000000,-7.1704836,-210.98059
1596000000,-7.1714344,-211.20949
1597000000,-7.2083664,-211.43127
1598000000,-7.201509,-211.68608
1599000000,-7.2329888,-211.96176
1600000000,-7.2135549,-211.9991
1601000000,-7.2309036,-212.07431
1602000000,-7.2667036,-212.37579
1603000000,-7.2889109,-212.43578
1604000000,-7.2756515,-212.73233
1605000000,-7.2858791,-212.86861
1606000000,-7.3128996,-213.08276
1607000000,-7.3521252,-213.35437
1608000000,-7.3716025,-213.43866
1609000000,-7.3835173,-213.69093
1610000000,-7.3909097,-213.98178
1611000000,-7.4237208,-214.09428
1612000000,-7.4426413,-214.34444
1613000000,-7.423121,-214.5528
1614000000,-7.4637794,-214.59018
1615000000,-7.4353495,-214.70161
1616000000,-7.4621391,-214.93343
1617000000,-7.503962,-215.15576
1618000000,-7.5231113,-215.48805
1619000000,-7.5099268,-215.77289
1620000000,-7.5501585,-215.95123
1621000000,-7.5364885,-215.94444
1622000000,-7.5838428,-216.03859
1623000000,-7.5860815,-216.38272
1624000000,-7.616693,-216.52519
1625000000,-7.6652746,-216.67775
1626000000,-7.6601057,-216.70667
1627000000,-7.6592422,-216.84729
1628000000,-7.6820898,-217.21324
1629000000,-7.7293248,-217.41136
1630000000,-7.7161746,-217.636
1631000000,-7.7496796,-217.66048
1632000000,-7.7367067,-217.85449
1633000000,-7.7561831,-218.12476
1634000000,-7.8060994,-218.27065
1635000000,-7.7772212,-218.58017
1636000000,-7.794023,-218.67639
1637000000,-7.8124409,-218.59935
1638000000,-7.832478,-218.99026
1639000000,-7.8584867,-219.37164
1640000000,-7.8735933,-219.35844
1641000000,-7.9053869,-219.61972
1642000000,-7.8995109,-219.86311
1643000000,-7.9160161,-219.88626
1644000000,-7.9345984,-220.16959
1645000000,-7.9608369,-220.37447
1646000000,-7.9918208,-220.51202
1647000000,-7.9870849,-220.64496
1648000000,-8.0096397,-220.76012
1649000000,-8.048049,-221.03249
1650000000,-8.0438128,-221.235
1651000000,-8.0582676,-221.35861
1652000000,-8.1000671,-221.5957
1653000000,-8.1141043,-221.66835
1654000000,-8.1147242,-221.83829
1655000000,-8.120966,-222.02072
1656000000,-8.1359377,-222.09795
1657000000,-8.1909866,-222.39922
1658000000,-8.1716785,-222.64476
1659000000,-8.215909,-222.85608
1660000000,-8.218461,-223.08044
1661000000,-8.251895,-222.86862
1662000000,-8.2430182,-223.23892
1663000000,-8.230092,-223.31889
1664000000,-8.2910995,-223.61612
1665000000,-8.3059015,-223.70839
1666000000,-8.3183784,-223.9509
1667000000,-8.3289223,-224.12907
1668000000,-8.3799992,-224.39767
1669000000,-8.3787832,-224.5154
1670000000,-8.408967,-224.73332
1671000000,-8.4328871,-224.81052
1672000000,-8.4536352,-224.97867
1673000000,-8.4727631,-225.24313
1674000000,-8.4941216,-225.40602
1675000000,-8.4866838,-225.70679
1676000000,-8.5500536,-225.70216
1677000000,-8.5247011,-225.98141
1678000000,-8.5613327,-226.04182
1679000000,-8.58955,-226.39575
1680000000,-8.5914001,-226.42084
1681000000,-8.6279221,-226.51385
1682000000,-8.6255245,-226.76456
1683000000,-8.6580849,-226.85327
1684000000,-8.6702528,-226.96904
1685000000,-8.7133999,-227.23021
1686000000,-8.7240486,-227.4864
1687000000,-8.718441,-227.75595
1688000000,-8.7581825,-227.743
1689000000,-8.7452345,-227.92415
1690000000,-8.7945242,-228.09875
1691000000,-8.7944679,-228.2818
1692000000,-8.8205004,-228.52151
1693000000,-8.8554535,-228.69379
1694000000,-8.8539944,-229.10083
1695000000,-8.8822498,-229.05176
1696000000,-8.8597288,-229.17941
1697000000,-8.8912849,-229.21809
1698000000,-8.946291,-229.56223
1699000000,-8.9362936,-229.87117
1700000000,-8.975131,-229.73805
1701000000,-9.0150299,-230.01146
1702000000,-9.0219069,-230.3286
1703000000,-9.0212765,-230.56148
1704000000,-9.0397234,-230.28674
1705000000,-9.1014872,-230.39212
1706000000,-9.0863352,-230.89345
1707000000,-9.104845,-231.12598
1708000000,-9.1386156,-231.35138
1709000000,-9.1613379,-231.40004
1710000000,-9.1872635,-231.47227
1711000000,-9.2027922,-231.50336
1712000000,-9.2032747,-231.69447
1713000000,-9.240797,-231.97186
1714000000,-9.2262716,-232.28938
1715000000,-9.2586622,-232.25586
1716000000,-9.3046808,-232.48289
1717000000,-9.3094664,-232.53038
1718000000,-9.3237505,-232.96196
1719000000,-9.3681259,-232.91071
1720000000,-9.3950634,-233.05887
1721000000,-9.4019527,-233.06038
1722000000,-9.4240541,-233.33028
1723000000,-9.4454136,-233.51349
1724000000,-9.4597349,-233.51289
1725000000,-9.4722862,-233.90868
1726000000,-9.5193081,-234.05849
1727000000,-9.5379639,-234.21645
1728000000,-9.5353613,-234.45128
1729000000,-9.5869198,-234.57111
1730000000,-9.5875378,-234.78329
1731000000,-9.5700989,-234.83852
1732000000,-9.6336851,-235.02722
1733000000,-9.6399136,-235.41608
1734000000,-9.6651077,-235.32579
1735000000,-9.6971369,-235.55519
1736000000,-9.7040567,-235.7086
1737000000,-9.7296658,-235.6662
1738000000,-9.7533541,-236.13814
1739000000,-9.7436171,-236.14729
1740000000,-9.7970629,-236.3976
1741000000,-9.8161774,-236.15311
1742000000,-9.844018,-236.64546
1743000000,-9.8663206,-236.76324
1744000000,-9.8485641,-236.9306
1745000000,-9.8817787,-237.21198
1746000000,-9.9217033,-237.32973
1747000000,-9.9573545,-237.52934
1748000000,-9.9505672,-237.46092
1749000000,-9.986249,-237.63504
1750000000,-10.002058,-237.77414
1751000000,-10.016014,-238.06873
1752000000,-10.046492,-238.05133
1753000000,-10.065855,-238.31918
1754000000,-10.069585,-238.6308
1755000000,-10.114583,-238.66377
1756000000,-10.156119,-238.77109
1757000000,-10.158401,-239.17795
1758000000,-10.167694,-239.14977
1759000000,-10.194898,-239.31396
1760000000,-10.210832,-239.38496
1761000000,-10.224662,-239.46066
1762000000,-10.258419,-239.85144
1763000000,-10.285313,-239.69263
1764000000,-10.321147,-240.0218
1765000000,-10.320304,-240.1852
1766000000,-10.376945,-240.2733
1767000000,-10.392651,-240.28754
1768000000,-10.39199,-240.7016
1769000000,-10.416524,-240.72835
1770000000,-10.410535,-240.77969
1771000000,-10.479486,-240.93741
1772000000,-10.460367,-241.31741
1773000000,-10.475284,-241.28209
1774000000,-10.53137,-241.49251
1775000000,-10.500519,-241.62631
1776000000,-10.577841,-241.91359
1777000000,-10.563599,-241.8369
1778000000,-10.606218,-242.0157
1779000000,-10.656631,-242.15242
1780000000,-10.661141,-242.30725
1781000000,-10.659966,-242.548
1782000000,-10.711552,-242.65553
1783000000,-10.704772,-242.87379
1784000000,-10.748188,-242.95671
1785000000,-10.742837,-242.92764
1786000000,-10.793795,-243.15474
1787000000,-10.815351,-243.49933
1788000000,-10.835115,-243.59326
1789000000,-10.857895,-243.51794
1790000000,-10.884688,-243.83035
1791000000,-10.886986,-243.99149
1792000000,-10.885863,-244.21837
1793000000,-10.948365,-244.16847
1794000000,-10.940778,-244.32655
1795000000,-10.989835,-244.66869
1796000000,-11.007133,-244.75906
1797000000,-11.03316,-244.84822
1798000000,-11.052191,-245.00328
1799000000,-11.101647,-245.1089
1800000000,-11.082156,-245.12289
1801000000,-11.115039,-245.33206
1802000000,-11.133496,-245.51372
1803000000,-11.170888,-245.71777
1804000000,-11.177479,-245.87332
1805000000,-11.222618,-246.15617
1806000000,-11.227874,-246.08981
1807000000,-11.273688,-246.35036
1808000000,-11.289437,-246.27127
1809000000,-11.323729,-246.62642
1810000000,-11.316755,-246.55275
1811000000,-11.343173,-246.71346
1812000000,-11.358301,-246.79689
1813000000,-11.427841,-247.06042
1814000000,-11.407362,-247.18906
1815000000,-11.420439,-247.52322
1816000000,-11.470358,-247.48346
1817000000,-11.486377,-247.59299
1818000000,-11.500962,-247.78127
1819000000,-11.550776,-247.8094
1820000000,-11.568029,-248.1245
1821000000,-11.583065,-248.01668
1822000000,-11.609323,-248.07381
1823000000,-11.63864,-248.46683
1824000000,-11.628265,-248.58241
1825000000,-11.671439,-248.64848
1826000000,-11.72195,-248.76244
1827000000,-11.716622,-248.80212
1828000000,-11.741565,-249.16139
1829000000,-11.764911,-249.03217
1830000000,-11.787277,-249.16502
1831000000,-11.795208,-249.258
1832000000,-11.866207,-249.46509
1833000000,-11.896262,-249.67535
1834000000,-11.883323,-249.78754
1835000000,-11.890073,-250.13277
1836000000,-11.936527,-250.12303
1837000000,-11.961863,-250.02269
1838000000,-11.989274,-250.5412
1839000000,-11.995198,-250.49208
1840000000,-12.019528,-250.68269
1841000000,-12.042763,-250.69647
1842000000,-12.060429,-251.02681
1843000000,-12.088849,-251.16399
1844000000,-12.152734,-251.15486
1845000000,-12.151434,-251.18513
1846000000,-12.156142,-251.62653
1847000000,-12.206026,-251.78233
1848000000,-12.198522,-251.75095
1849000000,-12.185613,-251.68967
1850000000,-12.29396,-251.86563
1851000000,-12.273397,-251.87299
1852000000,-12.31851,-252.22479
1853000000,-12.328255,-252.39008
1854000000,-12.348161,-252.28915
1855000000,-12.394492,-252.6619
1856000000,-12.389609,-252.49893
1857000000,-12.380907,-252.73541
1858000000,-12.430634,-253.02821
1859000000,-12.481469,-253.0211
1860000000,-12.499049,-253.48026
1861000000,-12.521883,-253.46176
1862000000,-12.528899,-253.24202
1863000000,-12.587191,-253.65126
1864000000,-12.560897,-253.65247
1865000000,-12.619262,-253.81325
1866000000,-12.627752,-253.88756
1867000000,-12.643449,-253.90024
1868000000,-12.732394,-254.20013
1869000000,-12.714008,-254.1731
1870000000,-12.763044,-254.4046
1871000000,-12.765615,-254.40601
1872000000,-12.761575,-254.72992
1873000000,-12.814527,-254.85162
1874000000,-12.81391,-254.93733
1875000000,-12.872403,-254.87122
1876000000,-12.869731,-254.98495
1877000000,-12.896349,-255.20778
1878000000,-12.907091,-255.46069
1879000000,-12.940341,-255.71587
1880000000,-12.95592,-255.8903
1881000000,-12.985778,-255.6248
1882000000,-13.029299,-255.91328
1883000000,-13.053762,-255.89044
1884000000,-13.065588,-256.12195
1885000000,-13.075832,-256.37323
1886000000,-13.124371,-256.20917
1887000000,-13.181587,-256.54141
1888000000,-13.174156,-256.52704
1889000000,-13.205039,-256.81631
1890000000,-13.199627,-256.76749
1891000000,-13.212055,-257.14841
1892000000,-13.282378,-257.10364
1893000000,-13.287544,-257.00574
1894000000,-13.307405,-257.40717
1895000000,-13.326906,-257.68546
1896000000,-13.347822,-257.61877
1897000000,-13.39417,-257.76367
1898000000,-13.425104,-257.62964
1899000000,-13.455094,-257.83737
1900000000,-13.482172,-258.02786
1901000000,-13.494857,-258.1727
1902000000,-13.533749,-258.03598
1903000000,-13.538871,-258.2858
1904000000,-13.540297,-258.48816
1905000000,-13.609546,-258.65576
1906000000,-13.621933,-258.65393
1907000000,-13.636185,-258.98465
1908000000,-13.674322,-258.7533
1909000000,-13.666895,-258.9754
1910000000,-13.722,-259.10922
1911000000,-13.724531,-259.53101
1912000000,-13.743509,-259.36978
1913000000,-13.837542,-259.40189
1914000000,-13.816337,-259.42728
1915000000,-13.799961,-259.7193
1916000000,-13.842057,-259.62054
1917000000,-13.883034,-259.92188
1918000000,-13.911231,-259.97433
1919000000,-13.951653,-260.12155
1920000000,-13.989557,-260.24432
1921000000,-13.991882,-260.53204
1922000000,-13.986488,-260.48346
1923000000,-14.032567,-260.46494
1924000000,-14.053116,-260.76556
1925000000,-14.081207,-260.83765
1926000000,-14.13933,-261.13446
1927000000,-14.148784,-260.99014
1928000000,-14.189312,-261.11636
1929000000,-14.205271,-261.2652
1930000000,-14.204985,-261.43753
1931000000,-14.209585,-261.25854
1932000000,-14.252051,-261.64716
1933000000,-14.292105,-261.78943
1934000000,-14.257471,-261.94748
1935000000,-14.335232,-261.90201
1936000000,-14.34236,-262.09332
1937000000,-14.372514,-262.03391
1938000000,-14.412387,-262.28403
1939000000,-14.447492,-262.40808
1940000000,-14.473463,-262.49301
1941000000,-14.458066,-262.6846
1942000000,-14.482977,-262.49045
1943000000,-14.523242,-262.84637
1944000000,-14.577362,-262.73923
1945000000,-14.550876,-263.08533
1946000000,-14.587816,-263.14594
1947000000,-14.632276,-263.38828
1948000000,-14.664723,-263.29474
1949000000,-14.673494,-263.36978
1950000000,-14.676703,-263.52634
1951000000,-14.734956,-263.51846
1952000000,-14.773371,-263.67584
1953000000,-14.782337,-263.85797
1954000000,-14.778153,-264.05322
1955000000,-14.817387,-263.90363
1956000000,-14.871288,-264.08066
1957000000,-14.87611,-264.29581
1958000000,-14.899817,-264.42154
1959000000,-14.909976,-264.48822
1960000000,-14.948638,-264.55212
1961000000,-14.993662,-264.56644
1962000000,-14.983497,-264.92584
1963000000,-15.03708,-264.7124
1964000000,-15.051888,-264.89487
1965000000,-15.071732,-265.21753
1966000000,-15.094141,-265.02176
1967000000,-15.140398,-265.35419
1968000000,-15.176826,-265.38757
1969000000,-15.14926,-265.48096
1970000000,-15.218429,-265.59302
1971000000,-15.233041,-265.97238
1972000000,-15.249074,-265.86069
1973000000,-15.250326,-265.96567
1974000000,-15.318263,-266.0097
1975000000,-15.328896,-266.27469
1976000000,-15.347015,-266.27856
1977000000,-15.384551,-266.19406
1978000000,-15.407307,-266.51221
1979000000,-15.461205,-266.35468
1980000000,-15.455877,-266.56061
1981000000,-15.494617,-266.72678
1982000000,-15.524443,-266.67599
1983000000,-15.541666,-267.10248
1984000000,-15.557491,-267.07489
1985000000,-15.585739,-267.35754
1986000000,-15.622722,-267.2395
1987000000,-15.647676,-267.11557
1988000000,-15.654419,-267.53232
1989000000,-15.682877,-267.50067
1990000000,-15.731737,-267.54385
1991000000,-15.726493,-267.89725
1992000000,-15.785335,-268.01196
1993000000,-15.82333,-267.94913
1994000000,-15.827644,-268.03976
1995000000,-15.844582,-268.17761
1996000000,-15.872804,-268.32828
1997000000,-15.908407,-268.37479
1998000000,-15.945377,-268.36807
1999000000,-15.978391,-268.66351
2000000000,-15.991058,-268.58395
2001000000,-16.005951,-268.7735
2002000000,-16.005247,-268.56927
2003000000,-16.090584,-268.87555
2004000000,-16.075064,-269.00586
2005000000,-16.107944,-269.1507
2006000000,-16.117432,-269.13251
2007000000,-16.180616,-269.1272
2008000000,-16.194588,-269.37726
2009000000,-16.203682,-269.42157
2010000000,-16.214821,-269.60782
2011000000,-16.271706,-269.4411
2012000000,-16.295004,-269.53137
2013000000,-16.342432,-269.74872
2014000000,-16.340643,-269.83417
2015000000,-16.401386,-269.9357
2016000000,-16.432327,-270.13919
2017000000,-16.426054,-270.27484
2018000000,-16.423122,-270.25812
2019000000,-16.495386,-270.3945
2020000000,-16.506453,-270.39447
2021000000,-16.559263,-270.48734
2022000000,-16.565886,-270.49002
2023000000,-16.606552,-270.90289
2024000000,-16.620155,-270.76523
2025000000,-16.668226,-271.21982
2026000000,-16.667717,-270.96622
2027000000,-16.691017,-271.30334
2028000000,-16.726753,-271.24295
2029000000,-16.729879,-271.07233
2030000000,-16.786228,-271.32004
2031000000,-16.796537,-271.41318
2032000000,-16.825378,-271.63882
2033000000,-16.831421,-271.6745
2034000000,-16.881329,-271.64304
2035000000,-16.901325,-271.94434
2036000000,-16.937977,-271.97357
2037000000,-16.974678,-272.02618
2038000000,-16.972654,-272.27155
2039000000,-17.028191,-272.06763
2040000000,-17.055876,-272.16412
2041000000,-17.066074,-272.24365
2042000000,-17.082872,-272.6113
2043000000,-17.119179,-272.40884
2044000000,-17.137766,-272.67538
2045000000,-17.156021,-272.56433
2046000000,-17.180956,-272.784
2047000000,-17.206955,-272.85968
2048000000,-17.271276,-272.94421
2049000000,-17.288654,-273.23441
2050000000,-17.338284,-273.2493
2051000000,-17.370199,-273.26895
2052000000,-17.369987,-273.36655
2053000000,-17.357376,-273.48929
2054000000,-17.42861,-273.58786
2055000000,-17.432463,-273.59631
2056000000,-17.484299,-273.58499
2057000000,-17.522646,-273.81738
2058000000,-17.555227,-273.94162
2059000000,-17.532898,-274.06049
2060000000,-17.577194,-274.14648
2061000000,-17.600065,-274.08383
2062000000,-17.638317,-274.13034
2063000000,-17.699156,-274.19016
2064000000,-17.673513,-274.41187
2065000000,-17.733891,-274.54752
2066000000,-17.747356,-274.526
2067000000,-17.770399,-274.65546
2068000000,-17.796425,-274.87415
2069000000,-17.829649,-274.75836
2070000000,-17.826714,-274.97418
2071000000,-17.905493,-275.0477
2072000000,-17.895292,-275.05164
2073000000,-17.938002,-275.07843
2074000000,-17.964788,-274.98071
2075000000,-18.008581,-275.38519
2076000000,-18.013004,-275.22171
2077000000,-18.053543,-275.39313
2078000000,-18.066872,-275.58536
2079000000,-18.123995,-275.57288
2080000000,-18.152996,-275.64017
2081000000,-18.186367,-275.93903
2082000000,-18.190519,-275.87476
2083000000,-18.223764,-276.03378
2084000000,-18.268633,-276.099
2085000000,-18.305954,-276.04312
2086000000,-18.329918,-276.0787
2087000000,-18.306614,-276.37531
2088000000,-18.36861,-276.28558
2089000000,-18.37604,-276.3063
2090000000,-18.399107,-276.44897
2091000000,-18.476082,-276.6705
2092000000,-18.483267,-276.66156
2093000000,-18.5247,-276.77811
2094000000,-18.535116,-276.64417
2095000000,-18.556107,-276.97479
2096000000,-18.548809,-276.94098
2097000000,-18.63415,-277.02737
2098000000,-18.608137,-277.0033
2099000000,-18.637293,-277.14355
2100000000,-18.704493,-277.26941
2101000000,-18.755098,-277.43344
2102000000,-18.749559,-277.36703
2103000000,-18.798363,-277.56662
2104000000,-18.800035,-277.5159
2105000000,-18.835691,-277.81534
2106000000,-18.878506,-277.66409
2107000000,-18.912399,-277.72916
2108000000,-18.922976,-277.80756
2109000000,-18.92367,-277.74808
2110000000,-18.999006,-278.07047
2111000000,-19.010895,-278.21936
2112000000,-19.052446,-278.22134
2113000000,-19.090412,-278.33472
2114000000,-19.100786,-278.25739
2115000000,-19.132675,-278.47598
2116000000,-19.193245,-278.56567
2117000000,-19.172344,-278.54572
2118000000,-19.21924,-278.56891
2119000000,-19.251055,-278.53354
2120000000,-19.290619,-278.6423
2121000000,-19.32719,-278.84412
2122000000,-19.335184,-278.92749
2123000000,-19.358742,-278.99298
2124000000,-19.370821,-279.05746
2125000000,-19.454836,-279.11548
2126000000,-19.424089,-279.194
2127000000,-19.46973,-279.3324
2128000000,-19.51506,-279.39807
2129000000,-19.539379,-279.47141
2130000000,-19.561729,-279.44852
2131000000,-19.599163,-279.6423
2132000000,-19.626846,-279.62231
2133000000,-19.662745,-279.83209
2134000000,-19.716831,-279.84756
2135000000,-19.731146,-279.84183
2136000000,-19.750746,-279.71027
2137000000,-19.776766,-280.10306
2138000000,-19.802752,-280.13358
2139000000,-19.824484,-280.11148
2140000000,-19.868078,-280.16132
2141000000,-19.913294,-280.1442
2142000000,-19.916313,-280.32959
2143000000,-19.989313,-280.41116
2144000000,-19.988241,-280.44589
2145000000,-19.984514,-280.68741
2146000000,-20.037817,-280.81296
2147000000,-20.106812,-280.69537
2148000000,-20.092081,-280.56198
2149000000,-20.153074,-280.81259
2150000000,-20.130659,-280.97021
2151000000,-20.182144,-280.96774
2152000000,-20.19632,-281.13211
2153000000,-20.290043,-281.09903
2154000000,-20.293751,-281.30646
2155000000,-20.362787,-281.42111
2156000000,-20.347837,-281.23456
2157000000,-20.375919,-281.26981
2158000000,-20.385084,-281.46201
2159000000,-20.416851,-281.40274
2160000000,-20.46343,-281.58014
2161000000,-20.497759,-281.70654
2162000000,-20.547504,-281.81885
2163000000,-20.569748,-281.48047
2164000000,-20.604837,-281.86206
2165000000,-20.63578,-282.09067
2166000000,-20.664627,-282.04041
2167000000,-20.688253,-282.08301
2168000000,-20.705547,-282.08347
2169000000,-20.771568,-282.20105
2170000000,-20.777544,-282.33664
2171000000,-20.805479,-282.45953
2172000000,-20.85078,-282.3143
2173000000,-20.896276,-282.62445
2174000000,-20.899391,-282.47522
2175000000,-20.915064,-282.45782
2176000000,-20.980003,-282.69708
2177000000,-21.027618,-282.57208
2178000000,-21.002823,-282.72076
2179000000,-21.057987,-282.77161
2180000000,-21.124626,-282.9884
2181000000,-21.124077,-283.1236
2182000000,-21.158878,-283.11264
2183000000,-21.21586,-283.04477
2184000000,-21.216738,-283.06281
2185000000,-21.267862,-283.12598
2186000000,-21.283131,-283.18198
2187000000,-21.354414,-283.2478
2188000000,-21.38237,-283.41885
2189000000,-21.376276,-283.44678
2190000000,-21.430191,-283.47546
2191000000,-21.443516,-283.72861
2192000000,-21.460438,-283.53708
2193000000,-21.519878,-283.7565
2194000000,-21.551706,-283.57428
2195000000,-21.587051,-283.70316
2196000000,-21.594194,-284.00024
2197000000,-21.640247,-284.05261
2198000000,-21.665165,-283.8674
2199000000,-21.719507,-284.08316
2200000000,-21.744139,-284.16794
2201000000,-21.754221,-284.25168
2202000000,-21.820599,-284.12625
2203000000,-21.856113,-284.23578
2204000000,-21.841347,-284.68295
2205000000,-21.918898,-284.30319
2206000000,-21.976095,-284.37286
2207000000,-21.973473,-284.59152
2208000000,-21.968027,-284.64633
2209000000,-22.063187,-284.69409
2210000000,-22.105417,-284.67365
2211000000,-22.122675,-284.58795
2212000000,-22.183481,-284.89246
2213000000,-22.186726,-284.90933
2214000000,-22.201992,-284.98053
2215000000,-22.245003,-284.87756
2216000000,-22.332458,-285.08365
2217000000,-22.296352,-285.19901
2218000000,-22.356455,-285.23761
2219000000,-22.375002,-285.23331
2220000000,-22.45575,-285.26642
2221000000,-22.479757,-285.4227
2222000000,-22.497305,-285.1637
2223000000,-22.540375,-285.25726
2224000000,-22.569227,-285.39465
2225000000,-22.619953,-285.46582
2226000000,-22.649326,-285.65973
2227000000,-22.666351,-285.77475
2228000000,-22.66551,-285.64484
2229000000,-22.737677,-285.62189
2230000000,-22.805727,-285.81741
2231000000,-22.827362,-285.99634
2232000000,-22.87925,-285.88406
2233000000,-22.885065,-286.17551
2234000000,-22.901318,-285.96332
2235000000,-22.946394,-286.11768
2236000000,-22.995886,-286.10635
2237000000,-23.049719,-286.23212
2238000000,-23.057394,-286.17282
2239000000,-23.105877,-286.18329
2240000000,-23.117352,-286.37436
2241000000,-23.173607,-286.14792
2242000000,-23.200769,-286.23636
2243000000,-23.269941,-286.22733
2244000000,-23.286093,-286.40192
2245000000,-23.295366,-286.59265
2246000000,-23.356138,-286.64407
2247000000,-23.365765,-286.65378
2248000000,-23.374065,-286.40448
2249000000,-23.463331,-286.61349
2250000000,-23.497183,-286.66803
2251000000,-23.522757,-286.66193
2252000000,-23.551634,-286.74054
2253000000,-23.601395,-286.64929
2254000000,-23.617601,-286.75897
2255000000,-23.697559,-286.94473
2256000000,-23.699276,-286.89935
2257000000,-23.760769,-286.85834
2258000000,-23.834003,-287.19174
2259000000,-23.806435,-287.2395
2260000000,-23.841774,-287.09485
2261000000,-23.899136,-287.09756
2262000000,-23.961733,-287.16388
2263000000,-24.00419,-287.55502
2264000000,-24.01325,-287.36719
2265000000,-24.092443,-287.17764
2266000000,-24.114609,-287.29675
2267000000,-24.104685,-287.44897
2268000000,-24.148607,-287.6145
2269000000,-24.198732,-287.47446
2270000000,-24.212263,-287.33545
2271000000,-24.295376,-287.63751
2272000000,-24.314114,-287.6055
2273000000,-24.35265,-287.78839
2274000000,-24.400082,-287.59729
2275000000,-24.43717,-287.45889
2276000000,-24.471087,-287.79974
2277000000,-24.520613,-287.94522
2278000000,-24.549009,-287.66653
2279000000,-24.594412,-287.77417
2280000000,-24.63471,-287.97534
2281000000,-24.649244,-287.87131
2282000000,-24.71871,-288.1767
2283000000,-24.758188,-287.96008
2284000000,-24.786428,-288.14075
2285000000,-24.821188,-288.22009
2286000000,-24.899181,-288.46692
2287000000,-24.903721,-288.26825
2288000000,-24.912861,-288.13531
2289000000,-24.995188,-288.17923
2290000000,-25.018066,-288.21332
2291000000,-25.063875,-288.27945
2292000000,-25.150297,-288.09311
2293000000,-25.160112,-288.40103
2294000000,-25.171116,-288.21194
2295000000,-25.236879,-288.28329
2296000000,-25.234804,-288.44077
2297000000,-25.318647,-288.59296
2298000000,-25.38895,-288.55981
2299000000,-25.382673,-288.4339
2300000000,-25.403776,-288.51273
2301000000,-25.465942,-288.76852
2302000000,-25.510942,-288.76498
2303000000,-25.586874,-288.73874
2304000000,-25.636339,-288.55679
2305000000,-25.656319,-288.66943
2306000000,-25.726841,-288.59625
2307000000,-25.760643,-288.81143
2308000000,-25.777529,-288.87454
2309000000,-25.783943,-288.83884
2310000000,-25.895729,-288.71481
2311000000,-25.881641,-288.67459
2312000000,-25.959221,-288.83017
2313000000,-26.001646,-288.78024
2314000000,-25.995169,-288.7908
2315000000,-26.074636,-288.86374
2316000000,-26.112896,-288.80359
2317000000,-26.153217,-288.80072
2318000000,-26.21307,-289.07321
2319000000,-26.213251,-288.96725
2320000000,-26.276255,-288.94608
2321000000,-26.310179,-288.66202
2322000000,-26.325083,-288.92346
2323000000,-26.393913,-289.12164
2324000000,-26.454094,-289.013
2325000000,-26.502911,-289.20181
2326000000,-26.555262,-288.90298
2327000000,-26.6103,-289.02078
2328000000,-26.65333,-289.0806
2329000000,-26.697515,-289.3353
2330000000,-26.707272,-289.04642
2331000000,-26.764631,-289.04138
2332000000,-26.856575,-289.4191
2333000000,-26.928654,-289.18817
2334000000,-26.947895,-289.1937
2335000000,-26.940262,-289.35776
2336000000,-26.988914,-289.16782
2337000000,-27.086182,-289.08502
2338000000,-27.122433,-289.20554
2339000000,-27.173084,-289.3429
2340000000,-27.148735,-289.22946
2341000000,-27.244087,-289.01147
2342000000,-27.257875,-289.31903
2343000000,-27.345835,-289.46356
2344000000,-27.40461,-289.15359
2345000000,-27.429592,-288.94907
2346000000,-27.484762,-289.4371
2347000000,-27.521069,-289.12244
2348000000,-27.56229,-289.38336
2349000000,-27.662214,-288.99948
2350000000,-27.684984,-289.34622
2351000000,-27.749939,-289.11151
2352000000,-27.755024,-289.25839
2353000000,-27.793667,-289.43488
2354000000,-27.861126,-289.32309
2355000000,-27.910048,-289.0896
2356000000,-27.957628,-289.32962
2357000000,-28.013897,-289.29205
2358000000,-28.036032,-289.16129
2359000000,-28.178579,-289.43423
2360000000,-28.209644,-289.30334
2361000000,-28.280327,-289.24957
2362000000,-28.315536,-289.30429
2363000000,-28.344296,-289.03339
2364000000,-28.355291,-289.18692
2365000000,-28.464354,-289.30823
2366000000,-28.505829,-289.07452
2367000000,-28.575531,-289.27737
2368000000,-28.589621,-288.92932
2369000000,-28.67684,-288.93689
2370000000,-28.693335,-289.02985
2371000000,-28.747972,-288.73581
2372000000,-28.855869,-289.36383
2373000000,-28.91643,-288.95209
2374000000,-28.933901,-288.8143
2375000000,-28.967262,-288.52081
2376000000,-29.019331,-288.32983
2377000000,-29.109007,-288.88037
2378000000,-29.178474,-288.95535
2379000000,-29.216669,-288.97491
2380000000,-29.279095,-289.20569
2381000000,-29.337902,-288.88446
2382000000,-29.409325,-288.75754
2383000000,-29.488747,-288.84818
2384000000,-29.498575,-288.4295
2385000000,-29.537971,-288.40033
2386000000,-29.649435,-288.72342
2387000000,-29.637312,-288.38419
2388000000,-29.76231,-288.7832
2389000000,-29.789248,-288.31076
2390000000,-29.843594,-288.42435
2391000000,-29.877253,-288.57309
2392000000,-29.940975,-288.08505
2393000000,-29.989393,-288.0159
2394000000,-30.075165,-288.09177
2395000000,-30.102262,-288.18817
2396000000,-30.234665,-287.83179
2397000000,-30.263391,-288.01474
2398000000,-30.382374,-288.13757
2399000000,-30.404337,-288.18753
2400000000,-30.456202,-288.27502
2401000000,-30.473141,-287.90186
2402000000,-30.591856,-287.7746
2403000000,-30.697716,-287.68845
2404000000,-30.679106,-287.69461
2405000000,-30.785191,-287.75183
2406000000,-30.851706,-287.5896
2407000000,-30.903484,-287.6218
2408000000,-30.97397,-287.14944
2409000000,-31.026922,-287.39417
2410000000,-31.08436,-287.70428
2411000000,-31.145111,-286.94226
2412000000,-31.244217,-287.20032
2413000000,-31.293648,-287.17426
2414000000,-31.338118,-286.79947
2415000000,-31.445164,-286.96393
2416000000,-31.501364,-286.76086
2417000000,-31.577106,-286.54254
2418000000,-31.568731,-286.61392
2419000000,-31.695038,-286.23352
2420000000,-31.789509,-286.35492
2421000000,-31.827866,-286.64755
2422000000,-31.886477,-286.3605
2423000000,-31.938118,-286.03888
2424000000,-32.093128,-285.89334
2425000000,-32.125721,-285.84726
2426000000,-32.211296,-285.60089
2427000000,-32.250843,-285.54385
2428000000,-32.287327,-285.83957
2429000000,-32.388306,-285.20331
2430000000,-32.497643,-285.28116
2431000000,-32.590923,-284.93536
2432000000,-32.640297,-285.03983
2433000000,-32.754784,-284.77701
2434000000,-32.741982,-284.83258
2435000000,-32.906448,-284.46927
2436000000,-32.917988,-284.00522
2437000000,-33.015785,-283.93167
2438000000,-33.061543,-284.3295
2439000000,-33.185104,-283.77512
2440000000,-33.249668,-283.68811
2441000000,-33.345924,-283.7515
2442000000,-33.421108,-283.25314
2443000000,-33.473976,-283.09113
2444000000,-33.598328,-283.29105
2445000000,-33.647327,-282.81033
2446000000,-33.735062,-282.8335
2447000000,-33.834408,-282.10104
2448000000,-33.837799,-282.32428
2449000000,-33.943096,-281.92429
2450000000,-34.033569,-282.30243
2451000000,-34.064663,-281.23639
2452000000,-34.195004,-281.69968
2453000000,-34.267071,-280.9469
2454000000,-34.322979,-281.09186
2455000000,-34.504757,-280.71426
2456000000,-34.549316,-280.42343
2457000000,-34.702293,-280.30945
2458000000,-34.733475,-280.14636
2459000000,-34.803085,-279.74991
2460000000,-34.868187,-279.52625
2461000000,-34.940243,-279.26675
2462000000,-35.036781,-279.12433
2463000000,-35.144287,-278.53284
2464000000,-35.194271,-278.54117
2465000000,-35.290588,-278.06235
2466000000,-35.368336,-277.892
2467000000,-35.526207,-277.56329
2468000000,-35.561062,-276.92422
2469000000,-35.711102,-277.19366
2470000000,-35.785259,-276.55148
2471000000,-35.843956,-275.99152
2472000000,-35.956085,-276.18573
2473000000,-35.997906,-275.68069
2474000000,-36.145058,-275.21097
2475000000,-36.379898,-274.65375
2476000000,-36.359909,-274.80469
2477000000,-36.422993,-273.74796
2478000000,-36.600712,-274.01221
2479000000,-36.649879,-273.41592
2480000000,-36.767429,-272.58508
2481000000,-36.766125,-272.27789
2482000000,-36.927719,-271.43988
2483000000,-37.028503,-271.24484
2484000000,-37.147266,-270.85953
2485000000,-37.207714,-270.59012
2486000000,-37.276215,-269.95459
2487000000,-37.468483,-269.02057
2488000000,-37.514637,-268.40515
2489000000,-37.664059,-268.44815
2490000000,-37.716053,-267.70157
2491000000,-37.775948,-267.57751
2492000000,-37.857613,-265.89432
2493000000,-38.046879,-266.33966
2494000000,-38.101189,-265.27426
2495000000,-38.185963,-264.6748
2496000000,-38.327221,-264.88031
2497000000,-38.488655,-264.03793
2498000000,-38.526028,-262.72827
2499000000,-38.570427,-262.2146
2500000000,-38.79488,-262.22519
2501000000,-38.78669,-261.70575
2502000000,-38.908188,-260.53842
2503000000,-39.021114,-259.29764
2504000000,-39.122322,-258.9718
2505000000,-39.224358,-257.89944
2506000000,-39.247437,-257.08432
2507000000,-39.421371,-256.37152
2508000000,-39.464596,-255.79286
2509000000,-39.596836,-254.39316
2510000000,-39.616245,-253.5157
2511000000,-39.679276,-252.8289
2512000000,-39.962463,-251.46921
2513000000,-39.979626,-251.33701
2514000000,-39.950272,-250.15117
2515000000,-40.090862,-248.90709
2516000000,-40.00695,-248.33838
2517000000,-40.203918,-247.60324
2518000000,-40.218353,-245.79602
2519000000,-40.330959,-245.01367
2520000000,-40.423496,-244.1655
2521000000,-40.379997,-242.83318
2522000000,-40.568066,-242.01076
2523000000,-40.552292,-241.13585
2524000000,-40.713203,-239.40477
2525000000,-40.643719,-238.6129
2526000000,-40.748047,-237.03906
2527000000,-40.807247,-236.84641
2528000000,-40.761593,-234.86174
2529000000,-40.830269,-233.35959
2530000000,-40.834171,-233.26724
2531000000,-40.959763,-232.01227
2532000000,-40.938923,-229.63205
2533000000,-40.98621,-229.24796
2534000000,-40.918926,-227.69188
2535000000,-41.045837,-227.45412
2536000000,-41.061512,-226.84193
2537000000,-41.051556,-223.98071
2538000000,-40.995781,-223.27768
2539000000,-40.9389,-222.64429
2540000000,-40.974861,-220.86305
2541000000,-40.897602,-220.18901
2542000000,-41.016129,-218.28081
2543000000,-40.964294,-217.30659
2544000000,-41.003338,-216.2283
2545000000,-40.965439,-215.90204
2546000000,-40.930779,-214.20761
2547000000,-40.860069,-212.03357
2548000000,-40.763405,-211.99919
2549000000,-40.689625,-210.99959
2550000000,-40.67606,-208.88312
2551000000,-40.699421,-208.1006
2552000000,-40.542919,-207.11598
2553000000,-40.653538,-205.97826
2554000000,-40.465088,-204.8409
2555000000,-40.402069,-203.77379
2556000000,-40.397694,-203.49307
2557000000,-40.402439,-202.06639
2558000000,-40.302803,-201.00066
2559000000,-40.062553,-199.81111
2560000000,-40.031185,-198.23759
2561000000,-40.167122,-197.76231
2562000000,-39.993412,-197.90588
2563000000,-39.860428,-196.40591
2564000000,-39.833633,-194.91704
2565000000,-39.747437,-194.5992
2566000000,-39.765682,-194.06096
2567000000,-39.592026,-193.49989
2568000000,-39.444759,-191.93782
2569000000,-39.437241,-191.52547
2570000000,-39.340096,-190.30145
2571000000,-39.135857,-190.06566
2572000000,-39.182247,-189.01744
2573000000,-39.11137,-187.82939
2574000000,-38.791512,-187.28799
2575000000,-38.828754,-186.96414
2576000000,-38.797188,-186.11684
2577000000,-38.695389,-185.43806
2578000000,-38.605148,-184.82173
2579000000,-38.5844,-184.44711
2580000000,-38.331978,-182.96964
2581000000,-38.319595,-182.90762
2582000000,-38.312508,-181.93292
2583000000,-38.089359,-181.25919
2584000000,-38.018616,-182.15717
2585000000,-37.969379,-180.5882
2586000000,-37.87693,-179.89711
2587000000,-37.702374,-178.9576
2588000000,-37.644699,-178.82919
2589000000,-37.63427,-178.4577
2590000000,-37.431606,-177.96959
2591000000,-37.404106,-177.63406
2592000000,-37.299404,-177.02768
2593000000,-37.159451,-176.4165
2594000000,-37.095013,-175.98822
2595000000,-37.026634,-175.13058
2596000000,-36.82584,-175.57367
2597000000,-36.854836,-174.91498
2598000000,-36.625317,-174.62762
2599000000,-36.58046,-174.24068
2600000000,-36.591316,-173.78636
2601000000,-36.391277,-173.23407
2602000000,-36.347115,-173.04259
2603000000,-36.319889,-172.68602
2604000000,-36.172707,-171.89059
2605000000,-36.109703,-171.77277
2606000000,-36.013042,-171.56673
2607000000,-35.984219,-170.91817
2608000000,-35.847527,-170.80984
2609000000,-35.794762,-170.47485
2610000000,-35.596371,-170.34496
2611000000,-35.526619,-170.30415
2612000000,-35.509666,-169.97478
2613000000,-35.391163,-169.45753
2614000000,-35.413193,-169.13805
2615000000,-35.240208,-168.90321
2616000000,-35.175362,-168.68762
2617000000,-35.077251,-168.07799
2618000000,-35.036022,-168.08226
2619000000,-35.008842,-167.95293
2620000000,-34.801212,-167.57484
2621000000,-34.771381,-167.16449
2622000000,-34.732433,-167.48637
2623000000,-34.62653,-167.06859
2624000000,-34.507725,-166.62199
2625000000,-34.457314,-166.5766
2626000000,-34.336166,-166.65474
2627000000,-34.282677,-165.83884
2628000000,-34.214268,-165.90256
2629000000,-34.147312,-165.1785
2630000000,-34.09462,-165.26987
2631000000,-33.992874,-165.41159
2632000000,-33.929691,-164.63867
2633000000,-33.840015,-164.67947
2634000000,-33.75909,-164.7793
2635000000,-33.658226,-164.65546
2636000000,-33.629772,-164.76749
2637000000,-33.529354,-164.09886
2638000000,-33.467709,-164.06244
2639000000,-33.461258,-163.56749
2640000000,-33.372295,-163.82892
2641000000,-33.292683,-163.68764
2642000000,-33.200531,-163.28314
2643000000,-33.152397,-163.18558
2644000000,-33.091385,-163.10484
2645000000,-33.037952,-163.06656
2646000000,-32.966869,-162.78819
2647000000,-32.88533,-162.68869
2648000000,-32.82523,-162.7748
2649000000,-32.771149,-162.11325
2650000000,-32.597061,-162.35596
2651000000,-32.608116,-162.09891
2652000000,-32.57885,-162.00597
2653000000,-32.509499,-162.01207
2654000000,-32.388233,-161.91383
2655000000,-32.307686,-161.27048
2656000000,-32.24052,-161.60075
2657000000,-32.291317,-161.05304
2658000000,-32.171188,-161.39342
2659000000,-32.10936,-161.18317
2660000000,-32.027756,-160.96199
2661000000,-31.971851,-161.56671
2662000000,-31.896084,-161.06821
2663000000,-31.804028,-160.85426
2664000000,-31.813263,-160.93321
2665000000,-31.742792,-160.79916
2666000000,-31.676094,-160.7204
2667000000,-31.585138,-160.97723
2668000000,-31.574261,-160.40121
2669000000,-31.533638,-160.82225
2670000000,-31.445555,-160.35649
2671000000,-31.379013,-160.334
2672000000,-31.276047,-160.09682
2673000000,-31.282827,-160.41052
2674000000,-31.225964,-160.21065
2675000000,-31.159134,-159.60341
2676000000,-31.072968,-159.89424
2677000000,-31.040079,-159.92206
2678000000,-31.008606,-159.74452
2679000000,-30.934889,-159.59535
2680000000,-30.871616,-159.24489
2681000000,-30.8356,-159.59409
2682000000,-30.805182,-159.56462
2683000000,-30.720201,-159.65875
2684000000,-30.702557,-159.44421
2685000000,-30.624607,-159.50359
2686000000,-30.584848,-159.02115
2687000000,-30.539701,-159.03934
2688000000,-30.511845,-159.21912
2689000000,-30.411337,-158.8045
2690000000,-30.345894,-158.86194
2691000000,-30.305349,-159.15828
2692000000,-30.22646,-158.85117
2693000000,-30.213751,-158.78456
2694000000,-30.141972,-158.59923
2695000000,-30.100668,-158.69994
2696000000,-30.059851,-158.76755
2697000000,-29.97226,-158.77516
2698000000,-29.947533,-158.58801
2699000000,-29.896482,-158.71481
2700000000,-29.878607,-158.72115
2701000000,-29.817574,-158.53241
2702000000,-29.744663,-158.47565
2703000000,-29.709332,-158.41791
2704000000,-29.66136,-158.21523
2705000000,-29.628653,-157.95967
2706000000,-29.599306,-157.93181
2707000000,-29.49509,-157.91386
2708000000,-29.403389,-157.78059
2709000000,-29.417187,-158.25452
2710000000,-29.407736,-158.04778
2711000000,-29.324629,-158.10995
2712000000,-29.295069,-157.96509
2713000000,-29.215384,-157.89906
2714000000,-29.1849,-158.13028
2715000000,-29.160368,-157.96323
2716000000,-29.114519,-157.87492
2717000000,-29.057186,-157.75735
2718000000,-29.0121,-157.78738
2719000000,-28.952719,-158.13239
2720000000,-28.947861,-157.28918
2721000000,-28.879251,-157.75812
2722000000,-28.790863,-157.50995
2723000000,-28.76712,-157.63358
2724000000,-28.73908,-157.68242
2725000000,-28.676928,-157.46832
2726000000,-28.645313,-157.55037
2727000000,-28.644516,-157.35236
2728000000,-28.562517,-157.39459
2729000000,-28.486841,-157.34267
2730000000,-28.443602,-157.48335
2731000000,-28.415182,-157.29044
2732000000,-28.412275,-157.34163
2733000000,-28.336744,-157.02602
2734000000,-28.258171,-157.44804
2735000000,-28.250538,-157.325
2736000000,-28.189844,-157.06032
2737000000,-28.134817,-157.19667
2738000000,-28.120447,-157.10735
2739000000,-28.010784,-157.28609
2740000000,-28.028109,-157.30296
2741000000,-27.953283,-157.01115
2742000000,-27.941486,-157.00269
2743000000,-27.88987,-157.09166
2744000000,-27.862425,-157.09254
2745000000,-27.826147,-157.15643
2746000000,-27.804541,-156.92572
2747000000,-27.771177,-157.06689
2748000000,-27.694929,-157.07359
2749000000,-27.661392,-156.83003
2750000000,-27.582428,-156.84465
2751000000,-27.559576,-156.94804
2752000000,-27.532026,-156.95068
2753000000,-27.49185,-156.91705
2754000000,-27.430353,-157.133
2755000000,-27.43523,-156.90257
2756000000,-27.388994,-156.73357
2757000000,-27.31493,-156.74396
2758000000,-27.25629,-156.54387
2759000000,-27.254993,-156.76601
2760000000,-27.24325,-156.61443
2761000000,-27.175337,-156.7346
2762000000,-27.168814,-156.70108
2763000000,-27.07637,-156.82693
2764000000,-27.061226,-156.58188
2765000000,-26.999088,-156.60501
2766000000,-26.96137,-156.70384
2767000000,-26.889854,-156.69012
2768000000,-26.886713,-156.70235
2769000000,-26.821325,-156.78398
2770000000,-26.830486,-156.66049
2771000000,-26.768082,-156.82413
2772000000,-26.736618,-156.82834
2773000000,-26.708511,-156.61064
2774000000,-26.642775,-156.93588
2775000000,-26.582705,-156.67404
2776000000,-26.591944,-156.71414
2777000000,-26.508625,-157.00801
2778000000,-26.508574,-156.58614
2779000000,-26.449564,-156.94974
2780000000,-26.425465,-156.70518
2781000000,-26.387926,-156.89882
2782000000,-26.344698,-156.68561
2783000000,-26.306383,-156.38678
2784000000,-26.3001,-156.69215
2785000000,-26.235176,-156.94624
2786000000,-26.164072,-156.20656
2787000000,-26.196505,-156.6993
2788000000,-26.100922,-156.75502
2789000000,-26.059568,-156.72563
2790000000,-26.044291,-156.75484
2791000000,-26.018019,-156.77596
2792000000,-25.958572,-156.71762
2793000000,-25.964977,-156.67163
2794000000,-25.908867,-156.7394
2795000000,-25.856232,-156.64169
2796000000,-25.804888,-156.69077
2797000000,-25.799931,-156.86969
2798000000,-25.749285,-156.59319
2799000000,-25.669468,-156.57846
2800000000,-25.630381,-156.75864
2801000000,-25.657822,-156.61617
2802000000,-25.586491,-156.70055
2803000000,-25.567677,-156.74715
2804000000,-25.499599,-156.82339
2805000000,-25.529638,-156.59099
2806000000,-25.4594,-157.05553
2807000000,-25.425188,-156.88208
2808000000,-25.354179,-156.76103
2809000000,-25.321217,-156.74809
2810000000,-25.288214,-156.89452
2811000000,-25.231293,-156.8732
2812000000,-25.207962,-157.12555
2813000000,-25.202808,-157.07965
2814000000,-25.137415,-156.92227
2815000000,-25.104795,-157.08295
2816000000,-25.113144,-157.0195
2817000000,-25.033968,-157.22861
2818000000,-24.992817,-157.08885
2819000000,-24.953878,-156.88052
2820000000,-24.965736,-157.07001
2821000000,-24.894943,-156.91177
2822000000,-24.875738,-157.18733
2823000000,-24.853724,-156.94243
2824000000,-24.788147,-157.06815
2825000000,-24.754534,-157.25879
2826000000,-24.747196,-157.1093
2827000000,-24.7008,-157.21535
2828000000,-24.606686,-157.1767
2829000000,-24.615475,-157.00873
2830000000,-24.579243,-157.16032
2831000000,-24.538797,-157.57201
2832000000,-24.532309,-157.53186
2833000000,-24.47403,-157.35861
2834000000,-24.451498,-157.45761
2835000000,-24.425014,-157.36285
2836000000,-24.407839,-157.19838
2837000000,-24.296324,-157.06944
2838000000,-24.325603,-157.27914
2839000000,-24.312204,-157.48648
2840000000,-24.261816,-157.39035
2841000000,-24.21937,-157.52235
2842000000,-24.18343,-157.66283
2843000000,-24.146719,-157.50313
2844000000,-24.118439,-157.55226
2845000000,-24.097233,-157.65263
2846000000,-24.089336,-157.64194
2847000000,-23.981281,-157.92857
2848000000,-24.004261,-157.679
2849000000,-23.947075,-157.72882
2850000000,-23.896858,-157.7039
2851000000,-23.890944,-157.78108
2852000000,-23.878042,-157.98137
2853000000,-23.843061,-157.92564
2854000000,-23.796631,-157.9379
2855000000,-23.797018,-158.07172
2856000000,-23.761572,-157.88785
2857000000,-23.699015,-158.08708
2858000000,-23.690817,-158.10364
2859000000,-23.657454,-158.11169
2860000000,-23.624861,-158.1019
2861000000,-23.576937,-158.27222
2862000000,-23.52347,-157.94122
2863000000,-23.492691,-157.8107
2864000000,-23.473631,-158.29431
2865000000,-23.4298,-158.02664
2866000000,-23.419815,-158.3141
2867000000,-23.382246,-158.29739
2868000000,-23.370203,-158.47147
2869000000,-23.337,-158.22272
2870000000,-23.260935,-158.2352
2871000000,-23.26462,-158.41042
2872000000,-23.260355,-158.45898
2873000000,-23.185465,-158.54945
2874000000,-23.138863,-158.63004
2875000000,-23.136745,-158.41316
2876000000,-23.129515,-158.47774
2877000000,-23.08082,-158.47354
2878000000,-23.090727,-158.63396
2879000000,-23.025858,-158.52531
2880000000,-23.009768,-158.66039
2881000000,-22.93914,-158.7816
2882000000,-22.8906,-158.76692
2883000000,-22.926882,-158.56859
2884000000,-22.847952,-158.59271
2885000000,-22.818111,-159.02122
2886000000,-22.793163,-159.04456
2887000000,-22.785572,-158.95393
2888000000,-22.771305,-159.02631
2889000000,-22.667341,-158.96696
2890000000,-22.671791,-158.90033
2891000000,-22.637028,-159.00827
2892000000,-22.584688,-159.06627
2893000000,-22.584394,-159.17049
2894000000,-22.543272,-159.34627
2895000000,-22.499117,-159.1122
2896000000,-22.522179,-159.1073
2897000000,-22.467993,-159.20045
2898000000,-22.435392,-159.19234
2899000000,-22.358921,-159.29138
2900000000,-22.369461,-159.23326
2901000000,-22.34547,-159.44481
2902000000,-22.287294,-159.36792
2903000000,-22.277208,-159.41449
2904000000,-22.213356,-159.64699
2905000000,-22.223221,-159.35309
2906000000,-22.194586,-159.49226
2907000000,-22.161554,-159.81612
2908000000,-22.12656,-159.56464
2909000000,-22.093096,-159.55844
2910000000,-22.031349,-159.81927
2911000000,-22.048389,-159.79155
2912000000,-22.014763,-159.77037
2913000000,-22.005331,-159.66275
2914000000,-21.933046,-159.73315
2915000000,-21.918388,-159.71887
2916000000,-21.900023,-160.0266
2917000000,-21.847519,-159.86101
2918000000,-21.820839,-159.92511
2919000000,-21.788134,-160.23607
2920000000,-21.714108,-160.03407
2921000000,-21.731443,-160.24474
2922000000,-21.681355,-160.29515
2923000000,-21.678057,-160.17456
2924000000,-21.638968,-160.12912
2925000000,-21.627243,-160.26537
2926000000,-21.580111,-160.27069
2927000000,-21.567829,-160.48244
2928000000,-21.533852,-160.35356
2929000000,-21.512754,-160.4108
2930000000,-21.48687,-160.57001
2931000000,-21.442921,-160.65912
2932000000,-21.420544,-160.5685
2933000000,-21.427015,-160.48032
2934000000,-21.32634,-160.57756
2935000000,-21.336451,-160.88631
2936000000,-21.284607,-160.81351
2937000000,-21.268646,-160.83037
2938000000,-21.277025,-160.79851
2939000000,-21.208572,-160.96954
2940000000,-21.186808,-160.99231
2941000000,-21.159992,-160.96648
2942000000,-21.138359,-161.06708
2943000000,-21.092552,-161.16164
2944000000,-21.040434,-161.13351
2945000000,-21.044321,-161.33656
2946000000,-21.023102,-161.22804
2947000000,-20.981716,-161.38976
2948000000,-20.962545,-161.32152
2949000000,-20.935841,-161.53859
2950000000,-20.885988,-161.59181
2951000000,-20.891481,-161.2691
2952000000,-20.85751,-161.28491
2953000000,-20.791937,-161.28857
2954000000,-20.809778,-161.60179
2955000000,-20.777416,-161.78043
2956000000,-20.705467,-161.56046
2957000000,-20.7083,-161.93773
2958000000,-20.667686,-161.53166
2959000000,-20.623411,-161.88747
2960000000,-20.603657,-161.70215
2961000000,-20.562809,-161.97034
2962000000,-20.541424,-161.80211
2963000000,-20.551249,-162.03578
2964000000,-20.474627,-162.11858
2965000000,-20.473118,-162.15985
2966000000,-20.432945,-162.02087
2967000000,-20.402788,-162.03143
2968000000,-20.380024,-162.41528
2969000000,-20.338003,-162.16138
2970000000,-20.336334,-162.18973
2971000000,-20.274618,-162.2382
2972000000,-20.219221,-162.48114
2973000000,-20.226536,-162.48988
2974000000,-20.20936,-162.77892
2975000000,-20.178411,-162.43787
2976000000,-20.163645,-162.56705
2977000000,-20.143559,-162.81274
2978000000,-20.096191,-162.80106
2979000000,-20.068861,-162.93643
2980000000,-20.020264,-162.87187
2981000000,-19.986279,-162.83505
2982000000,-19.986662,-163.04578
2983000000,-19.960121,-163.00706
2984000000,-19.918427,-163.05258
2985000000,-19.901815,-163.05002
2986000000,-19.841944,-163.20766
2987000000,-19.866156,-163.25267
2988000000,-19.818007,-163.15402
2989000000,-19.790567,-163.39577
2990000000,-19.717623,-163.39293
2991000000,-19.72842,-163.37714
2992000000,-19.68363,-163.36298
2993000000,-19.685966,-163.65778
2994000000,-19.671926,-163.39345
2995000000,-19.644085,-163.65781
2996000000,-19.576176,-163.66702
2997000000,-19.558739,-163.82085
2998000000,-19.53125,-164.06076
2999000000,-19.519043,-163.82397
3000000000,-19.494291,-163.93474
3001000000,-19.442108,-163.88106
3002000000,-19.419296,-164.03806
3003000000,-19.378225,-164.11418
3004000000,-19.360394,-164.05145
3005000000,-19.323227,-164.17761
3006000000,-19.309359,-164.31592
3007000000,-19.266729,-164.31767
3008000000,-19.247978,-164.3956
3009000000,-19.220772,-164.48077
3010000000,-19.212833,-164.57143
3011000000,-19.156271,-164.59761
3012000000,-19.094095,-164.51585
3013000000,-19.120726,-164.77373
3014000000,-19.092249,-164.78033
3015000000,-19.046331,-164.61555
3016000000,-19.031385,-164.87935
3017000000,-19.001772,-164.93469
3018000000,-19.000208,-165.05908
3019000000,-18.961063,-165.0863
3020000000,-18.902349,-165.14127
3021000000,-18.876812,-165.13838
3022000000,-18.859951,-165.29057
3023000000,-18.822487,-165.17717
3024000000,-18.806749,-165.36858
3025000000,-18.816936,-165.3951
3026000000,-18.74785,-165.43036
3027000000,-18.720829,-165.31326
3028000000,-18.67207,-165.87102
3029000000,-18.64522,-165.57034
3030000000,-18.634449,-165.85335
3031000000,-18.587244,-165.99721
3032000000,-18.575996,-165.951
3033000000,-18.54493,-165.95358
3034000000,-18.520933,-166.12369
3035000000,-18.466982,-166.16254
3036000000,-18.459808,-166.10788
3037000000,-18.454679,-166.34712
3038000000,-18.412376,-166.07416
3039000000,-18.390751,-166.27179
3040000000,-18.384035,-166.46527
3041000000,-18.316452,-166.55746
3042000000,-18.313128,-166.45599
3043000000,-18.290085,-166.75789
3044000000,-18.276733,-166.7113
3045000000,-18.221054,-166.64278
3046000000,-18.1684,-166.95135
3047000000,-18.209673,-166.93822
3048000000,-18.153957,-167.18346
3049000000,-18.107756,-167.17371
3050000000,-18.052145,-167.14084
3051000000,-18.050718,-167.2063
3052000000,-18.05603,-167.30676
3053000000,-18.017467,-167.15591
3054000000,-17.983557,-167.40956
3055000000,-17.936703,-167.36575
3056000000,-17.940771,-167.35408
3057000000,-17.927324,-167.45686
3058000000,-17.886478,-167.6434
3059000000,-17.83626,-167.55788
3060000000,-17.835606,-167.83311
3061000000,-17.813229,-167.95686
3062000000,-17.80916,-167.75813
3063000000,-17.747974,-167.8266
3064000000,-17.703812,-167.88351
3065000000,-17.675737,-168.34512
3066000000,-17.645504,-168.24387
3067000000,-17.616375,-168.1315
3068000000,-17.60297,-168.50703
3069000000,-17.578772,-168.36638
3070000000,-17.529093,-168.47592
3071000000,-17.550692,-168.63863
3072000000,-17.520649,-168.80396
3073000000,-17.444918,-168.62161
3074000000,-17.462942,-168.7347
3075000000,-17.416653,-168.56537
3076000000,-17.371935,-168.88062
3077000000,-17.363117,-168.97914
3078000000,-17.347603,-168.96695
3079000000,-17.304453,-169.16876
3080000000,-17.277351,-169.16432
3081000000,-17.250437,-169.40106
3082000000,-17.193666,-169.50108
3083000000,-17.201963,-169.50591
3084000000,-17.175125,-169.60651
3085000000,-17.148932,-169.53583
3086000000,-17.088356,-169.75708
3087000000,-17.085501,-169.74466
3088000000,-17.088276,-169.81404
3089000000,-17.00569,-169.95941
3090000000,-16.990692,-170.31032
3091000000,-16.982292,-170.02959
3092000000,-16.935385,-170.31827
3093000000,-16.943647,-170.29301
3094000000,-16.899393,-170.41013
3095000000,-16.870586,-170.30661
3096000000,-16.837883,-170.73802
3097000000,-16.833731,-170.75305
3098000000,-16.816593,-170.62096
3099000000,-16.74206,-170.75183
3100000000,-16.747015,-170.83556
3101000000,-16.720791,-171.04367
3102000000,-16.706923,-170.91206
3103000000,-16.682287,-171.04288
3104000000,-16.634439,-171.23549
3105000000,-16.587523,-171.15758
3106000000,-16.576332,-171.2917
3107000000,-16.549402,-171.47377
3108000000,-16.528622,-171.70143
3109000000,-16.481604,-171.36491
3110000000,-16.487247,-171.75453
3111000000,-16.487688,-171.66412
3112000000,-16.406731,-171.97862
3113000000,-16.393127,-171.9287
3114000000,-16.345207,-172.24084
3115000000,-16.326107,-172.11653
3116000000,-16.319975,-172.10622
3117000000,-16.276934,-172.1048
3118000000,-16.281723,-172.47249
3119000000,-16.188391,-172.39055
3120000000,-16.179682,-172.58836
3121000000,-16.154848,-172.51111
3122000000,-16.17234,-172.74841
3123000000,-16.101149,-173.02138
3124000000,-16.068802,-172.86781
3125000000,-16.059383,-173.02695
3126000000,-16.037413,-173.16226
3127000000,-16.005617,-173.39622
3128000000,-15.967545,-173.2489
3129000000,-15.984025,-173.28436
3130000000,-15.927932,-173.72737
3131000000,-15.896677,-173.64682
3132000000,-15.880506,-173.78185
3133000000,-15.876681,-173.59631
3134000000,-15.795371,-173.97681
3135000000,-15.809999,-174.01579
3136000000,-15.742672,-173.98552
3137000000,-15.728719,-174.0766
3138000000,-15.723495,-174.25085
3139000000,-15.700087,-174.46417
3140000000,-15.670112,-174.56339
3141000000,-15.647676,-174.44031
3142000000,-15.597944,-174.64124
3143000000,-15.604646,-174.70093
3144000000,-15.569937,-174.77031
3145000000,-15.571117,-175.04257
3146000000,-15.498012,-174.98206
3147000000,-15.479535,-175.28288
3148000000,-15.479901,-174.92909
3149000000,-15.461527,-175.17723
3150000000,-15.381226,-175.61765
3151000000,-15.383242,-175.83043
3152000000,-15.37367,-175.51147
3153000000,-15.348495,-175.67233
3154000000,-15.28272,-175.67191
3155000000,-15.274831,-176.07887
3156000000,-15.256397,-175.77435
3157000000,-15.230923,-176.28488
3158000000,-15.198027,-176.12343
3159000000,-15.182138,-176.24644
3160000000,-15.160837,-176.50354
3161000000,-15.134789,-176.3665
3162000000,-15.110348,-176.55589
3163000000,-15.01964,-176.72261
3164000000,-15.058357,-176.76219
3165000000,-15.034042,-176.97249
3166000000,-14.973716,-177.03694
3167000000,-14.965694,-177.10919
3168000000,-14.934311,-177.21014
3169000000,-14.903218,-177.38977
3170000000,-14.87591,-177.33446
3171000000,-14.855909,-177.38754
3172000000,-14.842479,-177.54524
3173000000,-14.813705,-177.89168
3174000000,-14.812075,-177.8309
3175000000,-14.754569,-177.90779
3176000000,-14.751056,-178.05193
3177000000,-14.683701,-178.2574
3178000000,-14.699982,-178.24373
3179000000,-14.653864,-178.37759
3180000000,-14.638857,-178.43408
3181000000,-14.613079,-178.56239
3182000000,-14.544179,-178.60118
3183000000,-14.543234,-178.7417
3184000000,-14.554302,-178.87556
3185000000,-14.505765,-179.09264
3186000000,-14.486751,-179.26143
3187000000,-14.445577,-179.13486
3188000000,-14.453981,-179.26996
3189000000,-14.413654,-179.37079
3190000000,-14.424768,-179.61221
3191000000,-14.369903,-179.64047
3192000000,-14.333969,-179.76241
3193000000,-14.288889,-179.6521
3194000000,-14.287389,-179.97679
3195000000,-14.259069,-180.07878
3196000000,-14.238437,-180.27588
3197000000,-14.217736,-180.15512
3198000000,-14.174792,-180.43199
3199000000,-14.163938,-180.56526
3200000000,-14.090891,-180.73222
3201000000,-14.095464,-180.67714
3202000000,-14.095429,-180.92953
3203000000,-14.052451,-180.87398
3204000000,-14.01582,-180.88364
3205000000,-14.01787,-181.22354
3206000000,-13.984552,-181.3494
3207000000,-13.96053,-181.33925
3208000000,-13.892291,-181.50415
3209000000,-13.909575,-181.76373
3210000000,-13.859416,-181.63033
3211000000,-13.865573,-181.83516
3212000000,-13.821707,-182.14044
3213000000,-13.822429,-182.09059
3214000000,-13.793303,-182.33852
3215000000,-13.748418,-182.39293
3216000000,-13.737377,-182.59113
3217000000,-13.706639,-182.57103
3218000000,-13.691121,-182.70876
3219000000,-13.665575,-182.83813
3220000000,-13.632328,-182.98486
3221000000,-13.583233,-182.89587
3222000000,-13.597085,-183.06812
3223000000,-13.553943,-183.31154
3224000000,-13.514881,-183.33015
3225000000,-13.494344,-183.59508
3226000000,-13.46555,-183.68469
3227000000,-13.442267,-183.69139
3228000000,-13.440105,-183.84087
3229000000,-13.382689,-184.08563
3230000000,-13.394538,-184.08276
3231000000,-13.343187,-184.22237
3232000000,-13.348201,-184.40875
3233000000,-13.332437,-184.52734
3234000000,-13.253971,-184.79367
3235000000,-13.270749,-184.6082
3236000000,-13.23449,-184.79196
3237000000,-13.219922,-184.74365
3238000000,-13.171391,-185.21913
3239000000,-13.163781,-185.12909
3240000000,-13.145347,-185.23489
3241000000,-13.139544,-185.48566
3242000000,-13.072264,-185.65002
3243000000,-13.074216,-186.01938
3244000000,-13.068315,-185.52487
3245000000,-13.033455,-185.84608
3246000000,-13.020744,-185.70859
3247000000,-12.951194,-185.98453
3248000000,-12.952575,-186.32941
3249000000,-12.906334,-186.47211
3250000000,-12.894506,-186.5377
3251000000,-12.874656,-186.48135
3252000000,-12.863092,-186.88251
3253000000,-12.839494,-187.09113
3254000000,-12.849366,-186.94368
3255000000,-12.778243,-187.03381
3256000000,-12.784328,-187.13962
3257000000,-12.742939,-187.42842
3258000000,-12.728257,-187.58234
3259000000,-12.719708,-187.61888
3260000000,-12.669339,-187.90639
3261000000,-12.687784,-187.86351
3262000000,-12.575987,-187.9369
3263000000,-12.606023,-188.12248
3264000000,-12.570373,-188.39937
3265000000,-12.531896,-188.53149
3266000000,-12.529834,-188.69919
3267000000,-12.491029,-188.60283
3268000000,-12.488291,-188.85406
3269000000,-12.450639,-188.89133
3270000000,-12.435353,-189.08885
3271000000,-12.387187,-189.03407
3272000000,-12.390055,-189.17171
3273000000,-12.349273,-189.5553
3274000000,-12.310548,-189.43861
3275000000,-12.285116,-189.8631
3276000000,-12.261963,-189.76044
3277000000,-12.245044,-189.98929
3278000000,-12.250869,-190.04674
3279000000,-12.216393,-190.59836
3280000000,-12.183826,-190.37556
3281000000,-12.163894,-190.47935
3282000000,-12.165955,-190.75543
3283000000,-12.117977,-190.9662
3284000000,-12.089935,-190.74629
3285000000,-12.063729,-190.87294
3286000000,-12.052423,-191.04959
3287000000,-12.0489,-191.09183
3288000000,-11.999816,-191.42636
3289000000,-12.015101,-191.67111
3290000000,-11.969907,-191.90445
3291000000,-11.937345,-192.16054
3292000000,-11.914311,-191.79585
3293000000,-11.920823,-192.19812
3294000000,-11.850371,-192.4218
3295000000,-11.873919,-192.37393
3296000000,-11.846574,-192.51135
3297000000,-11.801865,-192.60153
3298000000,-11.77516,-192.7018
3299000000,-11.77092,-192.89508
3300000000,-11.736058,-193.27423
3301000000,-11.72366,-193.20273
3302000000,-11.699849,-193.42036
3303000000,-11.67285,-193.45296
3304000000,-11.651261,-193.69565
3305000000,-11.638502,-193.67923
3306000000,-11.569269,-194.16995
3307000000,-11.577694,-194.0014
3308000000,-11.598329,-194.03105
3309000000,-11.540928,-194.17256
3310000000,-11.502848,-194.62323
3311000000,-11.517601,-194.59755
3312000000,-11.489693,-194.95863
3313000000,-11.474232,-194.76031
3314000000,-11.421175,-195.02773
3315000000,-11.377526,-195.1463
3316000000,-11.33637,-195.1752
3317000000,-11.339956,-195.53703
3318000000,-11.322025,-195.67693
3319000000,-11.288386,-195.87003
3320000000,-11.269805,-195.75511
3321000000,-11.314418,-196.16743
3322000000,-11.229954,-196.15822
3323000000,-11.224752,-196.21254
3324000000,-11.209365,-196.32564
3325000000,-11.191107,-196.61154
3326000000,-11.142744,-196.99953
3327000000,-11.121259,-197.01643
3328000000,-11.095038,-197.03729
3329000000,-11.062434,-197.34413
3330000000,-11.039382,-197.29596
3331000000,-11.025894,-197.6911
3332000000,-11.020489,-197.52557
3333000000,-11.026953,-198.00542
3334000000,-10.991518,-198.05693
3335000000,-10.968062,-198.04536
3336000000,-10.981985,-198.27383
3337000000,-10.899179,-198.4209
3338000000,-10.908767,-198.68333
3339000000,-10.910116,-198.75371
3340000000,-10.87705,-198.65187
3341000000,-10.818323,-198.8064
3342000000,-10.79867,-199.11304
3343000000,-10.755174,-199.16548
3344000000,-10.765491,-199.45445
3345000000,-10.761599,-199.7402
3346000000,-10.730677,-199.69626
3347000000,-10.697147,-199.74815
3348000000,-10.683378,-200.16725
3349000000,-10.673712,-200.16934
3350000000,-10.638794,-200.34746
3351000000,-10.650442,-200.49141
3352000000,-10.609345,-200.76831
3353000000,-10.561298,-200.90306
3354000000,-10.541963,-200.73895
3355000000,-10.552761,-201.20834
3356000000,-10.497704,-201.20316
3357000000,-10.477649,-201.5592
3358000000,-10.470895,-201.47038
3359000000,-10.441613,-201.54105
3360000000,-10.434937,-201.80112
3361000000,-10.358838,-202.24895
3362000000,-10.376453,-202.14594
3363000000,-10.389199,-202.45929
3364000000,-10.324797,-202.44681
3365000000,-10.307166,-202.73317
3366000000,-10.30162,-202.86583
3367000000,-10.279125,-202.98682
3368000000,-10.241456,-202.89609
3369000000,-10.24796,-203.54242
3370000000,-10.210835,-203.37424
3371000000,-10.206405,-203.31238
3372000000,-10.19715,-203.71417
3373000000,-10.148017,-203.9028
3374000000,-10.162574,-204.05753
3375000000,-10.129124,-204.18404
3376000000,-10.107697,-204.51596
3377000000,-10.10535,-204.58777
3378000000,-10.048917,-204.83618
3379000000,-10.058622,-204.88286
3380000000,-10.027194,-205.20085
3381000000,-10.022439,-205.15964
3382000000,-9.9584274,-205.42599
3383000000,-9.9568501,-205.71654
3384000000,-9.9512272,-205.72569
3385000000,-9.9177113,-205.75534
3386000000,-9.8929863,-206.05243
3387000000,-9.906189,-206.37224
3388000000,-9.8695192,-206.29471
3389000000,-9.8412132,-206.61282
3390000000,-9.8119974,-206.52745
3391000000,-9.7890759,-207.0154
3392000000,-9.8019276,-206.87573
3393000000,-9.7440224,-207.12231
3394000000,-9.7186556,-207.27657
3395000000,-9.7034397,-207.42514
3396000000,-9.6763353,-207.53572
3397000000,-9.6876211,-207.79976
3398000000,-9.6580563,-208.04016
3399000000,-9.6471329,-207.98206
3400000000,-9.6065884,-208.48967
3401000000,-9.6147442,-208.35146
3402000000,-9.6053438,-208.64059
3403000000,-9.5767574,-208.57268
3404000000,-9.5660877,-208.81224
3405000000,-9.5959101,-209.22775
3406000000,-9.5221472,-209.23381
3407000000,-9.5048704,-209.10632
3408000000,-9.4536114,-209.28149
3409000000,-9.5001793,-209.95955
3410000000,-9.4224329,-209.78882
3411000000,-9.4189959,-210.15657
3412000000,-9.4317665,-210.29312
3413000000,-9.3797503,-210.38942
3414000000,-9.3680382,-210.40753
3415000000,-9.3552399,-210.70546
3416000000,-9.3210497,-210.97746
3417000000,-9.3174677,-211.08153
3418000000,-9.2872925,-211.1963
3419000000,-9.2644281,-211.59732
3420000000,-9.2417316,-211.6906
3421000000,-9.2540865,-211.68489
3422000000,-9.197073,-211.85805
3423000000,-9.188756,-212.3237
3424000000,-9.1818657,-212.37758
3425000000,-9.1769524,-212.37367
3426000000,-9.1452198,-212.53595
3427000000,-9.1256161,-212.9111
3428000000,-9.1086521,-212.71216
3429000000,-9.0714865,-213.26186
3430000000,-9.0778923,-213.32254
3431000000,-9.0214357,-213.30235
3432000000,-9.0399418,-213.53413
3433000000,-8.9814463,-213.71024
3434000000,-9.004755,-213.96953
3435000000,-8.9836454,-214.12086
3436000000,-8.9687853,-214.40367
3437000000,-8.9541798,-214.43158
3438000000,-8.9318848,-214.70688
3439000000,-8.8860474,-214.76341
3440000000,-8.8835478,-214.9209
3441000000,-8.8681984,-215.00134
3442000000,-8.8278666,-215.47365
3443000000,-8.8213568,-215.5961
3444000000,-8.8316669,-215.57085
3445000000,-8.8394337,-215.75014
3446000000,-8.8128119,-216.08444
3447000000,-8.7423954,-216.30745
3448000000,-8.7734404,-216.22052
3449000000,-8.7251778,-216.43913
3450000000,-8.7005081,-216.87099
3451000000,-8.7269182,-216.78627
3452000000,-8.6692619,-216.9034
3453000000,-8.6440105,-217.16391
3454000000,-8.6502571,-217.6024
3455000000,-8.6228561,-217.71696
3456000000,-8.6216755,-217.63156
3457000000,-8.5761814,-217.88953
3458000000,-8.5739727,-218.24246
3459000000,-8.5793619,-218.13803
3460000000,-8.5334215,-218.37355
3461000000,-8.5368929,-218.69423
3462000000,-8.5230141,-218.80414
3463000000,-8.5103531,-218.83984
3464000000,-8.4909859,-219.17207
3465000000,-8.4502668,-219.16652
3466000000,-8.4614563,-219.48912
3467000000,-8.4354849,-219.59647
3468000000,-8.4038095,-219.78793
3469000000,-8.4045305,-220.0354
3470000000,-8.4015236,-220.29794
3471000000,-8.3876419,-220.44173
3472000000,-8.3436823,-220.31995
3473000000,-8.3277931,-220.8212
3474000000,-8.3130703,-220.70078
3475000000,-8.3181791,-220.98055
3476000000,-8.2721872,-221.35837
3477000000,-8.2533579,-221.43739
3478000000,-8.2588224,-221.66495
3479000000,-8.2149019,-221.65541
3480000000,-8.2101192,-222.06059
3481000000,-8.236867,-222.34665
3482000000,-8.1876068,-222.27696
3483000000,-8.1728077,-222.76198
3484000000,-8.1791353,-222.77321
3485000000,-8.1397133,-222.62596
3486000000,-8.1284676,-223.10539
3487000000,-8.1393833,-223.18608
3488000000,-8.1146517,-223.16983
3489000000,-8.0993443,-223.82718
3490000000,-8.0393114,-223.81865
3491000000,-8.03899,-224.02705
3492000000,-8.0567427,-224.33751
3493000000,-7.9978771,-224.30147
3494000000,-8.023159,-224.34848
3495000000,-7.9947386,-224.86208
3496000000,-7.9624143,-224.93008
3497000000,-7.98668,-225.23862
3498000000,-7.9453926,-225.33182
3499000000,-7.9241247,-225.4135
3500000000,-7.8881631,-225.21861
3501000000,-7.9032397,-225.63684
3502000000,-7.8882542,-226.08372
3503000000,-7.8789806,-226.01367
3504000000,-7.8488669,-226.412
3505000000,-7.8386898,-226.33379
3506000000,-7.8462639,-226.73875
3507000000,-7.8048019,-227.00401
3508000000,-7.8013391,-227.14978
3509000000,-7.7866573,-227.17809
3510000000,-7.7876425,-227.50243
3511000000,-7.7622724,-227.59859
3512000000,-7.7220812,-227.80077
3513000000,-7.7321687,-227.91977
3514000000,-7.7161603,-228.14177
3515000000,-7.6907401,-228.07266
3516000000,-7.6778584,-228.75807
3517000000,-7.6446848,-228.54723
3518000000,-7.6343112,-228.96222
3519000000,-7.6521182,-229.06142
3520000000,-7.6188459,-229.36601
3521000000,-7.6060362,-229.6044
3522000000,-7.6158891,-229.58736
3523000000,-7.5919633,-230.0128
3524000000,-7.5339007,-229.98595
3525000000,-7.5787921,-230.42239
3526000000,-7.5469155,-230.48969
3527000000,-7.5414987,-230.4516
3528000000,-7.5220413,-230.55774
3529000000,-7.4987516,-230.99083
3530000000,-7.5093122,-230.99802
3531000000,-7.4917421,-231.4109
3532000000,-7.4666147,-231.46198
3533000000,-7.4537349,-231.77342
3534000000,-7.4344292,-231.86684
3535000000,-7.3949819,-231.95186
3536000000,-7.4293456,-232.27353
3537000000,-7.4133835,-232.31444
3538000000,-7.3613901,-232.77
3539000000,-7.3915162,-232.78328
3540000000,-7.3649573,-233.0325
3541000000,-7.3311763,-233.362
3542000000,-7.3065252,-233.36115
3543000000,-7.3289218,-233.47105
3544000000,-7.2956939,-233.60417
3545000000,-7.2914944,-233.97534
3546000000,-7.2703547,-233.93997
3547000000,-7.2812233,-234.38493
3548000000,-7.2765417,-234.4921
3549000000,-7.2463531,-234.75519
3550000000,-7.2695417,-234.9064
3551000000,-7.2539325,-235.05542
3552000000,-7.2329483,-235.157
3553000000,-7.1907048,-235.33061
3554000000,-7.1751418,-235.58798
3555000000,-7.1754055,-235.86461
3556000000,-7.2038965,-235.90298
3557000000,-7.1413198,-235.98241
3558000000,-7.1478119,-236.16309
3559000000,-7.1262679,-236.47681
3560000000,-7.1295371,-236.6951
3561000000,-7.0734172,-237.04251
3562000000,-7.1023326,-237.13376
3563000000,-7.0713344,-237.46188
3564000000,-7.0676689,-237.44765
3565000000,-7.0402899,-237.54176
3566000000,-7.0358634,-237.73842
3567000000,-7.0526457,-238.08165
3568000000,-7.0433631,-238.26575
3569000000,-7.0185304,-238.37338
3570000000,-6.9924927,-238.58873
3571000000,-6.9866161,-238.77943
3572000000,-6.9948282,-239.01169
3573000000,-6.9894547,-239.22623
3574000000,-6.9372482,-239.25902
3575000000,-6.9248114,-239.46269
3576000000,-6.9253969,-239.79984
3577000000,-6.9510808,-239.83063
3578000000,-6.9392209,-240.19
3579000000,-6.9240146,-240.5141
3580000000,-6.8918977,-240.68663
3581000000,-6.8787823,-240.63437
3582000000,-6.8598409,-240.87506
3583000000,-6.8638463,-241.04634
3584000000,-6.8507733,-241.07883
3585000000,-6.8275032,-241.33414
3586000000,-6.8436885,-241.66382
3587000000,-6.7992234,-241.7946
3588000000,-6.779366,-241.75734
3589000000,-6.7964606,-242.07294
3590000000,-6.7775311,-242.38643
3591000000,-6.7968225,-242.58994
3592000000,-6.7934299,-242.65871
3593000000,-6.7664132,-242.789
3594000000,-6.7249393,-242.99669
3595000000,-6.7325106,-243.40538
3596000000,-6.7461553,-243.70209
3597000000,-6.7146897,-243.7859
3598000000,-6.7251239,-243.79376
3599000000,-6.6729302,-244.0193
3600000000,-6.7005215,-244.06879
3601000000,-6.6556644,-244.41026
3602000000,-6.6533089,-244.73833
3603000000,-6.6667609,-244.89375
3604000000,-6.5857596,-244.99405
3605000000,-6.626925,-245.23439
3606000000,-6.596118,-245.51132
3607000000,-6.5914087,-245.51146
3608000000,-6.5708971,-245.64792
3609000000,-6.5694695,-245.94533
3610000000,-6.5948911,-246.09647
3611000000,-6.5615273,-246.37927
3612000000,-6.5832267,-246.56839
3613000000,-6.5495515,-246.79321
3614000000,-6.5566273,-246.79173
3615000000,-6.557529,-247.30269
3616000000,-6.5315828,-247.11505
3617000000,-6.5274687,-247.4877
3618000000,-6.542222,-247.76823
3619000000,-6.4947629,-247.83618
3620000000,-6.4920516,-248.08081
3621000000,-6.5085559,-248.35745
3622000000,-6.510262,-248.64787
3623000000,-6.4794784,-248.72408
3624000000,-6.4695854,-248.75456
3625000000,-6.4827609,-249.01398
3626000000,-6.4332914,-249.14055
3627000000,-6.4345708,-249.45163
3628000000,-6.432344,-249.31487
3629000000,-6.401659,-249.73227
3630000000,-6.4153571,-249.88089
3631000000,-6.3868189,-250.14958
3632000000,-6.3993821,-250.22574
3633000000,-6.3648138,-250.58917
3634000000,-6.3595014,-250.74901
3635000000,-6.3843293,-250.73363
3636000000,-6.3436189,-251.14848
3637000000,-6.3543134,-251.36755
3638000000,-6.3249946,-251.55313
3639000000,-6.3432164,-251.69466
3640000000,-6.3195572,-251.82426
3641000000,-6.3060031,-252.1057
3642000000,-6.3527131,-251.92871
3643000000,-6.3084207,-252.45535
3644000000,-6.3014188,-252.62018
3645000000,-6.3029852,-252.71478
3646000000,-6.2742357,-253.13528
3647000000,-6.2866635,-253.20798
3648000000,-6.2419534,-253.49474
3649000000,-6.2728376,-253.63976
3650000000,-6.2165127,-253.66843
3651000000,-6.2764463,-253.83861
3652000000,-6.2064204,-254.17235
3653000000,-6.2036891,-254.28485
3654000000,-6.2370424,-254.38499
3655000000,-6.2172232,-254.68655
3656000000,-6.1935987,-254.78395
3657000000,-6.1783261,-254.90782
3658000000,-6.1982427,-255.4108
3659000000,-6.2037125,-255.67329
3660000000,-6.1547751,-255.58771
3661000000,-6.1941919,-255.77988
3662000000,-6.1773434,-256.0275
3663000000,-6.1503124,-256.12033
3664000000,-6.160912,-256.25677
3665000000,-6.1741838,-256.35785
3666000000,-6.1597705,-256.72839
3667000000,-6.1503315,-257.14468
3668000000,-6.1316786,-257.02118
3669000000,-6.1098819,-257.1568
3670000000,-6.1055508,-257.34756
3671000000,-6.1114354,-257.70135
3672000000,-6.0910745,-257.74335
3673000000,-6.09127,-258.12109
3674000000,-6.0774646,-258.14642
3675000000,-6.0680895,-258.65833
3676000000,-6.0619984,-258.49561
3677000000,-6.0551863,-258.67279
3678000000,-6.0430961,-259.18344
3679000000,-6.0479393,-259.13455
3680000000,-6.0684586,-259.34991
3681000000,-6.0564079,-259.34286
3682000000,-6.011394,-259.71555
3683000000,-6.0172081,-259.93045
3684000000,-6.0293908,-260.26663
3685000000,-6.0291295,-260.15454
3686000000,-6.0251141,-260.69635
3687000000,-6.0240889,-260.74817
3688000000,-5.9860883,-260.73428
3689000000,-5.9973249,-261.30295
3690000000,-6.0257192,-261.14719
3691000000,-5.9940276,-261.19641
3692000000,-5.9994369,-261.42108
3693000000,-5.9748492,-261.82339
3694000000,-5.9807167,-262.07913
3695000000,-5.9599681,-262.23743
3696000000,-5.9433737,-262.52817
3697000000,-5.9569016,-262.64478
3698000000,-5.97509,-262.57794
3699000000,-5.9332561,-262.87064
3700000000,-5.9312963,-263.17377
3701000000,-5.9615126,-263.22485
3702000000,-5.9400678,-263.49832
3703000000,-5.944037,-263.53415
3704000000,-5.9619155,-263.87363
3705000000,-5.9291878,-263.83142
3706000000,-5.8965344,-264.0997
3707000000,-5.899065,-264.2933
3708000000,-5.8957133,-264.70218
3709000000,-5.8751316,-264.69751
3710000000,-5.8888841,-264.69672
3711000000,-5.8899941,-264.9874
3712000000,-5.9008517,-265.27225
3713000000,-5.8788333,-265.37848
3714000000,-5.8685207,-265.57901
3715000000,-5.8675647,-265.83249
3716000000,-5.8798623,-265.98004
3717000000,-5.8487854,-266.21094
3718000000,-5.8278174,-266.37747
3719000000,-5.8507767,-266.48523
3720000000,-5.8526011,-266.7952
3721000000,-5.8467178,-267.00009
3722000000,-5.8279157,-267.05539
3723000000,-5.8327079,-267.29132
3724000000,-5.8156977,-267.35855
3725000000,-5.8124933,-267.61526
3726000000,-5.8336277,-267.79929
3727000000,-5.8252134,-267.99576
3728000000,-5.8065624,-268.17572
3729000000,-5.7991085,-268.35217
3730000000,-5.8053012,-268.48975
3731000000,-5.7773685,-268.67413
3732000000,-5.8180609,-268.77939
3733000000,-5.7647233,-268.95172
3734000000,-5.7927332,-269.10114
3735000000,-5.8227677,-269.35861
3736000000,-5.7834311,-269.80786
3737000000,-5.7844577,-269.92502
3738000000,-5.783011,-270.1152
3739000000,-5.752459,-270.14597
3740000000,-5.7748971,-270.44797
3741000000,-5.7566862,-270.48196
3742000000,-5.7721076,-270.66495
3743000000,-5.7482615,-270.9422
3744000000,-5.7582517,-271.17902
3745000000,-5.7503209,-271.17035
3746000000,-5.7241812,-271.4845
3747000000,-5.7451315,-271.63675
3748000000,-5.7114091,-271.8472
3749000000,-5.7294831,-272.11829
3750000000,-5.7203789,-272.24695
3751000000,-5.7414641,-272.18158
3752000000,-5.7094808,-272.54028
3753000000,-5.699017,-272.52228
3754000000,-5.718935,-272.83047
3755000000,-5.7105408,-273.0163
3756000000,-5.7005558,-273.14911
3757000000,-5.702734,-273.34338
3758000000,-5.7219968,-273.56436
3759000000,-5.6824398,-273.73105
3760000000,-5.701242,-274.01932
3761000000,-5.7220569,-274.01132
3762000000,-5.7123275,-274.42169
3763000000,-5.6970205,-274.37674
3764000000,-5.6733479,-274.68582
3765000000,-5.6871052,-274.71283
3766000000,-5.6640863,-275.02438
3767000000,-5.6871448,-275.18167
3768000000,-5.6771579,-275.49261
3769000000,-5.6650524,-275.49084
3770000000,-5.6597109,-275.91833
3771000000,-5.6912513,-275.95569
3772000000,-5.6496835,-276.10645
3773000000,-5.6877227,-276.27518
3774000000,-5.6631045,-276.36093
3775000000,-5.682209,-276.56555
3776000000,-5.6414356,-276.8967
3777000000,-5.6340876,-276.93884
3778000000,-5.6669765,-277.33905
3779000000,-5.6366048,-277.38492
3780000000,-5.6520848,-277.55151
3781000000,-5.6445775,-277.89627
3782000000,-5.6389818,-277.73068
3783000000,-5.6681118,-277.89276
3784000000,-5.6386991,-278.15512
3785000000,-5.6295757,-278.35931
3786000000,-5.6236744,-278.54904
3787000000,-5.6241798,-278.68179
3788000000,-5.6429534,-279.04532
3789000000,-5.6131368,-279.01907
3790000000,-5.6558957,-279.2258
3791000000,-5.6305642,-279.32291
3792000000,-5.6290231,-279.58105
3793000000,-5.6260633,-279.49014
3794000000,-5.6225924,-279.84698
3795000000,-5.6413236,-279.9798
3796000000,-5.6072726,-280.31873
3797000000,-5.6446872,-280.24591
3798000000,-5.5991464,-280.37283
3799000000,-5.6003475,-280.77579
3800000000,-5.6149015,-280.88702
3801000000,-5.5881872,-280.9039
3802000000,-5.611289,-281.21799
3803000000,-5.6088171,-281.52841
3804000000,-5.5855055,-281.61093
3805000000,-5.5922036,-281.80225
3806000000,-5.5743904,-281.86792
3807000000,-5.5854845,-282.03552
3808000000,-5.5842791,-282.36331
3809000000,-5.5993242,-282.4386
3810000000,-5.5533633,-282.82971
3811000000,-5.5861759,-282.91937
3812000000,-5.572031,-282.90027
3813000000,-5.6039968,-283.07327
3814000000,-5.592145,-283.57114
3815000000,-5.5716248,-283.46124
3816000000,-5.5733671,-283.6134
3817000000,-5.5826173,-284.12747
3818000000,-5.6009989,-283.83359
3819000000,-5.559391,-284.14828
3820000000,-5.5670834,-284.37601
3821000000,-5.5446992,-284.6387
3822000000,-5.5743508,-284.5993
3823000000,-5.5784144,-284.75363
3824000000,-5.5660157,-285.19461
3825000000,-5.5694094,-285.18661
3826000000,-5.5693974,-285.37848
3827000000,-5.5634198,-285.59561
3828000000,-5.5864491,-285.63235
3829000000,-5.5750556,-285.8233
3830000000,-5.5416541,-286.04984
3831000000,-5.5889258,-286.44998
3832000000,-5.5451632,-286.43741
3833000000,-5.5682425,-286.34534
3834000000,-5.5605659,-286.62878
3835000000,-5.5435772,-286.90121
3836000000,-5.5834293,-286.90912
3837000000,-5.5406137,-287.12585
3838000000,-5.5624747,-287.21732
3839000000,-5.5495229,-287.52206
3840000000,-5.5512905,-287.67761
3841000000,-5.570025,-287.9046
3842000000,-5.5517678,-287.98648
3843000000,-5.5691257,-288.34506
3844000000,-5.5605841,-288.2431
3845000000,-5.544445,-288.54367
3846000000,-5.5199237,-288.83994
3847000000,-5.5232544,-288.77573
3848000000,-5.5507421,-288.9675
3849000000,-5.5540814,-289.22989
3850000000,-5.5415111,-289.28311
3851000000,-5.5741291,-289.43887
3852000000,-5.5194473,-289.62372
3853000000,-5.5531082,-290.05338
3854000000,-5.5715618,-290.14771
3855000000,-5.5313239,-290.10245
3856000000,-5.5613589,-290.31195
3857000000,-5.540947,-290.42361
3858000000,-5.5494342,-290.71268
3859000000,-5.5609093,-290.75784
3860000000,-5.5303774,-291.00711
3861000000,-5.5339627,-291.17819
3862000000,-5.5660834,-291.1756
3863000000,-5.5442085,-291.4657
3864000000,-5.5690637,-291.64951
3865000000,-5.5693736,-291.80579
3866000000,-5.5259404,-291.89682
3867000000,-5.5563831,-292.12894
3868000000,-5.5430775,-292.3277
3869000000,-5.5297599,-292.62625
3870000000,-5.5349298,-292.58658
3871000000,-5.5469689,-292.80466
3872000000,-5.5576267,-292.76346
3873000000,-5.5405393,-292.86981
3874000000,-5.5525279,-293.2659
3875000000,-5.5735788,-293.38898
3876000000,-5.5607963,-293.53333
3877000000,-5.5487928,-293.54523
3878000000,-5.5774837,-294.00421
3879000000,-5.5535321,-294.08774
3880000000,-5.5554705,-294.18195
3881000000,-5.5608902,-294.38446
3882000000,-5.5126109,-294.37955
3883000000,-5.5367889,-294.70694
3884000000,-5.563098,-294.77347
3885000000,-5.5449386,-294.9985
3886000000,-5.5678267,-295.26129
3887000000,-5.5332036,-295.18985
3888000000,-5.5299916,-295.43176
3889000000,-5.5609546,-295.56726
3890000000,-5.5330477,-295.63345
3891000000,-5.5491405,-296.13269
3892000000,-5.5539026,-296.06628
3893000000,-5.5472035,-296.33441
3894000000,-5.5309901,-296.18521
3895000000,-5.5727615,-296.53094
3896000000,-5.5591369,-296.56296
3897000000,-5.5335627,-297.00552
3898000000,-5.5764604,-296.82837
3899000000,-5.5443149,-297.24435
3900000000,-5.5642362,-297.2374
3901000000,-5.5524325,-297.46893
3902000000,-5.559238,-297.4751
3903000000,-5.5700836,-297.82291
3904000000,-5.5417652,-297.78894
3905000000,-5.564467,-298.13559
3906000000,-5.5555711,-298.07645
3907000000,-5.5562515,-298.27286
3908000000,-5.5626922,-298.59592
3909000000,-5.5634356,-298.67783
3910000000,-5.5562224,-298.99991
3911000000,-5.5618873,-299.0705
3912000000,-5.5564103,-299.29956
3913000000,-5.561357,-299.43417
3914000000,-5.5595064,-299.56171
3915000000,-5.5703602,-299.69702
3916000000,-5.5588102,-299.74008
3917000000,-5.5584364,-299.91248
3918000000,-5.5840187,-300.01355
3919000000,-5.5779424,-300.32294
3920000000,-5.579421,-300.42282
3921000000,-5.5391188,-300.46143
3922000000,-5.5749197,-300.52545
3923000000,-5.5693893,-300.77411
3924000000,-5.5722656,-300.77618
3925000000,-5.5608721,-301.05026
3926000000,-5.5652227,-301.40363
3927000000,-5.5750995,-301.46228
3928000000,-5.5640125,-301.4935
3929000000,-5.5521708,-301.69168
3930000000,-5.5897675,-301.79379
3931000000,-5.5585656,-302.0629
3932000000,-5.5797467,-302.07034
3933000000,-5.5573249,-302.3577
3934000000,-5.5762057,-302.57819
3935000000,-5.5742469,-302.55432
3936000000,-5.5707216,-302.8338
3937000000,-5.5885992,-303.03763
3938000000,-5.5532684,-303.17258
3939000000,-5.606348,-303.23245
3940000000,-5.5954967,-303.60129
3941000000,-5.5842972,-303.52795
3942000000,-5.5898538,-303.65808
3943000000,-5.5806265,-303.73712
3944000000,-5.5706534,-304.0737
3945000000,-5.5961456,-304.3248
3946000000,-5.595871,-304.40717
3947000000,-5.5888519,-304.33463
3948000000,-5.5849571,-304.71713
3949000000,-5.5611939,-304.79507
3950000000,-5.5842628,-304.82959
3951000000,-5.579556,-305.08813
3952000000,-5.5723805,-305.08734
3953000000,-5.5959892,-305.33121
3954000000,-5.5887346,-305.47922
3955000000,-5.6113849,-305.58536
3956000000,-5.5862918,-305.65427
3957000000,-5.5835471,-305.94299
3958000000,-5.5838389,-306.10312
3959000000,-5.5687585,-306.13818
3960000000,-5.6031795,-306.40158
3961000000,-5.6018515,-306.5694
3962000000,-5.5957265,-306.54922
3963000000,-5.6064582,-306.71024
3964000000,-5.5893879,-307.02588
3965000000,-5.5700512,-307.03989
3966000000,-5.5986218,-307.14551
3967000000,-5.5823746,-307.28168
3968000000,-5.6141114,-307.51639
3969000000,-5.6263442,-307.62164
3970000000,-5.6445303,-307.7637
3971000000,-5.6266222,-307.965
3972000000,-5.6139083,-308.0191
3973000000,-5.6276202,-308.45074
3974000000,-5.6086373,-308.38461
3975000000,-5.6234999,-308.52875
3976000000,-5.5978751,-308.59381
3977000000,-5.6039515,-309.02951
3978000000,-5.6193566,-308.99768
3979000000,-5.6130981,-309.09863
3980000000,-5.6295967,-309.31909
3981000000,-5.6128192,-309.67593
3982000000,-5.6267223,-309.50723
3983000000,-5.6424484,-309.75964
3984000000,-5.61731,-309.57114
3985000000,-5.6089153,-310.04788
3986000000,-5.636106,-309.9928
3987000000,-5.6122842,-310.2807
3988000000,-5.6311588,-310.34384
3989000000,-5.6165242,-310.58087
3990000000,-5.6142535,-310.763
3991000000,-5.6525273,-310.71762
3992000000,-5.6287045,-311.01022
3993000000,-5.6680408,-311.21106
3994000000,-5.6212616,-311.28476
3995000000,-5.6629176,-311.36612
3996000000,-5.6447339,-311.55844
3997000000,-5.6047683,-311.62177
3998000000,-5.6580725,-311.80725
3999000000,-5.6521811,-312.04092
4000000000,-5.6414571,-312.17468
4001000000,-5.6299949,-312.32199
4002000000,-5.662178,-312.23654
4003000000,-5.6557531,-312.55032
4004000000,-5.6659455,-312.41736
4005000000,-5.6580124,-312.57779
4006000000,-5.6582265,-312.94568
4007000000,-5.6529098,-313.11816
4008000000,-5.6536059,-313.06458
4009000000,-5.6600766,-313.12976
4010000000,-5.6527338,-313.61255
4011000000,-5.6610732,-313.66846
4012000000,-5.6910682,-313.69107
4013000000,-5.6516695,-313.79788
4014000000,-5.6863208,-313.88562
4015000000,-5.6708241,-314.27267
4016000000,-5.6764884,-314.41531
4017000000,-5.6875019,-314.53226
4018000000,-5.672821,-314.45535
4019000000,-5.6704817,-314.7309
4020000000,-5.6743736,-314.72882
4021000000,-5.6837387,-315.04495
4022000000,-5.6717625,-315.21078
4023000000,-5.6719975,-315.35983
4024000000,-5.6677451,-315.47458
4025000000,-5.6819797,-315.45572
4026000000,-5.6811261,-315.70782
4027000000,-5.6824741,-315.78577
4028000000,-5.7094631,-315.79361
4029000000,-5.6892624,-316.15265
4030000000,-5.6734104,-316.33432
4031000000,-5.6937838,-316.46875
4032000000,-5.6777077,-316.57822
4033000000,-5.6888595,-316.72769
4034000000,-5.6746211,-316.65048
4035000000,-5.7000031,-316.77194
4036000000,-5.6953197,-317.14139
4037000000,-5.7104068,-317.18564
4038000000,-5.6944766,-317.3125
4039000000,-5.6658707,-317.51376
4040000000,-5.7072668,-317.70026
4041000000,-5.7105045,-317.93362
4042000000,-5.6873651,-317.96811
4043000000,-5.7317104,-317.93048
4044000000,-5.7034702,-318.22708
4045000000,-5.7006063,-318.25562
4046000000,-5.7223835,-318.28928
4047000000,-5.7135496,-318.47772
4048000000,-5.7228494,-318.70779
4049000000,-5.7055283,-318.69586
4050000000,-5.7160983,-318.99979
4051000000,-5.7333741,-319.08374
4052000000,-5.7169294,-319.34518
4053000000,-5.7190099,-319.31769
4054000000,-5.7357268,-319.49167
4055000000,-5.7339139,-319.59775
4056000000,-5.7249908,-319.87137
4057000000,-5.7192497,-319.82977
4058000000,-5.7365432,-320.11584
4059000000,-5.7465959,-320.07336
4060000000,-5.7372718,-320.25708
4061000000,-5.7471399,-320.55225
4062000000,-5.7505951,-320.51514
4063000000,-5.7183867,-320.56879
4064000000,-5.7423491,-320.81857
4065000000,-5.7697663,-320.93033
4066000000,-5.7648535,-321.13254
4067000000,-5.72651,-321.16895
4068000000,-5.7593246,-321.28311
4069000000,-5.7692432,-321.66275
4070000000,-5.7418742,-321.49561
4071000000,-5.7623863,-321.76447
4072000000,-5.7551422,-321.86447
4073000000,-5.7830334,-322.00327
4074000000,-5.7837682,-322.21005
4075000000,-5.7429729,-322.31427
4076000000,-5.7748971,-322.46188
4077000000,-5.7671771,-322.5687
4078000000,-5.7671165,-322.57037
4079000000,-5.773531,-322.8367
4080000000,-5.7832699,-322.82852
4081000000,-5.7477083,-322.94852
4082000000,-5.8024778,-323.25018
4083000000,-5.7831259,-323.28751
4084000000,-5.761807,-323.40466
4085000000,-5.7744904,-323.65143
4086000000,-5.77702,-323.78052
4087000000,-5.7911367,-323.81812
4088000000,-5.8106041,-324.17508
4089000000,-5.8076444,-324.22223
4090000000,-5.8110247,-324.44116
4091000000,-5.8079209,-324.35529
4092000000,-5.805696,-324.47256
4093000000,-5.8028378,-324.72061
4094000000,-5.8188648,-324.70132
4095000000,-5.8166275,-325.06778
4096000000,-5.8026834,-325.02563
4097000000,-5.8246245,-325.06192
4098000000,-5.8078318,-325.47519
4099000000,-5.8330927,-325.55219
4100000000,-5.8085575,-325.65616
4101000000,-5.8135757,-325.57629
4102000000,-5.7840853,-325.76077
4103000000,-5.8231521,-325.9082
4104000000,-5.801723,-326.20505
4105000000,-5.8069763,-326.21954
4106000000,-5.8025608,-326.4747
4107000000,-5.8237734,-326.44992
4108000000,-5.8262382,-326.71313
4109000000,-5.7963033,-326.70868
4110000000,-5.793643,-326.71442
4111000000,-5.8163342,-326.95468
4112000000,-5.8463535,-326.97012
4113000000,-5.8349619,-327.1535
4114000000,-5.8262758,-327.23022
4115000000,-5.815928,-327.42957
4116000000,-5.8127675,-327.55267
4117000000,-5.8376298,-327.75644
4118000000,-5.8418827,-327.9418
4119000000,-5.8210244,-327.92374
4120000000,-5.8427215,-328.07156
4121000000,-5.8189816,-328.18692
4122000000,-5.8231101,-328.44354
4123000000,-5.8461008,-328.59164
4124000000,-5.8026447,-328.54883
4125000000,-5.8394995,-328.5527
4126000000,-5.8127289,-328.83542
4127000000,-5.8211989,-328.97659
4128000000,-5.8453522,-329.13882
4129000000,-5.8452621,-329.27002
4130000000,-5.8350534,-329.47992
4131000000,-5.8561306,-329.40619
4132000000,-5.8465366,-329.74936
4133000000,-5.8460631,-329.7312
4134000000,-5.8462291,-329.90311
4135000000,-5.8689761,-329.81683
4136000000,-5.8681097,-330.18533
4137000000,-5.8589382,-330.40408
4138000000,-5.8590269,-330.40558
4139000000,-5.832428,-330.53049
4140000000,-5.8902941,-330.72055
4141000000,-5.8503151,-330.6756
4142000000,-5.8692107,-330.83777
4143000000,-5.8632526,-331.12939
4144000000,-5.8869061,-331.18094
4145000000,-5.8513055,-331.22717
4146000000,-5.8736463,-331.4071
4147000000,-5.8561091,-331.5369
4148000000,-5.8587246,-331.66797
4149000000,-5.8835044,-331.6756
4150000000,-5.8934741,-331.96786
4151000000,-5.8882208,-331.98651
4152000000,-5.8666329,-332.11444
4153000000,-5.9022799,-332.18237
4154000000,-5.9156809,-332.32788
4155000000,-5.8811636,-332.38248
4156000000,-5.8911476,-332.57816
4157000000,-5.8916702,-332.71082
4158000000,-5.8971972,-333.04462
4159000000,-5.8979163,-332.91449
4160000000,-5.8987832,-333.28079
4161000000,-5.9005518,-333.25522
4162000000,-5.9157515,-333.36191
4163000000,-5.9115591,-333.39948
4164000000,-5.9065218,-333.56757
4165000000,-5.8786173,-333.63913
4166000000,-5.9033623,-334.0412
4167000000,-5.9081893,-334.15207
4168000000,-5.923275,-334.0274
4169000000,-5.9036055,-334.24997
4170000000,-5.9125161,-334.18927
4171000000,-5.9216137,-334.30878
4172000000,-5.903049,-334.61426
4173000000,-5.8868828,-334.74765
4174000000,-5.8971734,-334.90076
4175000000,-5.927567,-334.9003
4176000000,-5.9329476,-335.04126
4177000000,-5.9254413,-335.31204
4178000000,-5.9113989,-335.21594
4179000000,-5.8798223,-335.57349
4180000000,-5.9189,-335.6557
4181000000,-5.9118681,-335.71652
4182000000,-5.9040303,-335.6105
4183000000,-5.9351726,-335.82501
4184000000,-5.9434009,-336.16241
4185000000,-5.9395409,-336.10272
4186000000,-5.9255109,-336.10745
4187000000,-5.9645314,-336.61493
4188000000,-5.9180436,-336.52399
4189000000,-5.9393082,-336.64725
4190000000,-5.9421268,-336.72083
4191000000,-5.9497256,-336.97498
4192000000,-5.9453397,-336.99591
4193000000,-5.9349041,-337.11288
4194000000,-5.9676051,-337.24362
4195000000,-5.9489717,-337.32297
4196000000,-5.9274969,-337.4433
4197000000,-5.9589267,-337.41891
4198000000,-5.9587388,-337.74057
4199000000,-5.946795,-338.01413
4200000000,-5.9564042,-337.90787
4201000000,-5.9475226,-338.13565
4202000000,-5.9739699,-338.02023
4203000000,-5.954586,-338.31598
4204000000,-5.9456663,-338.5051
4205000000,-5.9521179,-338.64682
4206000000,-5.9574361,-338.71655
4207000000,-5.9844894,-338.83691
4208000000,-5.9473834,-338.72885
4209000000,-5.962491,-339.29041
4210000000,-5.9383101,-339.31757
4211000000,-5.9409928,-339.39838
4212000000,-5.9585538,-339.51031
4213000000,-5.9790573,-339.5166
4214000000,-5.9708781,-339.56754
4215000000,-5.9916282,-339.63577
4216000000,-5.9723144,-339.8663
4217000000,-5.9633555,-340.00775
4218000000,-5.9666162,-340.23117
4219000000,-5.9682617,-340.22144
4220000000,-5.9804893,-340.27859
4221000000,-5.9899077,-340.47198
4222000000,-5.9607368,-340.50873
4223000000,-5.9769211,-340.84567
4224000000,-5.9674935,-340.88281
4225000000,-5.9945965,-340.91333
4226000000,-5.9946804,-341.13754
4227000000,-5.9875269,-341.15927
4228000000,-5.9772491,-341.28055
4229000000,-5.9945836,-341.61511
4230000000,-5.9869103,-341.47382
4231000000,-6.0044498,-341.66367
4232000000,-5.9676328,-341.79855
4233000000,-6.004003,-342.10806
4234000000,-5.9929614,-341.99756
4235000000,-5.9986238,-342.16064
4236000000,-6.0136557,-342.16061
4237000000,-5.995707,-342.35471
4238000000,-6.0109215,-342.4537
4239000000,-6.0058408,-342.74243
4240000000,-6.0029321,-342.64929
4241000000,-5.9985757,-342.8465
4242000000,-6.0019093,-343.01141
4243000000,-6.0169306,-343.11111
4244000000,-6.0205684,-343.31332
4245000000,-6.0371952,-343.30386
4246000000,-6.0243039,-343.44687
4247000000,-6.0188532,-343.60123
4248000000,-6.029695,-343.61273
4249000000,-6.0063205,-343.93304
4250000000,-6.0434651,-343.93903
4251000000,-6.0030689,-344.12299
4252000000,-6.0456867,-344.37329
4253000000,-6.0428433,-344.40671
4254000000,-5.9997392,-344.44949
4255000000,-6.0237317,-344.47925
4256000000,-6.0077348,-344.60095
4257000000,-6.0038919,-344.73624
4258000000,-6.0194697,-344.76297
4259000000,-6.0423017,-344.95834
4260000000,-6.0025144,-345.19028
4261000000,-6.0424566,-345.15076
4262000000,-6.0088601,-345.28137
4263000000,-5.9963403,-345.48636
4264000000,-6.0353622,-345.66104
4265000000,-6.0347037,-345.65952
4266000000,-6.0549946,-345.7522
4267000000,-6.0262461,-345.81088
4268000000,-6.0628233,-345.9556
4269000000,-6.009182,-346.15771
4270000000,-6.0406513,-346.28879
4271000000,-6.0380974,-346.43317
4272000000,-6.0503373,-346.57465
4273000000,-6.0275521,-346.73618
4274000000,-6.0667472,-346.56201
4275000000,-6.0335846,-346.78583
4276000000,-6.0322981,-347.07684
4277000000,-6.0590253,-347.0737
4278000000,-6.0627856,-347.2352
4279000000,-6.0141664,-347.38489
4280000000,-6.0321898,-347.53079
4281000000,-6.0367651,-347.52075
4282000000,-6.0546985,-347.77573
4283000000,-6.059495,-347.77313
4284000000,-6.0510259,-348.06931
4285000000,-6.060679,-348.02689
4286000000,-6.0469089,-348.21661
4287000000,-6.0864797,-348.21973
4288000000,-6.0571256,-348.35324
4289000000,-6.072032,-348.44681
4290000000,-6.0767879,-348.59088
4291000000,-6.0530181,-348.71652
4292000000,-6.0468535,-348.91522
4293000000,-6.0794668,-348.93326
4294000000,-6.0724807,-349.08499
4295000000,-6.0569124,-349.32712
4296000000,-6.072226,-349.21786
4297000000,-6.0958405,-349.53665
4298000000,-6.0806828,-349.55634
4299000000,-6.0731244,-349.53027
4300000000,-6.0720901,-349.59518
4301000000,-6.0804935,-349.97916
4302000000,-6.0846486,-349.995
4303000000,-6.0662894,-350.01328
4304000000,-6.0950298,-350.17627
4305000000,-6.0842319,-350.45663
4306000000,-6.0873413,-350.55801
4307000000,-6.0671468,-350.41638
4308000000,-6.0756249,-350.62793
4309000000,-6.0710588,-350.87921
4310000000,-6.1099572,-350.85849
4311000000,-6.0859699,-350.90558
4312000000,-6.0736423,-350.96082
4313000000,-6.0950966,-351.18478
4314000000,-6.0820007,-351.38486
4315000000,-6.0745039,-351.6362
4316000000,-6.0671186,-351.42346
4317000000,-6.0771661,-351.77841
4318000000,-6.0799222,-351.8114
4319000000,-6.095396,-351.92697
4320000000,-6.0998173,-351.92676
4321000000,-6.0903053,-352.1926
4322000000,-6.0916123,-352.44562
4323000000,-6.0898218,-352.43948
4324000000,-6.0832286,-352.44772
4325000000,-6.0933256,-352.53616
4326000000,-6.1239147,-352.65768
4327000000,-6.0862689,-352.9166
4328000000,-6.1261806,-352.7049
4329000000,-6.1235218,-352.97488
4330000000,-6.1167498,-353.00397
4331000000,-6.0907168,-353.26791
4332000000,-6.1248531,-353.5932
4333000000,-6.0820408,-353.38925
4334000000,-6.1075239,-353.66519
4335000000,-6.1122417,-353.72934
4336000000,-6.1287084,-353.98914
4337000000,-6.1069069,-353.95145
4338000000,-6.1129909,-354.20715
4339000000,-6.1204967,-354.27362
4340000000,-6.1099725,-354.354
4341000000,-6.1100154,-354.30383
4342000000,-6.0931883,-354.66473
4343000000,-6.0965786,-354.58627
4344000000,-6.1199408,-354.78946
4345000000,-6.1375313,-354.79773
4346000000,-6.1316986,-354.97577
4347000000,-6.1215763,-355.11624
4348000000,-6.0934262,-355.34167
4349000000,-6.1010547,-355.36829
4350000000,-6.1301808,-355.31262
4351000000,-6.1294723,-355.55447
4352000000,-6.1326604,-355.70404
4353000000,-6.1141677,-355.73672
4354000000,-6.1071973,-355.99063
4355000000,-6.1357837,-356.14993
4356000000,-6.122519,-356.26971
4357000000,-6.1372032,-356.38165
4358000000,-6.136086,-356.27524
4359000000,-6.1346231,-356.43661
4360000000,-6.1337543,-356.40491
4361000000,-6.1326733,-356.87451
4362000000,-6.1355591,-356.70917
4363000000,-6.1290255,-356.90524
4364000000,-6.1230626,-357.11197
4365000000,-6.1422014,-357.1275
4366000000,-6.1061835,-357.20752
4367000000,-6.1226497,-357.39429
4368000000,-6.0922198,-357.59698
4369000000,-6.1405234,-357.7345
4370000000,-6.1330719,-357.84634
4371000000,-6.1433029,-357.98145
4372000000,-6.1615815,-358.04837
4373000000,-6.1528697,-358.08887
4374000000,-6.1616602,-357.9386
4375000000,-6.1425476,-358.46524
4376000000,-6.1311841,-358.47406
4377000000,-6.1466808,-358.46118
4378000000,-6.1344242,-358.48035
4379000000,-6.1471534,-358.77203
4380000000,-6.1340394,-358.7717
4381000000,-6.1704087,-359.11194
4382000000,-6.1410594,-358.96719
4383000000,-6.1308856,-359.27158
4384000000,-6.1308885,-359.27621
4385000000,-6.1386337,-359.52933
4386000000,-6.1509256,-359.41116
4387000000,-6.1341639,-359.69769
4388000000,-6.1569333,-359.69763
4389000000,-6.1259799,-359.91418
4390000000,-6.1484451,-360.0701
4391000000,-6.161613,-360.01581
4392000000,-6.1406665,-360.44
4393000000,-6.1498094,-360.22363
4394000000,-6.1483192,-360.48471
4395000000,-6.1680508,-360.62021
4396000000,-6.1334443,-360.67429
4397000000,-6.1436601,-360.74994
4398000000,-6.1385441,-360.99084
4399000000,-6.1597672,-360.93451
4400000000,-6.1538458,-361.16351
4401000000,-6.1751847,-361.15128
4402000000,-6.1476769,-361.20291
4403000000,-6.1491699,-361.47742
4404000000,-6.1703224,-361.52316
4405000000,-6.159112,-361.63617
4406000000,-6.1713276,-361.87369
4407000000,-6.1678615,-361.87338
4408000000,-6.1740746,-362.09549
4409000000,-6.1551557,-362.10367
4410000000,-6.1667285,-362.18271
4411000000,-6.1472769,-362.38782
4412000000,-6.1494889,-362.72156
4413000000,-6.1861305,-362.77979
4414000000,-6.1394749,-362.89975
4415000000,-6.162077,-362.81729
4416000000,-6.1764479,-362.91953
4417000000,-6.1801667,-363.13217
4418000000,-6.1869674,-363.04791
4419000000,-6.1717887,-363.29611
4420000000,-6.1744509,-363.36993
4421000000,-6.1754947,-363.44061
4422000000,-6.1673961,-363.51807
4423000000,-6.1589484,-363.93573
4424000000,-6.1493902,-364.03787
4425000000,-6.156846,-363.88678
4426000000,-6.1797972,-364.07227
4427000000,-6.1651649,-364.13177
4428000000,-6.1808,-364.15146
4429000000,-6.1930742,-364.45844
4430000000,-6.1742654,-364.56485
4431000000,-6.1895399,-364.47537
4432000000,-6.1865764,-364.7178
4433000000,-6.1636214,-364.79318
4434000000,-6.1887789,-364.90237
4435000000,-6.1824059,-364.96347
4436000000,-6.1961393,-365.08466
4437000000,-6.1750712,-365.36658
4438000000,-6.1551538,-365.3959
4439000000,-6.1743636,-365.49548
4440000000,-6.1803255,-365.59137
4441000000,-6.1881204,-365.87219
4442000000,-6.1862106,-365.84164
4443000000,-6.1941552,-365.8205
4444000000,-6.1881013,-366.02701
4445000000,-6.1742735,-366.21616
4446000000,-6.2052622,-366.32401
4447000000,-6.2145901,-366.24026
4448000000,-6.1754856,-366.56772
4449000000,-6.2209444,-366.495
4450000000,-6.1722894,-366.71143
4451000000,-6.2003751,-366.78229
4452000000,-6.2235322,-367.04044
4453000000,-6.2130055,-367.24921
4454000000,-6.188046,-367.22983
4455000000,-6.1850805,-367.45233
4456000000,-6.1777859,-367.37259
4457000000,-6.1989365,-367.50272
4458000000,-6.2027025,-367.41306
4459000000,-6.2150679,-367.77228
4460000000,-6.1794934,-367.85046
4461000000,-6.2046466,-367.75165
4462000000,-6.2002568,-368.04605
4463000000,-6.1638746,-368.20901
4464000000,-6.1867194,-368.37515
4465000000,-6.2156987,-368.44998
4466000000,-6.1896873,-368.53766
4467000000,-6.2285824,-368.60727
4468000000,-6.1947641,-368.8692
4469000000,-6.1927648,-368.79755
4470000000,-6.1996713,-368.96313
4471000000,-6.1862335,-369.04861
4472000000,-6.2039061,-369.33743
4473000000,-6.1822801,-369.26538
4474000000,-6.2167726,-369.59702
4475000000,-6.2093434,-369.63675
4476000000,-6.2353668,-369.66721
4477000000,-6.2111659,-369.68356
4478000000,-6.2140379,-369.90643
4479000000,-6.2017193,-369.87527
4480000000,-6.1841078,-370.16425
4481000000,-6.2309585,-370.2673
4482000000,-6.2091384,-370.19934
4483000000,-6.2388759,-370.36652
4484000000,-6.200295,-370.27167
4485000000,-6.2332602,-370.49399
4486000000,-6.2024899,-370.71774
4487000000,-6.2059054,-370.76727
4488000000,-6.2219944,-371.01611
4489000000,-6.1849451,-371.10016
4490000000,-6.1867566,-371.18225
4491000000,-6.1927037,-371.21112
4492000000,-6.2096786,-371.6254
4493000000,-6.1944609,-371.64291
4494000000,-6.2032661,-371.60941
4495000000,-6.2116904,-371.50201
4496000000,-6.2192621,-371.92276
4497000000,-6.2002091,-372.07281
4498000000,-6.2151666,-372.05267
4499000000,-6.2034936,-372.11047
4500000000,-6.2214131,-372.25064
4501000000,-6.2221594,-372.4693
4502000000,-6.2066498,-372.62323
4503000000,-6.2265229,-372.72852
4504000000,-6.221354,-372.63354
4505000000,-6.2121682,-372.74332
4506000000,-6.2233377,-373.10342
4507000000,-6.2520084,-373.14972
4508000000,-6.2390566,-373.05792
4509000000,-6.2150383,-373.237
4510000000,-6.2089653,-373.38501
4511000000,-6.2324786,-373.44305
4512000000,-6.2041821,-373.63568
4513000000,-6.2222528,-373.76541
4514000000,-6.1984978,-374.05728
4515000000,-6.223938,-374.00763
4516000000,-6.2214923,-374.22797
4517000000,-6.1964459,-374.21912
4518000000,-6.2361622,-374.19928
4519000000,-6.230041,-374.61545
4520000000,-6.2305784,-374.49649
4521000000,-6.2394409,-374.5874
4522000000,-6.2353525,-374.75742
4523000000,-6.2256441,-374.79022
4524000000,-6.2564311,-375.00113
4525000000,-6.2287722,-375.03613
4526000000,-6.2419224,-375.09756
4527000000,-6.2384729,-375.24014
4528000000,-6.2384191,-375.26324
4529000000,-6.231308,-375.53082
4530000000,-6.228178,-375.62604
4531000000,-6.2464328,-375.8956
4532000000,-6.2147698,-375.82413
4533000000,-6.2181754,-375.91476
4534000000,-6.2342634,-376.17398
4535000000,-6.2399144,-376.00598
4536000000,-6.2106853,-376.25198
4537000000,-6.2257066,-376.38599
4538000000,-6.216177,-376.51669
4539000000,-6.2231216,-376.68994
4540000000,-6.2195268,-376.67099
4541000000,-6.2309527,-376.81302
4542000000,-6.2518306,-376.9184
4543000000,-6.2305493,-376.9057
4544000000,-6.2292318,-377.16953
4545000000,-6.2361326,-377.19266
4546000000,-6.2447143,-377.53839
4547000000,-6.2237225,-377.64017
4548000000,-6.2198534,-377.595
4549000000,-6.2341623,-377.74191
4550000000,-6.2397709,-377.75073
4551000000,-6.2147436,-377.94022
4552000000,-6.229888,-378.06064
4553000000,-6.2334881,-378.19568
4554000000,-6.2492476,-378.27628
4555000000,-6.2302656,-378.33255
4556000000,-6.2252774,-378.41248
4557000000,-6.240624,-378.70203
4558000000,-6.2227731,-378.82953
4559000000,-6.2201223,-378.98505
4560000000,-6.2496901,-378.97977
4561000000,-6.2464018,-379.22589
4562000000,-6.2477727,-379.13858
4563000000,-6.253459,-379.50735
4564000000,-6.2349286,-379.33154
4565000000,-6.2347565,-379.37296
4566000000,-6.2426825,-379.73132
4567000000,-6.2489781,-379.75949
4568000000,-6.2473278,-379.77176
4569000000,-6.2559862,-380.04355
4570000000,-6.2588091,-380.15689
4571000000,-6.23247,-380.26675
4572000000,-6.2429614,-380.26617
4573000000,-6.2646604,-380.45718
4574000000,-6.2317672,-380.50262
4575000000,-6.2421737,-380.56058
4576000000,-6.2482824,-380.77304
4577000000,-6.2522507,-380.84918
4578000000,-6.2245235,-380.80856
4579000000,-6.2674093,-381.17224
4580000000,-6.2650223,-381.16867
4581000000,-6.2527213,-381.30298
4582000000,-6.2625475,-381.47418
4583000000,-6.229064,-381.46484
4584000000,-6.2265863,-381.71887
4585000000,-6.2327805,-381.72748
4586000000,-6.2561002,-381.95383
4587000000,-6.2437611,-381.97748
4588000000,-6.231689,-382.11191
4589000000,-6.2525067,-381.90833
4590000000,-6.2541542,-382.3783
4591000000,-6.2696471,-382.35403
4592000000,-6.244348,-382.59879
4593000000,-6.2617741,-382.70166
4594000000,-6.2503128,-382.68079
4595000000,-6.2416873,-382.7847
4596000000,-6.224968,-382.99213
4597000000,-6.2774239,-382.89798
4598000000,-6.2332406,-383.05835
4599000000,-6.2437782,-383.33606
4600000000,-6.2648215,-383.2258
4601000000,-6.2946177,-383.47214
4602000000,-6.2624841,-383.58365
4603000000,-6.2436252,-383.71622
4604000000,-6.2725387,-383.71933
4605000000,-6.237905,-383.75806
4606000000,-6.2568998,-384.10049
4607000000,-6.2485085,-383.94452
4608000000,-6.2641077,-384.24292
4609000000,-6.2456303,-384.33206
4610000000,-6.2547698,-384.45926
4611000000,-6.2467809,-384.6463
4612000000,-6.2545958,-384.5347
4613000000,-6.2853146,-384.81491
4614000000,-6.249835,-384.86273
4615000000,-6.2653265,-384.88669
4616000000,-6.2460823,-384.92542
4617000000,-6.2767262,-385.25092
4618000000,-6.2821798,-385.31604
4619000000,-6.269227,-385.43707
4620000000,-6.2775755,-385.69244
4621000000,-6.2631888,-385.5863
4622000000,-6.2693954,-385.94159
4623000000,-6.2735138,-385.74081
4624000000,-6.2415791,-385.9108
4625000000,-6.2591863,-385.91357
4626000000,-6.2788973,-386.23697
4627000000,-6.2835608,-386.33694
4628000000,-6.2573934,-386.33682
4629000000,-6.2740164,-386.56052
4630000000,-6.2913737,-386.78778
4631000000,-6.3099542,-386.84753
4632000000,-6.2784247,-386.71301
4633000000,-6.2557077,-387.08914
4634000000,-6.237494,-387.12854
4635000000,-6.2541966,-387.19208
4636000000,-6.2618575,-387.25754
4637000000,-6.2701344,-387.43436
4638000000,-6.2888479,-387.52557
4639000000,-6.2624974,-387.55368
4640000000,-6.2714753,-387.79767
4641000000,-6.271481,-387.6095
4642000000,-6.2783527,-388.02469
4643000000,-6.2815542,-388.16254
4644000000,-6.2691064,-388.31616
4645000000,-6.2713709,-388.18579
4646000000,-6.2850585,-388.27319
4647000000,-6.283195,-388.58328
4648000000,-6.2508488,-388.6282
4649000000,-6.2821674,-388.55612
4650000000,-6.2677717,-388.89883
4651000000,-6.2719903,-388.93475
4652000000,-6.3034911,-389.19446
4653000000,-6.2826662,-389.01733
4654000000,-6.2696218,-389.05865
4655000000,-6.2845778,-389.44821
4656000000,-6.2778182,-389.58334
4657000000,-6.3080134,-389.62683
4658000000,-6.2945428,-389.55121
4659000000,-6.2803721,-389.85245
4660000000,-6.2721629,-389.73608
4661000000,-6.287075,-389.99063
4662000000,-6.2864699,-390.12152
4663000000,-6.2728057,-390.3439
4664000000,-6.2694993,-390.3071
4665000000,-6.2697306,-390.4256
4666000000,-6.2874465,-390.51205
4667000000,-6.2758279,-390.80951
4668000000,-6.2793384,-390.57999
4669000000,-6.2867355,-390.87146
4670000000,-6.2961397,-391.03082
4671000000,-6.3010879,-391.13342
4672000000,-6.3106332,-391.31802
4673000000,-6.267097,-391.20807
4674000000,-6.2869501,-391.48819
4675000000,-6.266448,-391.47369
4676000000,-6.2914677,-391.80032
4677000000,-6.2957811,-391.67053
4678000000,-6.2529721,-391.86926
4679000000,-6.2766452,-392.00977
4680000000,-6.2943459,-392.11496
4681000000,-6.2571769,-392.17529
4682000000,-6.265512,-392.37238
4683000000,-6.3039422,-392.29825
4684000000,-6.2605505,-392.32455
4685000000,-6.2707515,-392.5997
4686000000,-6.2965937,-392.74542
4687000000,-6.2880888,-392.63525
4688000000,-6.283874,-392.94772
4689000000,-6.2773128,-392.92377
4690000000,-6.2979975,-392.92612
4691000000,-6.2981873,-393.30368
4692000000,-6.275166,-393.2207
4693000000,-6.3116698,-393.43607
4694000000,-6.2912669,-393.48849
4695000000,-6.2632723,-393.65717
4696000000,-6.3031263,-393.92108
4697000000,-6.2894402,-393.79834
4698000000,-6.2947364,-393.96155
4699000000,-6.300642,-394.11765
4700000000,-6.3052988,-394.11862
4701000000,-6.2883115,-394.35275
4702000000,-6.2924237,-394.26813
4703000000,-6.2841859,-394.53082
4704000000,-6.2927895,-394.56107
4705000000,-6.2688899,-394.52362
4706000000,-6.2993712,-394.93335
4707000000,-6.2797508,-395.01202
4708000000,-6.2853384,-395.08289
4709000000,-6.2649803,-395.18539
4710000000,-6.2665234,-395.20148
4711000000,-6.2991834,-395.30893
4712000000,-6.3038459,-395.41635
4713000000,-6.2950091,-395.5856
4714000000,-6.2985187,-395.69138
4715000000,-6.2783728,-395.90573
4716000000,-6.2887778,-395.85553
4717000000,-6.2916646,-396.03485
4718000000,-6.2767482,-396.20111
4719000000,-6.303916,-396.23199
4720000000,-6.2984309,-396.38724
4721000000,-6.2852111,-396.33792
4722000000,-6.3008304,-396.55118
4723000000,-6.277554,-396.76959
4724000000,-6.2753863,-396.73267
4725000000,-6.2735353,-396.95169
4726000000,-6.2760086,-396.95898
4727000000,-6.2987194,-397.2395
4728000000,-6.2773986,-397.19638
4729000000,-6.2972264,-397.25381
4730000000,-6.2864246,-397.51517
4731000000,-6.2793341,-397.45981
4732000000,-6.2741957,-397.51376
4733000000,-6.2923245,-397.62604
4734000000,-6.288415,-397.89502
4735000000,-6.2579827,-397.92465
4736000000,-6.2738805,-398.1152
4737000000,-6.2810349,-398.09677
4738000000,-6.2677822,-398.15955
4739000000,-6.2778444,-398.28079
4740000000,-6.250145,-398.38293
4741000000,-6.2733593,-398.73813
4742000000,-6.2777119,-398.58533
4743000000,-6.2903018,-398.84393
4744000000,-6.2703319,-398.94266
4745000000,-6.2907681,-399.06253
4746000000,-6.2750163,-399.38989
4747000000,-6.2764974,-399.39828
4748000000,-6.2602196,-399.30228
4749000000,-6.2629485,-399.56461
4750000000,-6.2876897,-399.49561
4751000000,-6.3046632,-399.72293
4752000000,-6.2621608,-399.73199
4753000000,-6.2541447,-399.93839
4754000000,-6.2787452,-400.12921
4755000000,-6.2904878,-400.21942
4756000000,-6.2710581,-400.34024
4757000000,-6.2642312,-400.28683
4758000000,-6.2708216,-400.41696
4759000000,-6.251596,-400.30692
4760000000,-6.2639055,-400.60092
4761000000,-6.285531,-400.7829
4762000000,-6.2808771,-401.00034
4763000000,-6.2612929,-400.93784
4764000000,-6.2710061,-401.18991
4765000000,-6.2818027,-401.25766
4766000000,-6.2684822,-401.5744
4767000000,-6.2712579,-401.36472
4768000000,-6.279345,-401.44666
4769000000,-6.2978396,-401.68857
4770000000,-6.2551341,-401.75247
4771000000,-6.2891517,-401.97638
4772000000,-6.2574272,-401.97522
4773000000,-6.289588,-402.14441
4774000000,-6.2827778,-402.28351
4775000000,-6.2304678,-402.30945
4776000000,-6.2566628,-402.37308
4777000000,-6.2707672,-402.64297
4778000000,-6.2515712,-402.59247
4779000000,-6.2650247,-402.78683
4780000000,-6.2636871,-403.07245
4781000000,-6.260437,-403.01877
4782000000,-6.2580924,-403.26263
4783000000,-6.2572083,-403.35989
4784000000,-6.2454638,-403.27432
4785000000,-6.2598028,-403.5177
4786000000,-6.2757974,-403.74814
4787000000,-6.2555547,-403.8284
4788000000,-6.2622523,-403.79028
4789000000,-6.2494731,-403.85999
4790000000,-6.2608094,-403.9588
4791000000,-6.30794,-404.0535
4792000000,-6.2808504,-404.12622
4793000000,-6.2650023,-404.37299
4794000000,-6.2535925,-404.423
4795000000,-6.269681,-404.54147
4796000000,-6.2660046,-404.68155
4797000000,-6.2415867,-404.72549
4798000000,-6.2337708,-404.83087
4799000000,-6.2702432,-405.05902
4800000000,-6.2381639,-405.03018
4801000000,-6.2559443,-405.23932
4802000000,-6.2461786,-405.16064
4803000000,-6.2506123,-405.47989
4804000000,-6.2330265,-405.66428
4805000000,-6.2505193,-405.70749
4806000000,-6.2701492,-405.84747
4807000000,-6.2583694,-405.81445
4808000000,-6.2606726,-406.06729
4809000000,-6.2718792,-406.16217
4810000000,-6.2409682,-406.13342
4811000000,-6.2573509,-406.34454
4812000000,-6.2650447,-406.55743
4813000000,-6.2211547,-406.46143
4814000000,-6.2404766,-406.73987
4815000000,-6.2425065,-406.71799
4816000000,-6.2672291,-406.76389
4817000000,-6.2501197,-407.01846
4818000000,-6.2756648,-406.95435
4819000000,-6.2574735,-407.39709
4820000000,-6.249115,-407.37393
4821000000,-6.2323351,-407.4588
4822000000,-6.237123,-407.77771
4823000000,-6.2588983,-407.60019
4824000000,-6.2657495,-407.75238
4825000000,-6.2714672,-407.79883
4826000000,-6.2383323,-407.95804
4827000000,-6.2405257,-408.13864
4828000000,-6.2462459,-408.28992
4829000000,-6.2668042,-408.5105
4830000000,-6.2264137,-408.31461
4831000000,-6.2361574,-408.54745
4832000000,-6.2274027,-408.60498
4833000000,-6.2424703,-408.67328
4834000000,-6.229094,-408.96747
4835000000,-6.2502151,-408.87131
4836000000,-6.2485147,-408.91522
4837000000,-6.2541971,-409.23544
4838000000,-6.2237639,-409.42905
4839000000,-6.2630382,-409.46533
4840000000,-6.2630587,-409.51376
4841000000,-6.2213335,-409.6922
4842000000,-6.2382164,-409.82101
4843000000,-6.249403,-409.78265
4844000000,-6.225534,-409.94058
4845000000,-6.2574615,-410.11884
4846000000,-6.2514744,-410.32123
4847000000,-6.2498541,-410.32428
4848000000,-6.2559419,-410.46948
4849000000,-6.2409506,-410.44058
4850000000,-6.2397413,-410.62326
4851000000,-6.2625232,-410.88824
4852000000,-6.2497201,-410.89813
4853000000,-6.2432699,-410.98407
4854000000,-6.244678,-411.1478
4855000000,-6.2107744,-411.09949
4856000000,-6.2515059,-411.59363
4857000000,-6.2404118,-411.34305
4858000000,-6.2279878,-411.48242
4859000000,-6.2688727,-411.92517
4860000000,-6.2274041,-411.71884
4861000000,-6.2400799,-411.92264
4862000000,-6.239594,-411.97806
4863000000,-6.2587466,-412.04517
4864000000,-6.2333589,-412.12921
4865000000,-6.2536783,-412.43295
4866000000,-6.2410946,-412.32257
4867000000,-6.2211447,-412.5741
4868000000,-6.2356286,-412.61972
4869000000,-6.2239609,-412.819
4870000000,-6.2506638,-412.97839
4871000000,-6.2306647,-412.99649
4872000000,-6.2423487,-413.12863
4873000000,-6.2356114,-413.20264
4874000000,-6.237196,-413.27716
4875000000,-6.2288494,-413.36914
4876000000,-6.2208619,-413.52988
4877000000,-6.2359118,-413.79489
4878000000,-6.249002,-413.8114
4879000000,-6.2240176,-413.88855
4880000000,-6.2352171,-413.9375
4881000000,-6.2276263,-414.16245
4882000000,-6.2267351,-414.1893
4883000000,-6.2296309,-414.36597
4884000000,-6.2155414,-414.59009
4885000000,-6.2273154,-414.45325
4886000000,-6.2101841,-414.71768
4887000000,-6.2330174,-414.98236
4888000000,-6.2209544,-415.12512
4889000000,-6.2325993,-415.07928
4890000000,-6.1867142,-415.18637
4891000000,-6.1929417,-415.19846
4892000000,-6.2360992,-415.40231
4893000000,-6.2077584,-415.56516
4894000000,-6.2175264,-415.48892
4895000000,-6.2063451,-415.69955
4896000000,-6.2199078,-415.85522
4897000000,-6.2123432,-415.93964
4898000000,-6.200542,-416.03177
4899000000,-6.202096,-415.99588
4900000000,-6.2216158,-416.14792
4901000000,-6.2551818,-416.41663
4902000000,-6.223249,-416.57346
4903000000,-6.2189593,-416.46234
4904000000,-6.2187815,-416.69931
4905000000,-6.2158747,-416.74506
4906000000,-6.2351427,-416.91092
4907000000,-6.220346,-417.17358
4908000000,-6.2117181,-417.06952
4909000000,-6.2127471,-417.46832
4910000000,-6.2149053,-417.50375
4911000000,-6.2194505,-417.46564
4912000000,-6.1723022,-417.64883
4913000000,-6.2249575,-417.82397
4914000000,-6.2491884,-417.92822
4915000000,-6.2294059,-418.0434
4916000000,-6.2419066,-418.21255
4917000000,-6.2251573,-418.16492
4918000000,-6.2198033,-418.3085
4919000000,-6.2103271,-418.49405
4920000000,-6.2225037,-418.57986
4921000000,-6.2252445,-418.63889
4922000000,-6.2134318,-418.90744
4923000000,-6.2220097,-418.97119
4924000000,-6.2162242,-419.27505
4925000000,-6.2110033,-419.24829
4926000000,-6.215076,-419.34753
4927000000,-6.2055969,-419.37967
4928000000,-6.2265711,-419.32864
4929000000,-6.206831,-419.65118
4930000000,-6.2041445,-419.74432
4931000000,-6.19556,-419.77933
4932000000,-6.2189589,-419.94098
4933000000,-6.20645,-420.03705
4934000000,-6.2234979,-420.19598
4935000000,-6.2216396,-420.26218
4936000000,-6.1991978,-420.45703
4937000000,-6.2015314,-420.4642
4938000000,-6.238709,-420.85632
4939000000,-6.2338991,-420.87262
4940000000,-6.2357764,-420.97037
4941000000,-6.2372365,-421.02109
4942000000,-6.2429357,-421.14343
4943000000,-6.2335887,-421.35065
4944000000,-6.2073846,-421.11987
4945000000,-6.2193704,-421.54474
4946000000,-6.2181778,-421.47757
4947000000,-6.2096572,-421.78171
4948000000,-6.2221503,-421.78561
4949000000,-6.2014003,-421.93719
4950000000,-6.2301126,-422.11285
4951000000,-6.2357574,-422.18668
4952000000,-6.2293596,-422.20502
4953000000,-6.2068977,-422.42993
4954000000,-6.1930466,-422.36548
4955000000,-6.2029886,-422.55579
4956000000,-6.2074509,-422.67764
4957000000,-6.1964097,-422.77704
4958000000,-6.1949458,-422.97552
4959000000,-6.2215834,-423.14029
4960000000,-6.2200947,-423.32678
4961000000,-6.205224,-423.25745
4962000000,-6.2241993,-423.5928
4963000000,-6.2301488,-423.3714
4964000000,-6.1917372,-423.67819
4965000000,-6.2150912,-423.82233
4966000000,-6.2200413,-424.00177
4967000000,-6.2192192,-423.90768
4968000000,-6.2413907,-424.1059
4969000000,-6.2067442,-424.2778
4970000000,-6.2283211,-424.28241
4971000000,-6.2098236,-424.42532
4972000000,-6.216506,-424.5946
4973000000,-6.2352386,-424.75394
4974000000,-6.2167301,-424.78036
4975000000,-6.2082386,-424.92767
4976000000,-6.2225065,-425.08902
4977000000,-6.230669,-425.29306
4978000000,-6.1997509,-425.27487
4979000000,-6.2328777,-425.25854
4980000000,-6.2221451,-425.64032
4981000000,-6.2235336,-425.55042
4982000000,-6.2050576,-425.6333
4983000000,-6.2345695,-425.74792
4984000000,-6.2139106,-426.00543
4985000000,-6.2228823,-426.06076
4986000000,-6.1980476,-426.13278
4987000000,-6.2286177,-426.38278
4988000000,-6.2130771,-426.45432
4989000000,-6.2131929,-426.37857
4990000000,-6.2205215,-426.73404
4991000000,-6.2323022,-426.84885
4992000000,-6.2298379,-427.01251
4993000000,-6.2299871,-427.05084
4994000000,-6.2255039,-427.0723
4995000000,-6.2156458,-427.22583
4996000000,-6.216754,-427.42767
4997000000,-6.2338777,-427.30313
4998000000,-6.216331,-427.42206
4999000000,-6.2261147,-427.78448
5000000000,-6.203301,-427.89984
END,,
