Freq [GHz],"Simul_cang_deg(S(2,1)) [deg]",Measure_S21 Phase(°)
1,-0.019726968,-1.0466095
1.001,-0.020069203,-1.1203889
1.002,-0.020412053,-1.0751463
1.003,-0.020755518,-1.0280029
1.004,-0.021099597,-1.2026088
1.005,-0.021444289,-1.0324788
1.006,-0.021789594,-1.0893017
1.007,-0.022135511,-1.0130893
1.008,-0.022482039,-1.0426773
1.009,-0.022829177,-1.1054015
1.01,-0.023176925,-1.2331917
1.011,-0.023525283,-1.0781436
1.012,-0.023874249,-1.1160668
1.013,-0.024223822,-0.94568348
1.014,-0.024574002,-0.95966655
1.015,-0.024924789,-1.1749361
1.016,-0.025276181,-0.89549041
1.017,-0.025628177,-1.0367901
1.018,-0.025980778,-1.0908037
1.019,-0.026333982,-0.89263362
1.02,-0.026687788,-1.0716237
1.021,-0.027042196,-1.1177448
1.022,-0.027397205,-1.2679265
1.023,-0.027752814,-1.018997
1.024,-0.028109023,-1.091535
1.025,-0.028465831,-1.063604
1.026,-0.028823236,-0.93648511
1.027,-0.029181239,-1.1675966
1.028,-0.029539838,-1.2562506
1.029,-0.029899032,-1.1249985
1.03,-0.030258822,-1.1063769
1.031,-0.030619206,-1.1930557
1.032,-0.030980183,-1.1060852
1.033,-0.031341752,-1.0651867
1.034,-0.031703913,-1.0924323
1.035,-0.032066666,-0.9852978
1.036,-0.032430008,-1.0906591
1.037,-0.03279394,-1.1388969
1.038,-0.033158461,-0.86436117
1.039,-0.033523569,-1.0324436
1.04,-0.033889264,-1.1051047
1.041,-0.034255546,-0.93907589
1.042,-0.034622413,-1.0734477
1.043,-0.034989865,-1.2111028
1.044,-0.0353579,-1.015277
1.045,-0.035726518,-1.0310956
1.046,-0.036095719,-0.9501425
1.047,-0.036465501,-0.96310705
1.048,-0.036835863,-1.2081287
1.049,-0.037206805,-1.0223821
1.05,-0.037578326,-1.0296708
1.051,-0.037950426,-1.1276445
1.052,-0.038323102,-1.0486428
1.053,-0.038696354,-0.9370262
1.054,-0.039070183,-1.1456369
1.055,-0.039444586,-0.84069932
1.056,-0.039819562,-1.1868272
1.057,-0.040195112,-1.1003995
1.058,-0.040571234,-1.2010443
1.059,-0.040947928,-0.92468446
1.06,-0.041325191,-0.84059733
1.061,-0.041703025,-0.88096708
1.062,-0.042081427,-0.86178547
1.063,-0.042460397,-0.92266858
1.064,-0.042839934,-1.250824
1.065,-0.043220037,-1.1299291
1.066,-0.043600706,-1.1246532
1.067,-0.043981939,-0.87919086
1.068,-0.044363736,-1.0803902
1.069,-0.044746095,-1.0827769
1.07,-0.045129016,-0.91513896
1.071,-0.045512498,-1.0042876
1.072,-0.04589654,-1.0709114
1.073,-0.046281142,-1.0722151
1.074,-0.046666301,-0.78532803
1.075,-0.047052018,-0.97462565
1.076,-0.047438292,-1.0387803
1.077,-0.047825121,-0.91490054
1.078,-0.048212504,-1.0129908
1.079,-0.048600442,-1.0421331
1.08,-0.048988932,-0.96352905
1.081,-0.049377974,-0.72338241
1.082,-0.049767568,-1.014689
1.083,-0.050157712,-0.92634124
1.084,-0.050548404,-1.0036035
1.085,-0.050939646,-1.0923333
1.086,-0.051331434,-0.96999443
1.087,-0.051723769,-0.99148744
1.088,-0.05211665,-0.9759984
1.089,-0.052510075,-0.97875607
1.09,-0.052904044,-0.95152539
1.091,-0.053298556,-1.0664996
1.092,-0.05369361,-1.0325278
1.093,-0.054089205,-0.85887957
1.094,-0.054485339,-1.0723375
1.095,-0.054882013,-0.77911347
1.096,-0.055279225,-0.99527413
1.097,-0.055676973,-1.0109444
1.098,-0.056075259,-0.93573868
1.099,-0.056474079,-1.1826799
1.1,-0.056873434,-1.0047516
1.101,-0.057273322,-0.96223545
1.102,-0.057673742,-1.1220844
1.103,-0.058074694,-0.88380939
1.104,-0.058476176,-0.97115475
1.105,-0.058878188,-0.94983953
1.106,-0.059280728,-0.95466816
1.107,-0.059683796,-1.1070039
1.108,-0.06008739,-1.0584328
1.109,-0.06049151,-1.0775591
1.11,-0.060896155,-1.1105188
1.111,-0.061301323,-1.0696284
1.112,-0.061707014,-0.85511321
1.113,-0.062113227,-0.95697641
1.114,-0.06251996,-0.80997074
1.115,-0.062927214,-1.1311065
1.116,-0.063334985,-0.97208494
1.117,-0.063743275,-1.0393488
1.118,-0.064152081,-0.91418499
1.119,-0.064561403,-0.95185113
1.12,-0.06497124,-1.0534819
1.121,-0.065381591,-1.034296
1.122,-0.065792454,-1.0512551
1.123,-0.066203829,-0.84093052
1.124,-0.066615715,-0.97954595
1.125,-0.06702811,-1.0784127
1.126,-0.067441014,-1.135464
1.127,-0.067854426,-0.93677902
1.128,-0.068268344,-0.97053307
1.129,-0.068682768,-1.0859334
1.13,-0.069097697,-1.1167333
1.131,-0.069513129,-1.0618432
1.132,-0.069929064,-1.0558382
1.133,-0.0703455,-1.0084215
1.134,-0.070762437,-1.0530305
1.135,-0.071179873,-1.0387447
1.136,-0.071597808,-1.1662179
1.137,-0.07201624,-1.0063088
1.138,-0.072435168,-1.1442784
1.139,-0.072854592,-1.0650778
1.14,-0.07327451,-1.1398815
1.141,-0.073694921,-0.86216891
1.142,-0.074115824,-0.95821506
1.143,-0.074537218,-0.89477718
1.144,-0.074959103,-1.0113207
1.145,-0.075381476,-1.1436744
1.146,-0.075804337,-1.030965
1.147,-0.076227685,-0.94326597
1.148,-0.076651519,-1.1155117
1.149,-0.077075838,-1.0353452
1.15,-0.07750064,-0.92776531
1.151,-0.077925925,-0.99634027
1.152,-0.078351692,-1.112324
1.153,-0.078777938,-1.1325386
1.154,-0.079204665,-0.95749229
1.155,-0.079631869,-0.98196018
1.156,-0.080059551,-1.0002427
1.157,-0.080487709,-1.1784095
1.158,-0.080916342,-0.9691456
1.159,-0.081345449,-1.1280606
1.16,-0.081775028,-0.99370569
1.161,-0.08220508,-1.0454421
1.162,-0.082635602,-1.0558844
1.163,-0.083066594,-1.0257349
1.164,-0.083498054,-1.0768161
1.165,-0.083929982,-1.1912775
1.166,-0.084362376,-1.0436302
1.167,-0.084795235,-1.0096794
1.168,-0.085228558,-0.96418476
1.169,-0.085662344,-1.015802
1.17,-0.086096592,-0.9636718
1.171,-0.086531301,-0.97367388
1.172,-0.086966469,-0.94046938
1.173,-0.087402096,-1.0117036
1.174,-0.087838181,-1.1151043
1.175,-0.088274721,-1.1788949
1.176,-0.088711717,-1.0573192
1.177,-0.089149167,-1.1021662
1.178,-0.089587069,-1.0775987
1.179,-0.090025424,-1.0147599
1.18,-0.090464229,-0.91412199
1.181,-0.090903483,-0.94583863
1.182,-0.091343186,-1.1490767
1.183,-0.091783336,-0.83663362
1.184,-0.092223932,-1.0713546
1.185,-0.092664974,-0.87393224
1.186,-0.093106459,-1.0367271
1.187,-0.093548386,-1.0816317
1.188,-0.093990755,-0.92654866
1.189,-0.094433565,-0.84334219
1.19,-0.094876814,-0.92707366
1.191,-0.095320501,-0.89920223
1.192,-0.095764624,-0.85169411
1.193,-0.096209184,-1.0013853
1.194,-0.096654178,-1.0944808
1.195,-0.097099606,-0.86625195
1.196,-0.097545465,-0.88324749
1.197,-0.097991756,-0.86202157
1.198,-0.098438477,-1.1069103
1.199,-0.098885627,-0.93427151
1.2,-0.099333204,-0.97807509
1.201,-0.099781208,-1.0617598
1.202,-0.100229637,-0.94702023
1.203,-0.10067849,-1.2553504
1.204,-0.101127766,-0.9080773
1.205,-0.101577464,-1.0523016
1.206,-0.102027582,-0.79856998
1.207,-0.10247812,-0.87185603
1.208,-0.102929075,-1.1502762
1.209,-0.103380448,-1.1302154
1.21,-0.103832237,-0.82747447
1.211,-0.10428444,-1.0446694
1.212,-0.104737057,-0.97463781
1.213,-0.105190086,-0.87457389
1.214,-0.105643525,-0.94573873
1.215,-0.106097375,-1.0184985
1.216,-0.106551634,-0.93569791
1.217,-0.107006299,-0.98123479
1.218,-0.107461372,-0.95805985
1.219,-0.107916849,-0.98133659
1.22,-0.10837273,-1.0781826
1.221,-0.108829013,-1.0073204
1.222,-0.109285698,-1.1519731
1.223,-0.109742783,-0.98676467
1.224,-0.110200267,-0.84051788
1.225,-0.110658149,-0.8152588
1.226,-0.111116427,-0.95426613
1.227,-0.111575101,-0.92722422
1.228,-0.112034169,-1.0849049
1.229,-0.11249363,-1.065913
1.23,-0.112953482,-0.98676854
1.231,-0.113413725,-0.87076843
1.232,-0.113874357,-0.90413624
1.233,-0.114335377,-1.150485
1.234,-0.114796784,-1.2167265
1.235,-0.115258576,-0.9961403
1.236,-0.115720753,-0.89868057
1.237,-0.116183312,-0.78128093
1.238,-0.116646254,-0.93650764
1.239,-0.117109576,-1.0010996
1.24,-0.117573277,-0.98479432
1.241,-0.118037356,-1.1386894
1.242,-0.118501812,-0.8934201
1.243,-0.118966644,-0.97782528
1.244,-0.11943185,-0.84854221
1.245,-0.11989743,-0.93833971
1.246,-0.120363381,-0.85300398
1.247,-0.120829702,-1.1076087
1.248,-0.121296393,-0.90857559
1.249,-0.121763452,-0.99992126
1.25,-0.122230878,-0.90267193
1.251,-0.12269867,-1.0511382
1.252,-0.123166826,-0.93690699
1.253,-0.123635345,-0.91050017
1.254,-0.124104225,-1.0024191
1.255,-0.124573466,-0.73677957
1.256,-0.125043067,-0.9390344
1.257,-0.125513025,-1.0719634
1.258,-0.12598334,-1.2096918
1.259,-0.126454011,-0.83298892
1.26,-0.126925035,-0.97000664
1.261,-0.127396413,-0.90692097
1.262,-0.127868142,-1.1740721
1.263,-0.128340222,-0.93826044
1.264,-0.12881265,-0.86982435
1.265,-0.129285427,-0.93426371
1.266,-0.129758549,-1.0821443
1.267,-0.130232017,-0.83121216
1.268,-0.130705829,-0.84882623
1.269,-0.131179984,-1.0638871
1.27,-0.13165448,-0.82443017
1.271,-0.132129316,-0.97854304
1.272,-0.132604491,-0.96293223
1.273,-0.133080003,-1.0678716
1.274,-0.133555852,-0.83891195
1.275,-0.134032035,-0.9675613
1.276,-0.134508552,-0.94853216
1.277,-0.134985401,-0.78215617
1.278,-0.135462582,-0.92336899
1.279,-0.135940092,-0.92251074
1.28,-0.13641793,-0.91586637
1.281,-0.136896096,-0.96793121
1.282,-0.137374587,-1.0935503
1.283,-0.137853402,-0.93462676
1.284,-0.138332541,-0.93832278
1.285,-0.138812002,-1.012705
1.286,-0.139291783,-0.84647399
1.287,-0.139771884,-0.99710709
1.288,-0.140252302,-0.91401517
1.289,-0.140733037,-0.88168716
1.29,-0.141214088,-0.91575956
1.291,-0.141695452,-1.0357529
1.292,-0.142177129,-1.1208127
1.293,-0.142659117,-0.97915119
1.294,-0.143141416,-0.83610743
1.295,-0.143624023,-1.1382022
1.296,-0.144106937,-0.97950143
1.297,-0.144590158,-1.1104608
1.298,-0.145073683,-0.86010534
1.299,-0.145557511,-0.86343205
1.3,-0.146041642,-1.208057
1.301,-0.146526073,-1.0676316
1.302,-0.147010804,-0.95038241
1.303,-0.147495833,-0.76573068
1.304,-0.147981158,-0.83955693
1.305,-0.148466779,-1.0693471
1.306,-0.148952694,-0.99482912
1.307,-0.149438902,-1.0155715
1.308,-0.149925401,-0.98369294
1.309,-0.15041219,-0.9309597
1.31,-0.150899268,-0.90301633
1.311,-0.151386633,-1.1447397
1.312,-0.151874284,-1.1788696
1.313,-0.15236222,-0.8797006
1.314,-0.152850439,-0.93421161
1.315,-0.15333894,-0.86148703
1.316,-0.153827722,-0.95497018
1.317,-0.154316783,-0.88588202
1.318,-0.154806122,-0.97502202
1.319,-0.155295737,-1.0710741
1.32,-0.155785628,-0.90758765
1.321,-0.156275792,-0.86798871
1.322,-0.156766229,-0.87401867
1.323,-0.157256937,-0.97507834
1.324,-0.157747915,-0.91254687
1.325,-0.158239162,-0.94937366
1.326,-0.158730675,-0.90250522
1.327,-0.159222454,-0.95504469
1.328,-0.159714498,-0.92848748
1.329,-0.160206804,-0.90997297
1.33,-0.160699372,-0.80634052
1.331,-0.1611922,-0.9068346
1.332,-0.161685288,-0.90198702
1.333,-0.162178632,-1.0821675
1.334,-0.162672233,-0.88585341
1.335,-0.163166089,-1.1463675
1.336,-0.163660198,-0.97092485
1.337,-0.164154559,-0.89850062
1.338,-0.16464917,-1.0749253
1.339,-0.165144031,-1.0378355
1.34,-0.16563914,-0.90415919
1.341,-0.166134496,-1.2105266
1.342,-0.166630096,-1.0015604
1.343,-0.16712594,-0.93887758
1.344,-0.167622027,-1.038813
1.345,-0.168118355,-1.0536447
1.346,-0.168614922,-0.98255175
1.347,-0.169111728,-1.0097743
1.348,-0.16960877,-0.95292163
1.349,-0.170106048,-1.0930557
1.35,-0.17060356,-1.0064522
1.351,-0.171101305,-0.93938112
1.352,-0.171599281,-0.87668759
1.353,-0.172097487,-0.7638638
1.354,-0.172595921,-0.98190469
1.355,-0.173094583,-1.0457499
1.356,-0.17359347,-1.1374058
1.357,-0.174092582,-1.1142694
1.358,-0.174591917,-0.97371668
1.359,-0.175091473,-0.92687309
1.36,-0.17559125,-1.1498045
1.361,-0.176091245,-0.86384356
1.362,-0.176591458,-0.97496128
1.363,-0.177091887,-1.0503572
1.364,-0.17759253,-0.94799685
1.365,-0.178093387,-0.98821837
1.366,-0.178594455,-1.0061086
1.367,-0.179095734,-0.93039036
1.368,-0.179597221,-0.97677225
1.369,-0.180098917,-0.94306761
1.37,-0.180600818,-0.84142077
1.371,-0.181102925,-0.96718001
1.372,-0.181605234,-0.96479911
1.373,-0.182107746,-1.0389196
1.374,-0.182610458,-0.79154533
1.375,-0.18311337,-0.99819547
1.376,-0.183616479,-1.0216162
1.377,-0.184119785,-0.74538374
1.378,-0.184623285,-0.84660238
1.379,-0.185126979,-0.92510718
1.38,-0.185630865,-0.92815518
1.381,-0.186134942,-0.88634783
1.382,-0.186639209,-0.84954226
1.383,-0.187143663,-1.0608882
1.384,-0.187648303,-0.82835239
1.385,-0.188153129,-1.1788095
1.386,-0.188658138,-0.83952755
1.387,-0.189163329,-0.76546729
1.388,-0.189668702,-0.95043361
1.389,-0.190174253,-0.7664361
1.39,-0.190679983,-0.83202475
1.391,-0.191185889,-0.85859025
1.392,-0.191691971,-1.044623
1.393,-0.192198226,-1.0075527
1.394,-0.192704653,-0.95161122
1.395,-0.193211251,-0.90127099
1.396,-0.193718019,-0.79282898
1.397,-0.194224955,-0.7917276
1.398,-0.194732057,-0.81569558
1.399,-0.195239325,-0.78601086
1.4,-0.195746756,-0.88219839
1.401,-0.196254349,-0.8365131
1.402,-0.196762104,-1.0474535
1.403,-0.197270018,-0.98917776
1.404,-0.19777809,-0.89403605
1.405,-0.198286319,-0.96125233
1.406,-0.198794702,-0.85386699
1.407,-0.19930324,-0.78329206
1.408,-0.19981193,-1.040127
1.409,-0.200320771,-0.86378753
1.41,-0.200829761,-0.94049793
1.411,-0.2013389,-1.0339956
1.412,-0.201848185,-0.71156245
1.413,-0.202357615,-0.95512831
1.414,-0.202867189,-0.8609128
1.415,-0.203376905,-0.89771706
1.416,-0.203886762,-0.80472088
1.417,-0.204396759,-0.89582843
1.418,-0.204906894,-0.93569332
1.419,-0.205417165,-0.82260722
1.42,-0.205927571,-0.92196864
1.421,-0.206438112,-1.0509738
1.422,-0.206948784,-0.90117657
1.423,-0.207459587,-0.71209842
1.424,-0.20797052,-0.91737723
1.425,-0.208481581,-0.73313087
1.426,-0.208992768,-0.92883444
1.427,-0.20950408,-1.0006378
1.428,-0.210015516,-0.97047043
1.429,-0.210527074,-0.89205188
1.43,-0.211038753,-0.90560251
1.431,-0.211550551,-0.7780757
1.432,-0.212062467,-0.80958784
1.433,-0.2125745,-0.84505022
1.434,-0.213086647,-0.96458226
1.435,-0.213598908,-0.84343952
1.436,-0.214111282,-0.82469428
1.437,-0.214623766,-1.0518928
1.438,-0.215136359,-0.86518806
1.439,-0.21564906,-0.78897059
1.44,-0.216161867,-0.8573705
1.441,-0.216674779,-0.98909861
1.442,-0.217187795,-0.98917735
1.443,-0.217700913,-0.82204068
1.444,-0.218214131,-0.99671149
1.445,-0.218727449,-0.84853011
1.446,-0.219240864,-1.0265822
1.447,-0.219754375,-0.90807527
1.448,-0.220267981,-0.76863331
1.449,-0.220781681,-0.81730545
1.45,-0.221295472,-0.80330908
1.451,-0.221809354,-1.0034177
1.452,-0.222323325,-0.67667592
1.453,-0.222837384,-0.76339906
1.454,-0.223351528,-0.82316542
1.455,-0.223865758,-0.83956265
1.456,-0.22438007,-0.98536485
1.457,-0.224894465,-0.80414307
1.458,-0.225408939,-0.73105156
1.459,-0.225923493,-0.92371637
1.46,-0.226438124,-0.75195694
1.461,-0.22695283,-0.88591558
1.462,-0.227467612,-0.73582482
1.463,-0.227982466,-0.81136274
1.464,-0.228497392,-0.75078094
1.465,-0.229012389,-0.74276674
1.466,-0.229527454,-0.85942763
1.467,-0.230042586,-0.8219561
1.468,-0.230557784,-0.86045724
1.469,-0.231073047,-0.88203162
1.47,-0.231588372,-0.82386363
1.471,-0.232103759,-0.93630457
1.472,-0.232619206,-0.7494188
1.473,-0.233134712,-1.1020179
1.474,-0.233650275,-0.89069796
1.475,-0.234165893,-0.91590482
1.476,-0.234681566,-0.79456699
1.477,-0.235197291,-0.846946
1.478,-0.235713068,-0.92694598
1.479,-0.236228895,-0.82339084
1.48,-0.23674477,-0.8111881
1.481,-0.237260692,-0.96533936
1.482,-0.237776659,-0.7871685
1.483,-0.238292671,-0.98688847
1.484,-0.238808725,-0.88685817
1.485,-0.23932482,-0.80719501
1.486,-0.239840956,-0.89605892
1.487,-0.240357129,-1.0087572
1.488,-0.240873339,-0.76628965
1.489,-0.241389585,-0.86929059
1.49,-0.241905864,-0.99364048
1.491,-0.242422176,-0.89521033
1.492,-0.242938519,-0.92376399
1.493,-0.243454892,-0.70676374
1.494,-0.243971292,-0.85707885
1.495,-0.24448772,-0.92898858
1.496,-0.245004172,-0.88138962
1.497,-0.245520649,-0.87047315
1.498,-0.246037147,-0.86183023
1.499,-0.246553667,-0.83308762
1.5,-0.247070205,-1.1209069
1.501,-0.247586762,-0.91775537
1.502,-0.248103336,-1.0554653
1.503,-0.248619924,-0.9845655
1.504,-0.249136526,-1.0489334
1.505,-0.24965314,-0.96964747
1.506,-0.250169765,-0.95113683
1.507,-0.250686399,-1.0247732
1.508,-0.251203041,-1.0132767
1.509,-0.251719689,-0.91359776
1.51,-0.252236342,-0.87842852
1.511,-0.252752999,-0.97341692
1.512,-0.253269657,-0.86220205
1.513,-0.253786316,-0.87174398
1.514,-0.254302975,-0.73291731
1.515,-0.254819631,-0.91142315
1.516,-0.255336283,-1.0485529
1.517,-0.25585293,-0.68317538
1.518,-0.25636957,-0.9855473
1.519,-0.256886202,-1.0396458
1.52,-0.257402824,-0.8804419
1.521,-0.257919436,-0.92668217
1.522,-0.258436035,-0.71350735
1.523,-0.25895262,-1.0200266
1.524,-0.25946919,-0.84205204
1.525,-0.259985743,-0.71568537
1.526,-0.260502277,-0.91875714
1.527,-0.261018792,-0.82963979
1.528,-0.261535286,-0.95977467
1.529,-0.262051757,-0.83451444
1.53,-0.262568204,-0.72582817
1.531,-0.263084626,-0.90048146
1.532,-0.263601021,-0.94580382
1.533,-0.264117387,-0.84417325
1.534,-0.264633723,-0.69359004
1.535,-0.265150029,-0.86951602
1.536,-0.265666301,-0.999654
1.537,-0.26618254,-0.96714199
1.538,-0.266698743,-0.80611289
1.539,-0.267214908,-1.030022
1.54,-0.267731036,-0.93706661
1.541,-0.268247123,-0.91155618
1.542,-0.268763169,-0.80372822
1.543,-0.269279173,-0.70287484
1.544,-0.269795132,-0.91340941
1.545,-0.270311045,-0.7471841
1.546,-0.270826911,-0.69037235
1.547,-0.271342729,-0.81880593
1.548,-0.271858497,-1.0267189
1.549,-0.272374213,-0.869528
1.55,-0.272889876,-1.0306516
1.551,-0.273405485,-0.80310577
1.552,-0.273921039,-0.77510333
1.553,-0.274436535,-0.98656821
1.554,-0.274951973,-0.71400422
1.555,-0.27546735,-0.89547038
1.556,-0.275982666,-0.81558949
1.557,-0.276497919,-0.92160875
1.558,-0.277013108,-0.81654406
1.559,-0.277528231,-0.89003003
1.56,-0.278043287,-1.0848893
1.561,-0.278558274,-0.95037711
1.562,-0.279073191,-0.80669457
1.563,-0.279588037,-0.92711323
1.564,-0.280102809,-1.0041816
1.565,-0.280617508,-1.0028943
1.566,-0.28113213,-0.82758576
1.567,-0.281646675,-0.87031955
1.568,-0.282161142,-0.7536096
1.569,-0.282675528,-0.83438671
1.57,-0.283189833,-0.77084678
1.571,-0.283704055,-0.87288409
1.572,-0.284218193,-0.98647827
1.573,-0.284732245,-0.96368188
1.574,-0.28524621,-0.86592746
1.575,-0.285760086,-0.93669099
1.576,-0.286273872,-0.87007421
1.577,-0.286787566,-0.93551511
1.578,-0.287301168,-0.96735311
1.579,-0.287814675,-0.88415575
1.58,-0.288328086,-0.77560169
1.581,-0.288841401,-0.87029719
1.582,-0.289354617,-0.88919318
1.583,-0.289867732,-0.90889829
1.584,-0.290380746,-0.92115027
1.585,-0.290893658,-0.90030611
1.586,-0.291406465,-0.89314216
1.587,-0.291919167,-0.85288757
1.588,-0.292431761,-0.86473233
1.589,-0.292944247,-0.890504
1.59,-0.293456623,-0.81784892
1.591,-0.293968887,-0.8650226
1.592,-0.294481039,-0.7226826
1.593,-0.294993077,-0.9268319
1.594,-0.295504999,-0.91570359
1.595,-0.296016804,-0.79778332
1.596,-0.296528491,-0.8201943
1.597,-0.297040058,-0.85594529
1.598,-0.297551503,-0.79058468
1.599,-0.298062826,-0.86399138
1.6,-0.298574025,-0.94223166
1.601,-0.299085099,-0.76424021
1.602,-0.299596046,-0.83940101
1.603,-0.300106864,-0.72546005
1.604,-0.300617553,-0.78611881
1.605,-0.301128111,-0.87196827
1.606,-0.301638536,-0.79341286
1.607,-0.302148828,-0.78989178
1.608,-0.302658984,-0.91552144
1.609,-0.303169004,-0.81127119
1.61,-0.303678885,-0.5727405
1.611,-0.304188627,-0.70060581
1.612,-0.304698229,-0.82692426
1.613,-0.305207687,-0.8708635
1.614,-0.305717003,-0.6000762
1.615,-0.306226173,-0.88073325
1.616,-0.306735197,-0.88805944
1.617,-0.307244073,-0.88719636
1.618,-0.3077528,-0.79565853
1.619,-0.308261376,-0.87048715
1.62,-0.3087698,-0.90242785
1.621,-0.309278071,-0.97435176
1.622,-0.309786187,-0.87179565
1.623,-0.310294147,-0.77318871
1.624,-0.31080195,-0.68982118
1.625,-0.311309593,-0.67741281
1.626,-0.311817076,-0.76731586
1.627,-0.312324398,-0.78674352
1.628,-0.312831556,-0.8139016
1.629,-0.31333855,-0.91208851
1.63,-0.313845378,-0.7923063
1.631,-0.314352039,-0.75786805
1.632,-0.314858531,-0.9545325
1.633,-0.315364853,-0.73208135
1.634,-0.315871004,-0.86611617
1.635,-0.316376982,-0.77554899
1.636,-0.316882787,-0.75989383
1.637,-0.317388415,-0.71726018
1.638,-0.317893867,-0.92023075
1.639,-0.31839914,-0.78012574
1.64,-0.318904234,-0.67889917
1.641,-0.319409147,-0.76786339
1.642,-0.319913878,-0.99309903
1.643,-0.320418425,-0.87125945
1.644,-0.320922787,-0.82593125
1.645,-0.321426962,-0.7699275
1.646,-0.32193095,-0.97594535
1.647,-0.322434749,-0.97491753
1.648,-0.322938357,-0.54946935
1.649,-0.323441773,-0.68107992
1.65,-0.323944996,-0.78052044
1.651,-0.324448024,-0.6254344
1.652,-0.324950857,-0.82607687
1.653,-0.325453492,-0.8021155
1.654,-0.325955928,-0.90812415
1.655,-0.326458165,-0.80189717
1.656,-0.3269602,-0.91227049
1.657,-0.327462032,-0.52933252
1.658,-0.32796366,-0.91881275
1.659,-0.328465083,-0.7934888
1.66,-0.328966299,-0.93595856
1.661,-0.329467307,-0.89467043
1.662,-0.329968106,-0.84963417
1.663,-0.330468694,-0.59267324
1.664,-0.330969069,-0.75479704
1.665,-0.331469232,-0.87021327
1.666,-0.331969179,-0.79067761
1.667,-0.33246891,-0.91864115
1.668,-0.332968424,-0.69990706
1.669,-0.333467719,-0.72003412
1.67,-0.333966793,-0.83791178
1.671,-0.334465646,-0.75944513
1.672,-0.334964277,-0.77872121
1.673,-0.335462683,-0.88320988
1.674,-0.335960863,-0.84909165
1.675,-0.336458817,-0.86189407
1.676,-0.336956543,-0.62694377
1.677,-0.337454039,-0.81951016
1.678,-0.337951304,-0.75466639
1.679,-0.338448338,-0.80129981
1.68,-0.338945137,-0.8619808
1.681,-0.339441702,-0.75828046
1.682,-0.339938031,-0.82293493
1.683,-0.340434123,-0.83365721
1.684,-0.340929975,-0.85222781
1.685,-0.341425588,-0.76871043
1.686,-0.341920959,-0.78136957
1.687,-0.342416088,-0.79689538
1.688,-0.342910972,-0.71803552
1.689,-0.343405612,-0.72532904
1.69,-0.343900004,-0.83058447
1.691,-0.344394149,-0.73670465
1.692,-0.344888045,-0.81220478
1.693,-0.34538169,-0.71463329
1.694,-0.345875083,-0.7567153
1.695,-0.346368223,-0.91312695
1.696,-0.346861109,-0.81518877
1.697,-0.347353738,-0.7537455
1.698,-0.347846111,-0.76200545
1.699,-0.348338226,-0.76728874
1.7,-0.348830081,-0.74943542
1.701,-0.349321674,-0.94060469
1.702,-0.349813006,-0.85956281
1.703,-0.350304074,-0.83523011
1.704,-0.350794878,-0.92183018
1.705,-0.351285415,-0.76212615
1.706,-0.351775685,-0.5969258
1.707,-0.352265686,-0.69976091
1.708,-0.352755418,-0.84244567
1.709,-0.353244878,-0.83010906
1.71,-0.353734065,-0.79840499
1.711,-0.354222979,-0.80381608
1.712,-0.354711618,-0.59869039
1.713,-0.35519998,-0.62681603
1.714,-0.355688065,-0.73781997
1.715,-0.356175871,-0.66841626
1.716,-0.356663397,-0.78056246
1.717,-0.357150641,-0.87793219
1.718,-0.357637603,-0.78734112
1.719,-0.358124281,-0.72941834
1.72,-0.358610673,-0.70224357
1.721,-0.359096779,-0.71220762
1.722,-0.359582597,-0.61986595
1.723,-0.360068127,-0.59779912
1.724,-0.360553366,-0.79391193
1.725,-0.361038313,-0.74144697
1.726,-0.361522968,-0.77569646
1.727,-0.362007328,-0.80560881
1.728,-0.362491394,-0.68871039
1.729,-0.362975162,-0.8188206
1.73,-0.363458633,-0.77339828
1.731,-0.363941805,-0.70628762
1.732,-0.364424677,-0.6258651
1.733,-0.364907247,-0.79328424
1.734,-0.365389514,-0.57512379
1.735,-0.365871478,-0.9156813
1.736,-0.366353136,-0.72114956
1.737,-0.366834488,-0.66071075
1.738,-0.367315531,-0.78984779
1.739,-0.367796266,-0.81001139
1.74,-0.368276691,-0.59386855
1.741,-0.368756804,-0.6885283
1.742,-0.369236605,-0.70917225
1.743,-0.369716092,-0.89291281
1.744,-0.370195263,-0.56140727
1.745,-0.370674119,-0.70702279
1.746,-0.371152656,-0.74043566
1.747,-0.371630875,-0.60699403
1.748,-0.372108774,-0.7886647
1.749,-0.372586352,-0.83166504
1.75,-0.373063607,-0.60769111
1.751,-0.373540539,-0.77397943
1.752,-0.374017146,-0.7620694
1.753,-0.374493427,-0.62580007
1.754,-0.37496938,-0.78991759
1.755,-0.375445005,-0.84589148
1.756,-0.375920301,-0.74929285
1.757,-0.376395265,-0.79156041
1.758,-0.376869897,-0.72232014
1.759,-0.377344197,-0.59637964
1.76,-0.377818161,-0.63706023
1.761,-0.37829179,-0.85200977
1.762,-0.378765082,-0.81693608
1.763,-0.379238036,-0.85727727
1.764,-0.379710651,-0.72880411
1.765,-0.380182925,-0.78073716
1.766,-0.380654857,-0.64777887
1.767,-0.381126447,-0.73764712
1.768,-0.381597693,-0.82228148
1.769,-0.382068593,-0.77397776
1.77,-0.382539148,-0.80139256
1.771,-0.383009354,-0.70520729
1.772,-0.383479212,-0.69098514
1.773,-0.38394872,-0.68129492
1.774,-0.384417877,-0.72599667
1.775,-0.384886682,-0.66607022
1.776,-0.385355133,-0.78755993
1.777,-0.38582323,-0.72967011
1.778,-0.386290971,-0.63055527
1.779,-0.386758355,-0.57732952
1.78,-0.387225381,-0.66986096
1.781,-0.387692048,-0.71483123
1.782,-0.388158354,-0.63449919
1.783,-0.388624299,-0.78590614
1.784,-0.389089881,-0.55223131
1.785,-0.3895551,-0.87241644
1.786,-0.390019953,-0.70967525
1.787,-0.39048444,-0.65170026
1.788,-0.39094856,-0.56711549
1.789,-0.391412312,-0.71748024
1.79,-0.391875694,-0.72969967
1.791,-0.392338705,-0.58762741
1.792,-0.392801344,-0.62876797
1.793,-0.393263611,-0.68939584
1.794,-0.393725503,-0.57960314
1.795,-0.39418702,-0.71121693
1.796,-0.394648161,-0.61067772
1.797,-0.395108924,-0.72526807
1.798,-0.395569309,-0.78259528
1.799,-0.396029313,-0.51647884
1.8,-0.396488937,-0.7183513
1.801,-0.396948179,-0.80773938
1.802,-0.397407038,-0.61797178
1.803,-0.397865513,-0.66509581
1.804,-0.398323602,-0.77899653
1.805,-0.398781305,-0.61298907
1.806,-0.39923862,-0.70952284
1.807,-0.399695547,-0.87007564
1.808,-0.400152084,-0.57014215
1.809,-0.40060823,-0.70781267
1.81,-0.401063984,-0.65832549
1.811,-0.401519345,-0.90608704
1.812,-0.401974311,-0.6916216
1.813,-0.402428883,-0.59917283
1.814,-0.402883058,-0.78688157
1.815,-0.403336836,-0.70195854
1.816,-0.403790215,-0.58038783
1.817,-0.404243194,-0.71391064
1.818,-0.404695773,-0.734519
1.819,-0.40514795,-0.77718556
1.82,-0.405599724,-0.66384143
1.821,-0.406051095,-0.5942592
1.822,-0.40650206,-0.65472883
1.823,-0.406952619,-0.67567044
1.824,-0.407402771,-0.80379492
1.825,-0.407852515,-0.56647128
1.826,-0.408301849,-0.73528588
1.827,-0.408750773,-0.59335357
1.828,-0.409199286,-0.57709169
1.829,-0.409647386,-0.70742923
1.83,-0.410095072,-0.78048944
1.831,-0.410542344,-0.58366251
1.832,-0.4109892,-0.81203306
1.833,-0.41143564,-0.73982078
1.834,-0.411881662,-0.6604889
1.835,-0.412327265,-0.67767411
1.836,-0.412772448,-0.79282904
1.837,-0.41321721,-0.80018508
1.838,-0.41366155,-0.81395352
1.839,-0.414105468,-0.72939348
1.84,-0.414548961,-0.55547035
1.841,-0.414992029,-0.76554984
1.842,-0.415434671,-0.67315054
1.843,-0.415876886,-0.69991535
1.844,-0.416318673,-0.69876564
1.845,-0.416760031,-0.55401158
1.846,-0.417200959,-0.773938
1.847,-0.417641455,-0.63231689
1.848,-0.418081519,-0.69864744
1.849,-0.41852115,-0.73874378
1.85,-0.418960346,-0.66964984
1.851,-0.419399108,-0.67527151
1.852,-0.419837433,-0.55365998
1.853,-0.420275321,-0.72119373
1.854,-0.42071277,-0.64926898
1.855,-0.42114978,-0.67511863
1.856,-0.42158635,-0.69286227
1.857,-0.422022479,-0.81679749
1.858,-0.422458165,-0.81260836
1.859,-0.422893408,-0.57109445
1.86,-0.423328207,-0.67630029
1.861,-0.423762561,-0.64327466
1.862,-0.424196468,-0.75154972
1.863,-0.424629928,-0.65619665
1.864,-0.42506294,-0.896909
1.865,-0.425495503,-0.54625732
1.866,-0.425927615,-0.88381642
1.867,-0.426359276,-0.81805217
1.868,-0.426790486,-0.64753199
1.869,-0.427221242,-0.68896061
1.87,-0.427651544,-0.92594314
1.871,-0.428081391,-0.62627494
1.872,-0.428510782,-0.76083702
1.873,-0.428939716,-0.82409471
1.874,-0.429368193,-0.89792889
1.875,-0.42979621,-0.52148247
1.876,-0.430223768,-0.70549434
1.877,-0.430650864,-0.79299557
1.878,-0.4310775,-0.78514552
1.879,-0.431503672,-0.69028521
1.88,-0.431929381,-0.73503822
1.881,-0.432354626,-0.95600933
1.882,-0.432779404,-0.84993356
1.883,-0.433203717,-0.78051412
1.884,-0.433627562,-0.79632705
1.885,-0.434050939,-0.76032984
1.886,-0.434473847,-0.68937385
1.887,-0.434896284,-0.69268495
1.888,-0.435318251,-0.64529222
1.889,-0.435739745,-0.68189144
1.89,-0.436160767,-0.65147024
1.891,-0.436581315,-0.69363576
1.892,-0.437001388,-0.65938085
1.893,-0.437420985,-0.70726055
1.894,-0.437840106,-0.7576043
1.895,-0.43825875,-0.60822648
1.896,-0.438676915,-0.71963471
1.897,-0.439094601,-0.79300755
1.898,-0.439511807,-0.71481168
1.899,-0.439928531,-0.71267712
1.9,-0.440344774,-0.66984737
1.901,-0.440760534,-0.47351408
1.902,-0.44117581,-0.66147095
1.903,-0.441590602,-0.56719095
1.904,-0.442004908,-0.60345179
1.905,-0.442418727,-0.80478615
1.906,-0.44283206,-0.51356786
1.907,-0.443244904,-0.71021932
1.908,-0.443657259,-0.83316433
1.909,-0.444069124,-0.55175012
1.91,-0.444480499,-0.70182317
1.911,-0.444891382,-0.48268452
1.912,-0.445301773,-0.68953228
1.913,-0.44571167,-0.51289612
1.914,-0.446121073,-0.72717357
1.915,-0.446529981,-0.79846424
1.916,-0.446938393,-0.76831001
1.917,-0.447346308,-0.59179074
1.918,-0.447753725,-0.79124039
1.919,-0.448160645,-0.64835942
1.92,-0.448567064,-0.50273401
1.921,-0.448972984,-0.66491669
1.922,-0.449378403,-0.57692319
1.923,-0.44978332,-0.65446198
1.924,-0.450187734,-0.73385519
1.925,-0.450591645,-0.67549288
1.926,-0.450995051,-0.60331118
1.927,-0.451397953,-0.87504065
1.928,-0.451800348,-0.61397314
1.929,-0.452202237,-0.79247689
1.93,-0.452603618,-0.82189929
1.931,-0.453004491,-0.66426367
1.932,-0.453404854,-0.73815942
1.933,-0.453804707,-0.58993345
1.934,-0.45420405,-0.69680387
1.935,-0.454602881,-0.79745823
1.936,-0.455001199,-0.82557547
1.937,-0.455399005,-0.68631589
1.938,-0.455796296,-0.62504554
1.939,-0.456193072,-0.73071444
1.94,-0.456589333,-0.54557115
1.941,-0.456985077,-0.58839959
1.942,-0.457380305,-0.64817977
1.943,-0.457775014,-0.69108403
1.944,-0.458169204,-0.48982239
1.945,-0.458562875,-0.55475724
1.946,-0.458956026,-0.71521991
1.947,-0.459348655,-0.80795598
1.948,-0.459740763,-0.72311836
1.949,-0.460132348,-0.67136246
1.95,-0.46052341,-0.62880731
1.951,-0.460913947,-0.72910303
1.952,-0.46130396,-0.71564579
1.953,-0.461693447,-0.59948826
1.954,-0.462082408,-0.74821287
1.955,-0.462470841,-0.9786486
1.956,-0.462858747,-0.65523231
1.957,-0.463246123,-0.66654849
1.958,-0.463632971,-0.54612094
1.959,-0.464019288,-0.5611316
1.96,-0.464405075,-0.76558721
1.961,-0.46479033,-0.77853477
1.962,-0.465175052,-0.57473737
1.963,-0.465559242,-0.66233623
1.964,-0.465942897,-0.74220377
1.965,-0.466326019,-0.55158353
1.966,-0.466708605,-0.61758888
1.967,-0.467090655,-0.60589641
1.968,-0.467472168,-0.70884544
1.969,-0.467853144,-0.7568574
1.97,-0.468233582,-0.77013862
1.971,-0.468613481,-0.59829891
1.972,-0.46899284,-0.5019927
1.973,-0.46937166,-0.65924901
1.974,-0.469749938,-0.59733361
1.975,-0.470127675,-0.67196739
1.976,-0.47050487,-0.69572634
1.977,-0.470881522,-0.62198782
1.978,-0.47125763,-0.67617548
1.979,-0.471633193,-0.53363538
1.98,-0.472008212,-0.50964755
1.981,-0.472382685,-0.63172966
1.982,-0.472756611,-0.64189124
1.983,-0.473129991,-0.70851314
1.984,-0.473502822,-0.6823585
1.985,-0.473875106,-0.58417362
1.986,-0.47424684,-0.64660889
1.987,-0.474618025,-0.8516072
1.988,-0.474988659,-0.60802507
1.989,-0.475358742,-0.4940795
1.99,-0.475728274,-0.49803281
1.991,-0.476097253,-0.72935289
1.992,-0.476465679,-0.64146632
1.993,-0.476833552,-0.5068959
1.994,-0.47720087,-0.69741273
1.995,-0.477567633,-0.65375412
1.996,-0.477933841,-0.53573948
1.997,-0.478299493,-0.68080688
1.998,-0.478664588,-0.52468318
1.999,-0.479029125,-0.73190111
2,-0.479393104,-0.70793265
2.001,-0.479756525,-0.50278026
2.002,-0.480119386,-0.68002629
2.003,-0.480481688,-0.63023949
2.004,-0.480843429,-0.65865618
2.005,-0.481204608,-0.59459555
2.006,-0.481565226,-0.61701739
2.007,-0.481925282,-0.70373434
2.008,-0.482284775,-0.73746133
2.009,-0.482643704,-0.64624542
2.01,-0.483002069,-0.60846543
2.011,-0.483359869,-0.58792233
2.012,-0.483717104,-0.85255611
2.013,-0.484073773,-0.56791365
2.014,-0.484429875,-0.57110113
2.015,-0.484785411,-0.71016645
2.016,-0.485140379,-0.58179706
2.017,-0.485494778,-0.76003438
2.018,-0.485848609,-0.68028659
2.019,-0.48620187,-0.6492151
2.02,-0.486554561,-0.7224158
2.021,-0.486906682,-0.56503373
2.022,-0.487258232,-0.83204597
2.023,-0.48760921,-0.6356734
2.024,-0.487959616,-0.64101553
2.025,-0.488309449,-0.69481272
2.026,-0.488658709,-0.63529533
2.027,-0.489007395,-0.61228436
2.028,-0.489355507,-0.32912865
2.029,-0.489703043,-0.6129716
2.03,-0.490050005,-0.50412917
2.031,-0.49039639,-0.69365329
2.032,-0.490742198,-0.47249281
2.033,-0.49108743,-0.70011359
2.034,-0.491432084,-0.67887008
2.035,-0.49177616,-0.76681864
2.036,-0.492119658,-0.52648234
2.037,-0.492462576,-0.73497683
2.038,-0.492804914,-0.62868744
2.039,-0.493146673,-0.67611057
2.04,-0.49348785,-0.52349985
2.041,-0.493828447,-0.58900499
2.042,-0.494168462,-0.45565233
2.043,-0.494507894,-0.81707919
2.044,-0.494846744,-0.53603303
2.045,-0.495185011,-0.52400011
2.046,-0.495522694,-0.58140862
2.047,-0.495859793,-0.53162098
2.048,-0.496196308,-0.54356515
2.049,-0.496532237,-0.37608847
2.05,-0.496867581,-0.58509582
2.051,-0.497202338,-0.59546423
2.052,-0.497536509,-0.73224211
2.053,-0.497870093,-0.52245021
2.054,-0.49820309,-0.6080054
2.055,-0.498535498,-0.67540258
2.056,-0.498867318,-0.62640709
2.057,-0.49919855,-0.60876238
2.058,-0.499529192,-0.72550678
2.059,-0.499859244,-0.55499554
2.06,-0.500188706,-0.66191596
2.061,-0.500517577,-0.52007848
2.062,-0.500845858,-0.62055159
2.063,-0.501173546,-0.51351768
2.064,-0.501500643,-0.5711959
2.065,-0.501827147,-0.47166833
2.066,-0.502153059,-0.63131893
2.067,-0.502478377,-0.42002741
2.068,-0.502803102,-0.61111856
2.069,-0.503127232,-0.57100236
2.07,-0.503450768,-0.57351536
2.071,-0.503773709,-0.59207541
2.072,-0.504096054,-0.69437593
2.073,-0.504417804,-0.42921007
2.074,-0.504738958,-0.71235895
2.075,-0.505059515,-0.43936154
2.076,-0.505379475,-0.66349053
2.077,-0.505698837,-0.55199796
2.078,-0.506017602,-0.53249508
2.079,-0.506335769,-0.73236358
2.08,-0.506653337,-0.34467009
2.081,-0.506970307,-0.6695472
2.082,-0.507286676,-0.54067189
2.083,-0.507602447,-0.69260848
2.084,-0.507917617,-0.61807251
2.085,-0.508232187,-0.41458431
2.086,-0.508546156,-0.79141289
2.087,-0.508859523,-0.53700376
2.088,-0.509172289,-0.63472956
2.089,-0.509484454,-0.46015614
2.09,-0.509796016,-0.36673304
2.091,-0.510106975,-0.70981687
2.092,-0.510417332,-0.64558786
2.093,-0.510727085,-0.78197563
2.094,-0.511036234,-0.42213559
2.095,-0.51134478,-0.72808665
2.096,-0.511652721,-0.62250686
2.097,-0.511960057,-0.55519372
2.098,-0.512266789,-0.47382528
2.099,-0.512572915,-0.55809319
2.1,-0.512878435,-0.53092963
2.101,-0.513183349,-0.61801326
2.102,-0.513487658,-0.64025539
2.103,-0.513791359,-0.71065986
2.104,-0.514094454,-0.52033854
2.105,-0.514396941,-0.46159181
2.106,-0.514698821,-0.67376733
2.107,-0.515000092,-0.4674606
2.108,-0.515300756,-0.80290788
2.109,-0.515600811,-0.60566127
2.11,-0.515900258,-0.69309825
2.111,-0.516199095,-0.64112228
2.112,-0.516497323,-0.40875387
2.113,-0.516794941,-0.67521757
2.114,-0.51709195,-0.48329633
2.115,-0.517388348,-0.56018919
2.116,-0.517684136,-0.54259062
2.117,-0.517979313,-0.43371961
2.118,-0.518273879,-0.45995408
2.119,-0.518567834,-0.65099561
2.12,-0.518861177,-0.61537081
2.121,-0.519153908,-0.56878614
2.122,-0.519446028,-0.47513726
2.123,-0.519737535,-0.48679003
2.124,-0.520028429,-0.60977548
2.125,-0.52031871,-0.69385689
2.126,-0.520608379,-0.66321295
2.127,-0.520897434,-0.59485298
2.128,-0.521185876,-0.67356944
2.129,-0.521473703,-0.7299186
2.13,-0.521760917,-0.73768336
2.131,-0.522047517,-0.61333323
2.132,-0.522333502,-0.62704277
2.133,-0.522618872,-0.65780288
2.134,-0.522903627,-0.60628885
2.135,-0.523187767,-0.451195
2.136,-0.523471292,-0.53915626
2.137,-0.523754201,-0.65702021
2.138,-0.524036495,-0.58841717
2.139,-0.524318172,-0.58646286
2.14,-0.524599233,-0.67613369
2.141,-0.524879678,-0.55529451
2.142,-0.525159506,-0.77463996
2.143,-0.525438718,-0.69357973
2.144,-0.525717312,-0.69357455
2.145,-0.525995289,-0.51007652
2.146,-0.526272649,-0.50554317
2.147,-0.526549391,-0.61165464
2.148,-0.526825516,-0.56885535
2.149,-0.527101023,-0.62214154
2.15,-0.527375911,-0.62052834
2.151,-0.527650182,-0.42232835
2.152,-0.527923834,-0.58497137
2.153,-0.528196867,-0.65211022
2.154,-0.528469282,-0.3475962
2.155,-0.528741078,-0.66525984
2.156,-0.529012255,-0.67798907
2.157,-0.529282813,-0.77222055
2.158,-0.529552751,-0.48438346
2.159,-0.52982207,-0.61565161
2.16,-0.530090769,-0.48177013
2.161,-0.530358849,-0.53229105
2.162,-0.530626309,-0.83663017
2.163,-0.530893148,-0.66329199
2.164,-0.531159368,-0.65328187
2.165,-0.531424967,-0.407547
2.166,-0.531689946,-0.79092628
2.167,-0.531954304,-0.55966723
2.168,-0.532218042,-0.58709055
2.169,-0.532481159,-0.63982338
2.17,-0.532743655,-0.66154039
2.171,-0.533005531,-0.66000789
2.172,-0.533266785,-0.71897346
2.173,-0.533527418,-0.71431065
2.174,-0.53378743,-0.54344511
2.175,-0.53404682,-0.68779844
2.176,-0.534305589,-0.56229949
2.177,-0.534563737,-0.59844601
2.178,-0.534821263,-0.53572947
2.179,-0.535078167,-0.56610042
2.18,-0.53533445,-0.5221284
2.181,-0.53559011,-0.49735475
2.182,-0.535845149,-0.43675539
2.183,-0.536099566,-0.49039909
2.184,-0.536353361,-0.55605298
2.185,-0.536606533,-0.4874886
2.186,-0.536859084,-0.54129642
2.187,-0.537111012,-0.47365388
2.188,-0.537362318,-0.54282796
2.189,-0.537613002,-0.60109341
2.19,-0.537863063,-0.75486118
2.191,-0.538112502,-0.72855175
2.192,-0.538361319,-0.4579269
2.193,-0.538609513,-0.41632646
2.194,-0.538857084,-0.65438443
2.195,-0.539104033,-0.47764158
2.196,-0.539350359,-0.5464372
2.197,-0.539596063,-0.80085957
2.198,-0.539841144,-0.61607409
2.199,-0.540085603,-0.66293859
2.2,-0.540329438,-0.50876737
2.201,-0.540572652,-0.67972618
2.202,-0.540815242,-0.54853487
2.203,-0.54105721,-0.69551158
2.204,-0.541298555,-0.74797374
2.205,-0.541539277,-0.47029811
2.206,-0.541779377,-0.63004822
2.207,-0.542018854,-0.77913088
2.208,-0.542257709,-0.55876672
2.209,-0.54249594,-0.81381673
2.21,-0.542733549,-0.67677307
2.211,-0.542970536,-0.56025231
2.212,-0.5432069,-0.71548921
2.213,-0.543442641,-0.55457187
2.214,-0.54367776,-0.71914649
2.215,-0.543912256,-0.45179856
2.216,-0.54414613,-0.40651813
2.217,-0.544379381,-0.66956246
2.218,-0.54461201,-0.84809005
2.219,-0.544844017,-0.55566132
2.22,-0.545075401,-0.58424026
2.221,-0.545306163,-0.53551358
2.222,-0.545536303,-0.57986116
2.223,-0.545765821,-0.43875715
2.224,-0.545994716,-0.62354797
2.225,-0.54622299,-0.37755892
2.226,-0.546450642,-0.68307054
2.227,-0.546677671,-0.617423
2.228,-0.546904079,-0.70299047
2.229,-0.547129865,-0.35265127
2.23,-0.54735503,-0.58442867
2.231,-0.547579573,-0.66778398
2.232,-0.547803494,-0.52767164
2.233,-0.548026794,-0.6635102
2.234,-0.548249473,-0.45336613
2.235,-0.548471531,-0.68903852
2.236,-0.548692967,-0.6879313
2.237,-0.548913782,-0.58476204
2.238,-0.549133977,-0.61162305
2.239,-0.549353551,-0.71012241
2.24,-0.549572503,-0.43043309
2.241,-0.549790836,-0.60242963
2.242,-0.550008548,-0.48943648
2.243,-0.550225639,-0.38523278
2.244,-0.55044211,-0.56505334
2.245,-0.550657962,-0.55887485
2.246,-0.550873193,-0.60410583
2.247,-0.551087804,-0.61542147
2.248,-0.551301796,-0.62750047
2.249,-0.551515168,-0.79864478
2.25,-0.55172792,-0.4682267
2.251,-0.551940054,-0.40440229
2.252,-0.552151568,-0.42937663
2.253,-0.552362463,-0.58502752
2.254,-0.552572739,-0.71270418
2.255,-0.552782397,-0.67862773
2.256,-0.552991436,-0.39851737
2.257,-0.553199857,-0.62984556
2.258,-0.553407659,-0.56501889
2.259,-0.553614844,-0.62445498
2.26,-0.55382141,-0.57050866
2.261,-0.554027359,-0.63615131
2.262,-0.55423269,-0.71625262
2.263,-0.554437405,-0.58149326
2.264,-0.554641502,-0.60728687
2.265,-0.554844981,-0.68965805
2.266,-0.555047845,-0.64971358
2.267,-0.555250091,-0.712035
2.268,-0.555451722,-0.62189388
2.269,-0.555652736,-0.63942397
2.27,-0.555853134,-0.48669943
2.271,-0.556052916,-0.47273836
2.272,-0.556252083,-0.54328346
2.273,-0.556450634,-0.62849051
2.274,-0.556648571,-0.79914188
2.275,-0.556845892,-0.52586025
2.276,-0.557042599,-0.61427617
2.277,-0.557238691,-0.36628348
2.278,-0.557434169,-0.53212452
2.279,-0.557629033,-0.69127977
2.28,-0.557823283,-0.54952544
2.281,-0.558016919,-0.65424281
2.282,-0.558209942,-0.43079603
2.283,-0.558402353,-0.65573525
2.284,-0.55859415,-0.53827763
2.285,-0.558785335,-0.58093679
2.286,-0.558975907,-0.47144297
2.287,-0.559165868,-0.58278042
2.288,-0.559355216,-0.50133079
2.289,-0.559543953,-0.30284297
2.29,-0.559732079,-0.75916189
2.291,-0.559919594,-0.58435005
2.292,-0.560106498,-0.62819678
2.293,-0.560292791,-0.60852093
2.294,-0.560478474,-0.44001877
2.295,-0.560663548,-0.57169545
2.296,-0.560848011,-0.7535004
2.297,-0.561031866,-0.68891805
2.298,-0.561215111,-0.62844265
2.299,-0.561397747,-0.58529311
2.3,-0.561579775,-0.67144805
2.301,-0.561761195,-0.51963919
2.302,-0.561942007,-0.52002543
2.303,-0.562122211,-0.51751584
2.304,-0.562301808,-0.44858569
2.305,-0.562480798,-0.58101261
2.306,-0.562659182,-0.50885111
2.307,-0.562836959,-0.87328166
2.308,-0.56301413,-0.65048432
2.309,-0.563190695,-0.51211947
2.31,-0.563366655,-0.58089358
2.311,-0.56354201,-0.62761384
2.312,-0.56371676,-0.5434581
2.313,-0.563890906,-0.50596505
2.314,-0.564064447,-0.56452388
2.315,-0.564237385,-0.52804101
2.316,-0.56440972,-0.63227439
2.317,-0.564581451,-0.55388051
2.318,-0.56475258,-0.40142658
2.319,-0.564923107,-0.61227393
2.32,-0.565093031,-0.5386734
2.321,-0.565262354,-0.50024068
2.322,-0.565431076,-0.54742795
2.323,-0.565599196,-0.7707538
2.324,-0.565766716,-0.56485158
2.325,-0.565933636,-0.62713975
2.326,-0.566099957,-0.60795432
2.327,-0.566265677,-0.67092234
2.328,-0.566430799,-0.62614918
2.329,-0.566595322,-0.37067473
2.33,-0.566759247,-0.55469829
2.331,-0.566922574,-0.39787301
2.332,-0.567085303,-0.65145302
2.333,-0.567247435,-0.46127748
2.334,-0.567408971,-0.48201066
2.335,-0.56756991,-0.49343097
2.336,-0.567730253,-0.4281151
2.337,-0.567890001,-0.48873729
2.338,-0.568049154,-0.43780211
2.339,-0.568207712,-0.39728558
2.34,-0.568365675,-0.36753902
2.341,-0.568523045,-0.4269003
2.342,-0.568679821,-0.48540261
2.343,-0.568836005,-0.45617932
2.344,-0.568991595,-0.57548583
2.345,-0.569146594,-0.4113051
2.346,-0.569301001,-0.61053866
2.347,-0.569454816,-0.59139389
2.348,-0.569608041,-0.41516015
2.349,-0.569760675,-0.70212865
2.35,-0.569912719,-0.50080895
2.351,-0.570064173,-0.43886027
2.352,-0.570215039,-0.65240133
2.353,-0.570365316,-0.41792047
2.354,-0.570515004,-0.41706535
2.355,-0.570664105,-0.49587533
2.356,-0.570812619,-0.58663213
2.357,-0.570960545,-0.59259278
2.358,-0.571107886,-0.47672987
2.359,-0.57125464,-0.3662447
2.36,-0.571400809,-0.40569386
2.361,-0.571546394,-0.78641915
2.362,-0.571691393,-0.72198486
2.363,-0.571835809,-0.36553013
2.364,-0.571979641,-0.58061147
2.365,-0.57212289,-0.51863521
2.366,-0.572265557,-0.69280577
2.367,-0.572407641,-0.72085536
2.368,-0.572549144,-0.58796722
2.369,-0.572690066,-0.56698209
2.37,-0.572830408,-0.69998014
2.371,-0.572970169,-0.53135657
2.372,-0.573109351,-0.48632216
2.373,-0.573247954,-0.36314294
2.374,-0.573385978,-0.7751807
2.375,-0.573523424,-0.34020251
2.376,-0.573660293,-0.71046853
2.377,-0.573796584,-0.68428719
2.378,-0.5739323,-0.50582379
2.379,-0.574067439,-0.40385392
2.38,-0.574202003,-0.56143552
2.381,-0.574335992,-0.6164223
2.382,-0.574469407,-0.68699288
2.383,-0.574602248,-0.5859462
2.384,-0.574734516,-0.39465305
2.385,-0.57486621,-0.37035009
2.386,-0.574997333,-0.64580226
2.387,-0.575127884,-0.47978264
2.388,-0.575257864,-0.52801859
2.389,-0.575387274,-0.5859046
2.39,-0.575516114,-0.60717446
2.391,-0.575644384,-0.54809123
2.392,-0.575772085,-0.52773225
2.393,-0.575899218,-0.41457203
2.394,-0.576025783,-0.42428017
2.395,-0.576151782,-0.59691018
2.396,-0.576277213,-0.49965033
2.397,-0.576402079,-0.4275471
2.398,-0.576526379,-0.21106942
2.399,-0.576650114,-0.7090016
2.4,-0.576773285,-0.62971848
2.401,-0.576895893,-0.51211542
2.402,-0.577017937,-0.47647998
2.403,-0.577139419,-0.4593693
2.404,-0.577260339,-0.52248996
2.405,-0.577380697,-0.5224781
2.406,-0.577500495,-0.67468506
2.407,-0.577619733,-0.36028281
2.408,-0.577738411,-0.32150403
2.409,-0.577856531,-0.36392888
2.41,-0.577974092,-0.43065125
2.411,-0.578091095,-0.39948902
2.412,-0.578207542,-0.43213829
2.413,-0.578323432,-0.61623019
2.414,-0.578438766,-0.52667767
2.415,-0.578553545,-0.48569369
2.416,-0.578667769,-0.42261133
2.417,-0.57878144,-0.56583649
2.418,-0.578894557,-0.41163436
2.419,-0.579007122,-0.52447581
2.42,-0.579119134,-0.42997926
2.421,-0.579230595,-0.51114321
2.422,-0.579341506,-0.45614228
2.423,-0.579451866,-0.37410587
2.424,-0.579561677,-0.46820959
2.425,-0.579670939,-0.49668297
2.426,-0.579779653,-0.49980861
2.427,-0.57988782,-0.36743459
2.428,-0.579995439,-0.52127922
2.429,-0.580102513,-0.43297705
2.43,-0.580209041,-0.44051075
2.431,-0.580315024,-0.66468716
2.432,-0.580420463,-0.50147116
2.433,-0.580525359,-0.43722084
2.434,-0.580629711,-0.58548045
2.435,-0.580733522,-0.51854253
2.436,-0.580836791,-0.43980247
2.437,-0.58093952,-0.54286307
2.438,-0.581041708,-0.3837235
2.439,-0.581143357,-0.42557701
2.44,-0.581244467,-0.52930832
2.441,-0.581345039,-0.39892349
2.442,-0.581445074,-0.52463335
2.443,-0.581544572,-0.53327644
2.444,-0.581643534,-0.55535364
2.445,-0.581741961,-0.53182214
2.446,-0.581839854,-0.37450275
2.447,-0.581937213,-0.51891124
2.448,-0.582034038,-0.42794573
2.449,-0.582130331,-0.4538196
2.45,-0.582226093,-0.41515452
2.451,-0.582321324,-0.38181537
2.452,-0.582416024,-0.24724816
2.453,-0.582510195,-0.52164513
2.454,-0.582603837,-0.41027638
2.455,-0.582696951,-0.39778581
2.456,-0.582789538,-0.45577383
2.457,-0.582881598,-0.54676533
2.458,-0.582973132,-0.42671174
2.459,-0.583064142,-0.32405195
2.46,-0.583154627,-0.59569657
2.461,-0.583244588,-0.49477816
2.462,-0.583334026,-0.36199877
2.463,-0.583422942,-0.60402209
2.464,-0.583511337,-0.45647216
2.465,-0.583599211,-0.54262912
2.466,-0.583686566,-0.58947146
2.467,-0.583773401,-0.43429208
2.468,-0.583859718,-0.72481984
2.469,-0.583945517,-0.58088708
2.47,-0.5840308,-0.31656486
2.471,-0.584115566,-0.3417035
2.472,-0.584199817,-0.20211305
2.473,-0.584283554,-0.53900808
2.474,-0.584366777,-0.57021946
2.475,-0.584449487,-0.34260097
2.476,-0.584531685,-0.59216529
2.477,-0.584613371,-0.45359516
2.478,-0.584694547,-0.5249145
2.479,-0.584775213,-0.39625165
2.48,-0.58485537,-0.36229149
2.481,-0.584935019,-0.55569553
2.482,-0.58501416,-0.30493632
2.483,-0.585092795,-0.21435204
2.484,-0.585170924,-0.43664849
2.485,-0.585248548,-0.48732418
2.486,-0.585325667,-0.26546612
2.487,-0.585402283,-0.39472905
2.488,-0.585478397,-0.3429122
2.489,-0.585554009,-0.45891589
2.49,-0.585629119,-0.71362996
2.491,-0.58570373,-0.44726175
2.492,-0.585777841,-0.24888323
2.493,-0.585851454,-0.59408206
2.494,-0.585924569,-0.44269121
2.495,-0.585997187,-0.54342818
2.496,-0.586069309,-0.60964048
2.497,-0.586140936,-0.39247581
2.498,-0.586212069,-0.32858318
2.499,-0.586282708,-0.37557933
2.5,-0.586352854,-0.40517601
2.501,-0.586422508,-0.43738049
2.502,-0.586491671,-0.55924833
2.503,-0.586560345,-0.54808873
2.504,-0.586628528,-0.42278656
2.505,-0.586696224,-0.41997498
2.506,-0.586763431,-0.33945885
2.507,-0.586830152,-0.30703166
2.508,-0.586896387,-0.5889203
2.509,-0.586962137,-0.46508908
2.51,-0.587027403,-0.35155892
2.511,-0.587092185,-0.36253974
2.512,-0.587156485,-0.42798215
2.513,-0.587220303,-0.34637001
2.514,-0.58728364,-0.49051803
2.515,-0.587346498,-0.4179545
2.516,-0.587408877,-0.36700541
2.517,-0.587470777,-0.53460878
2.518,-0.5875322,-0.52386802
2.519,-0.587593147,-0.46066868
2.52,-0.587653619,-0.60216027
2.521,-0.587713615,-0.21732852
2.522,-0.587773138,-0.5701195
2.523,-0.587832189,-0.3161481
2.524,-0.587890767,-0.37407777
2.525,-0.587948874,-0.31339434
2.526,-0.588006511,-0.53076565
2.527,-0.588063679,-0.39177871
2.528,-0.588120379,-0.19937848
2.529,-0.588176611,-0.571931
2.53,-0.588232377,-0.38278359
2.531,-0.588287677,-0.17665614
2.532,-0.588342512,-0.5641681
2.533,-0.588396883,-0.44094977
2.534,-0.588450792,-0.56418484
2.535,-0.588504238,-0.54131281
2.536,-0.588557224,-0.52333242
2.537,-0.588609749,-0.51318145
2.538,-0.588661815,-0.32026994
2.539,-0.588713423,-0.22629052
2.54,-0.588764574,-0.35510156
2.541,-0.588815268,-0.38143882
2.542,-0.588865506,-0.50755584
2.543,-0.58891529,-0.49031159
2.544,-0.588964621,-0.48089123
2.545,-0.589013498,-0.71301728
2.546,-0.589061924,-0.4809857
2.547,-0.589109899,-0.37228611
2.548,-0.589157424,-0.42722604
2.549,-0.5892045,-0.4263325
2.55,-0.589251129,-0.42542779
2.551,-0.58929731,-0.38235822
2.552,-0.589343045,-0.54100037
2.553,-0.589388335,-0.38867602
2.554,-0.58943318,-0.43506384
2.555,-0.589477583,-0.41705248
2.556,-0.589521543,-0.40542459
2.557,-0.589565062,-0.54385406
2.558,-0.589608141,-0.32030866
2.559,-0.58965078,-0.51111901
2.56,-0.58969298,-0.36982679
2.561,-0.589734744,-0.46881559
2.562,-0.589776071,-0.4209426
2.563,-0.589816962,-0.46928838
2.564,-0.589857419,-0.53214127
2.565,-0.589897442,-0.39782807
2.566,-0.589937032,-0.47622454
2.567,-0.589976191,-0.18890524
2.568,-0.59001492,-0.48545992
2.569,-0.590053219,-0.34173042
2.57,-0.590091089,-0.3843714
2.571,-0.590128531,-0.49683672
2.572,-0.590165547,-0.61626297
2.573,-0.590202137,-0.33161816
2.574,-0.590238303,-0.45729771
2.575,-0.590274045,-0.49857542
2.576,-0.590309364,-0.44208443
2.577,-0.590344261,-0.32830456
2.578,-0.590378738,-0.3326315
2.579,-0.590412795,-0.43304396
2.58,-0.590446433,-0.5680728
2.581,-0.590479654,-0.52214897
2.582,-0.590512458,-0.52856374
2.583,-0.590544846,-0.46876624
2.584,-0.59057682,-0.27799082
2.585,-0.59060838,-0.47934166
2.586,-0.590639527,-0.51422602
2.587,-0.590670263,-0.76873606
2.588,-0.590700589,-0.14277184
2.589,-0.590730504,-0.40240586
2.59,-0.590760012,-0.34395188
2.591,-0.590789111,-0.27430257
2.592,-0.590817805,-0.38436198
2.593,-0.590846092,-0.36906669
2.594,-0.590873976,-0.32725549
2.595,-0.590901456,-0.41383374
2.596,-0.590928533,-0.55127841
2.597,-0.59095521,-0.31384099
2.598,-0.590981486,-0.3052932
2.599,-0.591007363,-0.41870782
2.6,-0.591032841,-0.54280376
2.601,-0.591057923,-0.25152892
2.602,-0.591082608,-0.46065372
2.603,-0.591106898,-0.32651225
2.604,-0.591130794,-0.39144751
2.605,-0.591154298,-0.36791986
2.606,-0.591177409,-0.41090524
2.607,-0.59120013,-0.25379369
2.608,-0.59122246,-0.258376
2.609,-0.591244402,-0.31556538
2.61,-0.591265956,-0.428756
2.611,-0.591287124,-0.51688218
2.612,-0.591307906,-0.41441023
2.613,-0.591328303,-0.33869147
2.614,-0.591348317,-0.47998068
2.615,-0.591367949,-0.39696813
2.616,-0.591387199,-0.48829925
2.617,-0.59140607,-0.36175683
2.618,-0.591424561,-0.49963981
2.619,-0.591442673,-0.33734599
2.62,-0.591460409,-0.397928
2.621,-0.591477769,-0.37437335
2.622,-0.591494754,-0.37476239
2.623,-0.591511365,-0.57139379
2.624,-0.591527603,-0.48929095
2.625,-0.59154347,-0.47927508
2.626,-0.591558966,-0.60216308
2.627,-0.591574093,-0.4665665
2.628,-0.591588852,-0.42492515
2.629,-0.591603243,-0.49258342
2.63,-0.591617268,-0.57154733
2.631,-0.591630927,-0.40739197
2.632,-0.591644223,-0.21477492
2.633,-0.591657156,-0.4166114
2.634,-0.591669727,-0.54987854
2.635,-0.591681937,-0.3074311
2.636,-0.591693788,-0.42757982
2.637,-0.59170528,-0.56538886
2.638,-0.591716415,-0.43753454
2.639,-0.591727193,-0.42049929
2.64,-0.591737616,-0.37220728
2.641,-0.591747685,-0.37416652
2.642,-0.591757401,-0.45907164
2.643,-0.591766765,-0.35482141
2.644,-0.591775778,-0.48185289
2.645,-0.591784442,-0.37527189
2.646,-0.591792757,-0.49821833
2.647,-0.591800724,-0.45159039
2.648,-0.591808346,-0.54509568
2.649,-0.591815622,-0.26967582
2.65,-0.591822554,-0.31224486
2.651,-0.591829142,-0.25639042
2.652,-0.591835389,-0.44671229
2.653,-0.591841296,-0.49993965
2.654,-0.591846862,-0.32362956
2.655,-0.591852091,-0.42001659
2.656,-0.591856982,-0.40209219
2.657,-0.591861536,-0.42385712
2.658,-0.591865756,-0.37536386
2.659,-0.591869641,-0.34093106
2.66,-0.591873194,-0.38415539
2.661,-0.591876415,-0.45757854
2.662,-0.591879305,-0.29491869
2.663,-0.591881866,-0.33620086
2.664,-0.591884099,-0.20187351
2.665,-0.591886004,-0.33739397
2.666,-0.591887584,-0.45674613
2.667,-0.591888838,-0.48089159
2.668,-0.591889769,-0.533683
2.669,-0.591890377,-0.46446818
2.67,-0.591890664,-0.35457954
2.671,-0.591890631,-0.44672427
2.672,-0.591890278,-0.64436769
2.673,-0.591889607,-0.3588199
2.674,-0.59188862,-0.49322665
2.675,-0.591887317,-0.5748316
2.676,-0.591885699,-0.37136737
2.677,-0.591883768,-0.4813807
2.678,-0.591881524,-0.6308049
2.679,-0.59187897,-0.32902896
2.68,-0.591876105,-0.49421948
2.681,-0.591872932,-0.50900906
2.682,-0.591869451,-0.49699584
2.683,-0.591865664,-0.16816658
2.684,-0.591861571,-0.38754916
2.685,-0.591857174,-0.58682472
2.686,-0.591852474,-0.40111139
2.687,-0.591847473,-0.59128356
2.688,-0.591842171,-0.45849875
2.689,-0.591836569,-0.46538445
2.69,-0.591830669,-0.21785115
2.691,-0.591824472,-0.42947114
2.692,-0.591817979,-0.50106442
2.693,-0.591811191,-0.48864913
2.694,-0.591804109,-0.4193987
2.695,-0.591796735,-0.24306795
2.696,-0.59178907,-0.41170436
2.697,-0.591781115,-0.40533125
2.698,-0.59177287,-0.49302381
2.699,-0.591764338,-0.47837743
2.7,-0.59175552,-0.32783464
2.701,-0.591746416,-0.36506569
2.702,-0.591737028,-0.27258489
2.703,-0.591727357,-0.43720806
2.704,-0.591717403,-0.40370664
2.705,-0.59170717,-0.36786887
2.706,-0.591696657,-0.37259713
2.707,-0.591685865,-0.40563145
2.708,-0.591674796,-0.67519164
2.709,-0.591663452,-0.43574789
2.71,-0.591651833,-0.2844418
2.711,-0.59163994,-0.44192916
2.712,-0.591627775,-0.51869506
2.713,-0.591615338,-0.22099201
2.714,-0.591602632,-0.49333411
2.715,-0.591589657,-0.41173461
2.716,-0.591576414,-0.27793491
2.717,-0.591562905,-0.50989795
2.718,-0.591549131,-0.49286827
2.719,-0.591535093,-0.38252321
2.72,-0.591520792,-0.55156505
2.721,-0.591506229,-0.37540653
2.722,-0.591491406,-0.41716185
2.723,-0.591476324,-0.28190321
2.724,-0.591460984,-0.40734354
2.725,-0.591445387,-0.35530671
2.726,-0.591429534,-0.41822338
2.727,-0.591413427,-0.38760448
2.728,-0.591397067,-0.27714866
2.729,-0.591380455,-0.41838869
2.73,-0.591363592,-0.2895954
2.731,-0.591346479,-0.30845004
2.732,-0.591329118,-0.46038017
2.733,-0.59131151,-0.46637374
2.734,-0.591293656,-0.40863714
2.735,-0.591275557,-0.38252839
2.736,-0.591257215,-0.30408895
2.737,-0.59123863,-0.35610232
2.738,-0.591219804,-0.51320577
2.739,-0.591200738,-0.41665769
2.74,-0.591181434,-0.30047172
2.741,-0.591161892,-0.37136701
2.742,-0.591142114,-0.59657198
2.743,-0.5911221,-0.34646708
2.744,-0.591101853,-0.36911529
2.745,-0.591081374,-0.34866166
2.746,-0.591060663,-0.56239337
2.747,-0.591039721,-0.34553215
2.748,-0.591018551,-0.25405222
2.749,-0.590997153,-0.39307177
2.75,-0.590975528,-0.27066156
2.751,-0.590953678,-0.58589023
2.752,-0.590931604,-0.27403715
2.753,-0.590909308,-0.39437756
2.754,-0.590886789,-0.44718876
2.755,-0.59086405,-0.27985623
2.756,-0.590841092,-0.34245268
2.757,-0.590817916,-0.44102076
2.758,-0.590794523,-0.39267176
2.759,-0.590770914,-0.28774431
2.76,-0.590747092,-0.32097986
2.761,-0.590723056,-0.41238648
2.762,-0.590698808,-0.33173573
2.763,-0.59067435,-0.5228492
2.764,-0.590649682,-0.49473569
2.765,-0.590624806,-0.53438944
2.766,-0.590599723,-0.26169634
2.767,-0.590574434,-0.29477948
2.768,-0.590548941,-0.19402774
2.769,-0.590523245,-0.26648396
2.77,-0.590497346,-0.60041845
2.771,-0.590471247,-0.23908603
2.772,-0.590444948,-0.29190102
2.773,-0.590418451,-0.28729397
2.774,-0.590391756,-0.29924425
2.775,-0.590364866,-0.55946678
2.776,-0.590337781,-0.23444036
2.777,-0.590310503,-0.45109975
2.778,-0.590283032,-0.49770179
2.779,-0.59025537,-0.55621302
2.78,-0.590227519,-0.5389275
2.781,-0.590199479,-0.27516541
2.782,-0.590171252,-0.37378427
2.783,-0.590142839,-0.36070439
2.784,-0.590114241,-0.41130254
2.785,-0.59008546,-0.40215245
2.786,-0.590056496,-0.29359326
2.787,-0.590027351,-0.49417853
2.788,-0.589998026,-0.38209653
2.789,-0.589968523,-0.45534864
2.79,-0.589938842,-0.47535139
2.791,-0.589908985,-0.42021981
2.792,-0.589878954,-0.45467138
2.793,-0.589848748,-0.42655885
2.794,-0.58981837,-0.14914811
2.795,-0.589787821,-0.22754365
2.796,-0.589757102,-0.35570568
2.797,-0.589726214,-0.27560085
2.798,-0.589695159,-0.51829672
2.799,-0.589663937,-0.46642184
2.8,-0.589632551,-0.24195223
2.801,-0.589601,-0.54226661
2.802,-0.589569287,-0.476886
2.803,-0.589537413,-0.29138339
2.804,-0.589505379,-0.478149
2.805,-0.589473186,-0.54430008
2.806,-0.589440835,-0.20514771
2.807,-0.589408328,-0.35648137
2.808,-0.589375666,-0.46030498
2.809,-0.58934285,-0.40882513
2.81,-0.589309882,-0.48993525
2.811,-0.589276762,-0.6007629
2.812,-0.589243492,-0.47112346
2.813,-0.589210073,-0.300327
2.814,-0.589176506,-0.2304519
2.815,-0.589142793,-0.23324127
2.816,-0.589108934,-0.30214134
2.817,-0.589074932,-0.45954227
2.818,-0.589040787,-0.26245114
2.819,-0.589006501,-0.42835602
2.82,-0.588972074,-0.60459495
2.821,-0.588937509,-0.30753273
2.822,-0.588902805,-0.33341193
2.823,-0.588867965,-0.36945906
2.824,-0.58883299,-0.2306723
2.825,-0.588797881,-0.32317904
2.826,-0.588762639,-0.34614319
2.827,-0.588727266,-0.18606503
2.828,-0.588691762,-0.58704364
2.829,-0.588656129,-0.4190439
2.83,-0.588620368,-0.47747916
2.831,-0.588584481,-0.17732286
2.832,-0.588548468,-0.32263419
2.833,-0.588512332,-0.41639295
2.834,-0.588476072,-0.50751173
2.835,-0.588439691,-0.33200547
2.836,-0.588403189,-0.25238499
2.837,-0.588366568,-0.40711805
2.838,-0.58832983,-0.41138005
2.839,-0.588292974,-0.23456268
2.84,-0.588256003,-0.41753086
2.841,-0.588218918,-0.31553096
2.842,-0.58818172,-0.49455628
2.843,-0.588144411,-0.41774467
2.844,-0.588106991,-0.52527744
2.845,-0.588069461,-0.27644783
2.846,-0.588031824,-0.13189028
2.847,-0.587994079,-0.4196021
2.848,-0.58795623,-0.31358787
2.849,-0.587918275,-0.45898342
2.85,-0.587880218,-0.29348499
2.851,-0.587842059,-0.34014264
2.852,-0.5878038,-0.37136486
2.853,-0.587765441,-0.25177509
2.854,-0.587726984,-0.33778745
2.855,-0.58768843,-0.38602605
2.856,-0.58764978,-0.3406893
2.857,-0.587611036,-0.28881297
2.858,-0.587572199,-0.20799583
2.859,-0.587533269,-0.12401772
2.86,-0.587494249,-0.38204774
2.861,-0.58745514,-0.45175868
2.862,-0.587415942,-0.24585162
2.863,-0.587376657,-0.33558366
2.864,-0.587337287,-0.30685651
2.865,-0.587297832,-0.5083133
2.866,-0.587258293,-0.49706605
2.867,-0.587218673,-0.42290029
2.868,-0.587178971,-0.50723016
2.869,-0.58713919,-0.37274748
2.87,-0.587099331,-0.45002446
2.871,-0.587059394,-0.33363354
2.872,-0.587019381,-0.24449225
2.873,-0.586979294,-0.59271604
2.874,-0.586939133,-0.48207021
2.875,-0.586898899,-0.14543258
2.876,-0.586858595,-0.5357849
2.877,-0.586818221,-0.50372046
2.878,-0.586777778,-0.20432957
2.879,-0.586737268,-0.32694253
2.88,-0.586696692,-0.2778337
2.881,-0.58665605,-0.36380619
2.882,-0.586615345,-0.37888816
2.883,-0.586574578,-0.27376139
2.884,-0.586533749,-0.14020289
2.885,-0.58649286,-0.23953228
2.886,-0.586451913,-0.38139775
2.887,-0.586410907,-0.38338116
2.888,-0.586369846,-0.31515428
2.889,-0.586328729,-0.25365722
2.89,-0.586287558,-0.57171488
2.891,-0.586246334,-0.31888559
2.892,-0.586205059,-0.22131921
2.893,-0.586163734,-0.34607777
2.894,-0.586122359,-0.40281165
2.895,-0.586080937,-0.2262311
2.896,-0.586039468,-0.29197243
2.897,-0.585997953,-0.30155411
2.898,-0.585956395,-0.36196393
2.899,-0.585914793,-0.21842112
2.9,-0.585873149,-0.42817202
2.901,-0.585831465,-0.39323249
2.902,-0.585789741,-0.30894533
2.903,-0.585747979,-0.25911149
2.904,-0.58570618,-0.19884054
2.905,-0.585664346,-0.33407548
2.906,-0.585622477,-0.29958743
2.907,-0.585580574,-0.2905719
2.908,-0.585538639,-0.38405889
2.909,-0.585496674,-0.44141588
2.91,-0.585454678,-0.42788079
2.911,-0.585412654,-0.10974564
2.912,-0.585370603,-0.3264879
2.913,-0.585328525,-0.31959206
2.914,-0.585286423,-0.44747797
2.915,-0.585244296,-0.36929187
2.916,-0.585202147,-0.48198399
2.917,-0.585159977,-0.53785622
2.918,-0.585117787,-0.30926368
2.919,-0.585075578,-0.29837555
2.92,-0.58503335,-0.1447736
2.921,-0.584991107,-0.52543646
2.922,-0.584948848,-0.51781976
2.923,-0.584906574,-0.44669914
2.924,-0.584864288,-0.27842951
2.925,-0.58482199,-0.21492457
2.926,-0.584779681,-0.40897194
2.927,-0.584737363,-0.37859413
2.928,-0.584695036,-0.34365168
2.929,-0.584652703,-0.39514148
2.93,-0.584610363,-0.39407879
2.931,-0.584568019,-0.25762165
2.932,-0.584525672,-0.44762343
2.933,-0.584483322,-0.52138931
2.934,-0.58444097,-0.30639121
2.935,-0.584398619,-0.38968471
2.936,-0.584356269,-0.39521968
2.937,-0.584313921,-0.29771623
2.938,-0.584271577,-0.2714403
2.939,-0.584229238,-0.44549048
2.94,-0.584186905,-0.31077063
2.941,-0.584144578,-0.091040134
2.942,-0.58410226,-0.17735554
2.943,-0.584059951,-0.29538766
2.944,-0.584017653,-0.34417987
2.945,-0.583975367,-0.26766965
2.946,-0.583933093,-0.31679815
2.947,-0.583890834,-0.23387507
2.948,-0.583848589,-0.49661517
2.949,-0.583806362,-0.31943461
2.95,-0.583764151,-0.36546162
2.951,-0.58372196,-0.55008316
2.952,-0.583679788,-0.35358655
2.953,-0.583637638,-0.19060813
2.954,-0.583595509,-0.38964775
2.955,-0.583553404,-0.30017149
2.956,-0.583511324,-0.17816934
2.957,-0.583469269,-0.28811285
2.958,-0.583427241,-0.21464807
2.959,-0.583385241,-0.27841112
2.96,-0.58334327,-0.28896531
2.961,-0.583301329,-0.46905151
2.962,-0.58325942,-0.38060051
2.963,-0.583217544,-0.40913177
2.964,-0.583175701,-0.16984221
2.965,-0.583133892,-0.37295991
2.966,-0.58309212,-0.30796561
2.967,-0.583050385,-0.31757826
2.968,-0.583008689,-0.27330258
2.969,-0.582967031,-0.35798511
2.97,-0.582925414,-0.12670997
2.971,-0.582883839,-0.34831569
2.972,-0.582842307,-0.16961704
2.973,-0.582800819,-0.31038135
2.974,-0.582759375,-0.55415606
2.975,-0.582717978,-0.14381063
2.976,-0.582676629,-0.27063194
2.977,-0.582635327,-0.40850356
2.978,-0.582594076,-0.051687125
2.979,-0.582552875,-0.17436178
2.98,-0.582511725,-0.57702965
2.981,-0.582470629,-0.46931571
2.982,-0.582429587,-0.26548162
2.983,-0.5823886,-0.25723127
2.984,-0.582347669,-0.36200443
2.985,-0.582306796,-0.40622488
2.986,-0.582265981,-0.31683537
2.987,-0.582225226,-0.4183006
2.988,-0.582184532,-0.24559157
2.989,-0.582143899,-0.44873586
2.99,-0.58210333,-0.21694131
2.991,-0.582062824,-0.33119124
2.992,-0.582022384,-0.2939699
2.993,-0.58198201,-0.30295068
2.994,-0.581941703,-0.18219747
2.995,-0.581901465,-0.40018409
2.996,-0.581861296,-0.20455584
2.997,-0.581821198,-0.43166602
2.998,-0.581781172,-0.29331583
2.999,-0.581741218,-0.38235235
3,-0.581701339,-0.29501662
3.001,-0.581661534,-0.40569705
3.002,-0.581621806,-0.35062498
3.003,-0.581582154,-0.26400238
3.004,-0.581542582,-0.35833976
3.005,-0.581503088,-0.35007519
3.006,-0.581463675,-0.34724569
3.007,-0.581424343,-0.31235495
3.008,-0.581385094,-0.26054236
3.009,-0.581345929,-0.33668584
3.01,-0.581306848,-0.30270299
3.011,-0.581267853,-0.36532649
3.012,-0.581228945,-0.30430359
3.013,-0.581190125,-0.35051045
3.014,-0.581151394,-0.28062358
3.015,-0.581112753,-0.33665913
3.016,-0.581074203,-0.40722466
3.017,-0.581035746,-0.23675109
3.018,-0.580997381,-0.24128637
3.019,-0.580959111,-0.39489731
3.02,-0.580920937,-0.3142651
3.021,-0.580882858,-0.22248054
3.022,-0.580844877,-0.31075472
3.023,-0.580806995,-0.29652092
3.024,-0.580769212,-0.42265001
3.025,-0.58073153,-0.088773303
3.026,-0.58069395,-0.26685095
3.027,-0.580656472,-0.27438203
3.028,-0.580619098,-0.22633313
3.029,-0.580581829,-0.48202214
3.03,-0.580544665,-0.35900414
3.031,-0.580507608,-0.51268613
3.032,-0.58047066,-0.58965689
3.033,-0.58043382,-0.51521248
3.034,-0.58039709,-0.45445091
3.035,-0.580360471,-0.28622317
3.036,-0.580323964,-0.45928866
3.037,-0.58028757,-0.24564373
3.038,-0.58025129,-0.33027264
3.039,-0.580215124,-0.41135088
3.04,-0.580179076,-0.40424091
3.041,-0.580143144,-0.34024376
3.042,-0.58010733,-0.27880317
3.043,-0.580071635,-0.46774876
3.044,-0.58003606,-0.34529811
3.045,-0.580000607,-0.48343462
3.046,-0.579965275,-0.460951
3.047,-0.579930067,-0.16627154
3.048,-0.579894982,-0.33527792
3.049,-0.579860023,-0.50134116
3.05,-0.57982519,-0.39343449
3.051,-0.579790484,-0.32690498
3.052,-0.579755906,-0.29692772
3.053,-0.579721457,-0.51705003
3.054,-0.579687138,-0.38896674
3.055,-0.57965295,-0.25469452
3.056,-0.579618894,-0.5737974
3.057,-0.579584971,-0.45644528
3.058,-0.579551182,-0.53682685
3.059,-0.579517528,-0.2825937
3.06,-0.57948401,-0.54612672
3.061,-0.579450629,-0.1092976
3.062,-0.579417386,-0.45115802
3.063,-0.579384281,-0.42879209
3.064,-0.579351316,-0.35613585
3.065,-0.579318492,-0.40800846
3.066,-0.57928581,-0.4307082
3.067,-0.57925327,-0.32236218
3.068,-0.579220874,-0.38279054
3.069,-0.579188622,-0.32311127
3.07,-0.579156516,-0.29705626
3.071,-0.579124556,-0.40167072
3.072,-0.579092744,-0.35881886
3.073,-0.57906108,-0.24703194
3.074,-0.579029566,-0.37118924
3.075,-0.578998201,-0.25589719
3.076,-0.578966988,-0.30628023
3.077,-0.578935927,-0.40947413
3.078,-0.578905019,-0.49687764
3.079,-0.578874264,-0.32419699
3.08,-0.578843665,-0.17671975
3.081,-0.578813221,-0.5127185
3.082,-0.578782934,-0.38013989
3.083,-0.578752805,-0.20869453
3.084,-0.578722834,-0.26713338
3.085,-0.578693023,-0.48236734
3.086,-0.578663372,-0.49394035
3.087,-0.578633883,-0.3753781
3.088,-0.578604555,-0.41651279
3.089,-0.578575391,-0.34991476
3.09,-0.578546391,-0.43538526
3.091,-0.578517555,-0.55937928
3.092,-0.578488886,-0.47899461
3.093,-0.578460383,-0.49962834
3.094,-0.578432047,-0.39691669
3.095,-0.57840388,-0.30397496
3.096,-0.578375882,-0.41394103
3.097,-0.578348055,-0.29588619
3.098,-0.578320399,-0.30263475
3.099,-0.578292914,-0.45297202
3.1,-0.578265603,-0.46756285
3.101,-0.578238465,-0.36412552
3.102,-0.578211502,-0.43087888
3.103,-0.578184714,-0.23810218
3.104,-0.578158103,-0.24390581
3.105,-0.578131669,-0.40389621
3.106,-0.578105413,-0.33386874
3.107,-0.578079336,-0.26768687
3.108,-0.578053438,-0.32782394
3.109,-0.578027722,-0.28298512
3.11,-0.578002186,-0.39610034
3.111,-0.577976833,-0.58467358
3.112,-0.577951663,-0.42179564
3.113,-0.577926678,-0.25250691
3.114,-0.577901877,-0.20149352
3.115,-0.577877261,-0.37347504
3.116,-0.577852832,-0.43825716
3.117,-0.577828591,-0.3076283
3.118,-0.577804538,-0.62280315
3.119,-0.577780673,-0.40860417
3.12,-0.577756999,-0.32919705
3.121,-0.577733515,-0.34047142
3.122,-0.577710222,-0.40775982
3.123,-0.577687122,-0.56240779
3.124,-0.577664215,-0.34048879
3.125,-0.577641502,-0.39801219
3.126,-0.577618983,-0.34255433
3.127,-0.57759666,-0.61519682
3.128,-0.577574533,-0.51834255
3.129,-0.577552603,-0.52970052
3.13,-0.577530872,-0.455266
3.131,-0.577509338,-0.33078718
3.132,-0.577488005,-0.39048761
3.133,-0.577466871,-0.39619288
3.134,-0.577445939,-0.43418404
3.135,-0.577425208,-0.5580166
3.136,-0.57740468,-0.37849668
3.137,-0.577384355,-0.47790113
3.138,-0.577364234,-0.50580114
3.139,-0.577344318,-0.70879608
3.14,-0.577324608,-0.28680134
3.141,-0.577305105,-0.42646924
3.142,-0.577285808,-0.36755636
3.143,-0.577266719,-0.39705983
3.144,-0.577247839,-0.25241807
3.145,-0.577229169,-0.49423501
3.146,-0.577210708,-0.37441155
3.147,-0.577192459,-0.53991032
3.148,-0.577174421,-0.49682823
3.149,-0.577156596,-0.57883191
3.15,-0.577138984,-0.58509928
3.151,-0.577121585,-0.49286929
3.152,-0.577104401,-0.5393486
3.153,-0.577087433,-0.55288225
3.154,-0.57707068,-0.22208992
3.155,-0.577054145,-0.60538977
3.156,-0.577037826,-0.35244572
3.157,-0.577021726,-0.39785478
3.158,-0.577005845,-0.37071562
3.159,-0.576990184,-0.65703887
3.16,-0.576974742,-0.49100754
3.161,-0.576959522,-0.23013477
3.162,-0.576944524,-0.4031654
3.163,-0.576929747,-0.69355136
3.164,-0.576915194,-0.63696361
3.165,-0.576900865,-0.44093242
3.166,-0.57688676,-0.39507228
3.167,-0.576872881,-0.50055498
3.168,-0.576859227,-0.43627328
3.169,-0.5768458,-0.5404464
3.17,-0.576832599,-0.2813206
3.171,-0.576819627,-0.40308395
3.172,-0.576806883,-0.39469442
3.173,-0.576794369,-0.50690103
3.174,-0.576782084,-0.50462222
3.175,-0.57677003,-0.54090643
3.176,-0.576758207,-0.41136879
3.177,-0.576746615,-0.52658552
3.178,-0.576735256,-0.43645647
3.179,-0.576724131,-0.57216048
3.18,-0.576713238,-0.38040608
3.181,-0.576702581,-0.30689064
3.182,-0.576692158,-0.49728656
3.183,-0.576681971,-0.47020641
3.184,-0.57667202,-0.62814844
3.185,-0.576662306,-0.40991873
3.186,-0.57665283,-0.49747914
3.187,-0.576643591,-0.34570849
3.188,-0.576634592,-0.53032535
3.189,-0.576625831,-0.63881356
3.19,-0.576617311,-0.30136013
3.191,-0.576609031,-0.18617436
3.192,-0.576600992,-0.48473662
3.193,-0.576593195,-0.32588211
3.194,-0.576585641,-0.6436491
3.195,-0.576578329,-0.45040321
3.196,-0.576571261,-0.50616944
3.197,-0.576564437,-0.60666186
3.198,-0.576557858,-0.46863973
3.199,-0.576551524,-0.40773931
3.2,-0.576545435,-0.40148243
3.201,-0.576539594,-0.53477687
3.202,-0.576533999,-0.7554701
3.203,-0.576528651,-0.15349582
3.204,-0.576523552,-0.48076805
3.205,-0.576518702,-0.44256371
3.206,-0.5765141,-0.33029145
3.207,-0.576509749,-0.37615889
3.208,-0.576505647,-0.35631457
3.209,-0.576501797,-0.45793042
3.21,-0.576498198,-0.40749204
3.211,-0.57649485,-0.47035974
3.212,-0.576491756,-0.52065259
3.213,-0.576488914,-0.5265522
3.214,-0.576486325,-0.51719135
3.215,-0.576483991,-0.42614871
3.216,-0.576481911,-0.49750891
3.217,-0.576480087,-0.42764115
3.218,-0.576478518,-0.49373773
3.219,-0.576477205,-0.4530997
3.22,-0.576476148,-0.6433028
3.221,-0.576475349,-0.45033833
3.222,-0.576474807,-0.70339829
3.223,-0.576474523,-0.40697372
3.224,-0.576474498,-0.44347
3.225,-0.576474732,-0.49155137
3.226,-0.576475225,-0.55862731
3.227,-0.576475978,-0.56652546
3.228,-0.576476992,-0.68711704
3.229,-0.576478267,-0.41746283
3.23,-0.576479803,-0.53352129
3.231,-0.576481601,-0.44211924
3.232,-0.576483661,-0.3905898
3.233,-0.576485985,-0.56114495
3.234,-0.576488571,-0.68595064
3.235,-0.576491421,-0.48438111
3.236,-0.576494535,-0.58562613
3.237,-0.576497914,-0.67040914
3.238,-0.576501558,-0.61725312
3.239,-0.576505468,-0.59651583
3.24,-0.576509643,-0.55004168
3.241,-0.576514084,-0.48088679
3.242,-0.576518793,-0.59998596
3.243,-0.576523768,-0.46122992
3.244,-0.576529011,-0.41289762
3.245,-0.576534522,-0.53463423
3.246,-0.576540302,-0.51648855
3.247,-0.57654635,-0.73827618
3.248,-0.576552667,-0.48364195
3.249,-0.576559254,-0.54479527
3.25,-0.576566111,-0.58935016
3.251,-0.576573239,-0.51290166
3.252,-0.576580637,-0.75624996
3.253,-0.576588306,-0.59660798
3.254,-0.576596247,-0.40734947
3.255,-0.57660446,-0.44875374
3.256,-0.576612945,-0.43688196
3.257,-0.576621703,-0.49197212
3.258,-0.576630734,-0.62339562
3.259,-0.576640038,-0.57321531
3.26,-0.576649616,-0.61489528
3.261,-0.576659468,-0.5953294
3.262,-0.576669594,-0.35899419
3.263,-0.576679995,-0.49985108
3.264,-0.576690672,-0.48261824
3.265,-0.576701623,-0.55546445
3.266,-0.576712851,-0.68533468
3.267,-0.576724355,-0.58969957
3.268,-0.576736135,-0.64263952
3.269,-0.576748192,-0.47046253
3.27,-0.576760525,-0.54265952
3.271,-0.576773137,-0.71746778
3.272,-0.576786026,-0.61531794
3.273,-0.576799193,-0.47623867
3.274,-0.576812638,-0.46422341
3.275,-0.576826362,-0.75040025
3.276,-0.576840365,-0.69112343
3.277,-0.576854647,-0.63501072
3.278,-0.576869209,-0.70713532
3.279,-0.57688405,-0.60546601
3.28,-0.576899171,-0.66479611
3.281,-0.576914573,-0.6365816
3.282,-0.576930255,-0.62711942
3.283,-0.576946218,-0.58786988
3.284,-0.576962463,-0.498853
3.285,-0.576978988,-0.63116103
3.286,-0.576995795,-0.57173496
3.287,-0.577012885,-0.85472888
3.288,-0.577030256,-0.52645439
3.289,-0.577047909,-0.44265661
3.29,-0.577065846,-0.42944974
3.291,-0.577084065,-0.69321853
3.292,-0.577102567,-0.64574432
3.293,-0.577121352,-0.72334796
3.294,-0.577140421,-0.5166921
3.295,-0.577159774,-0.44002932
3.296,-0.577179411,-0.49730015
3.297,-0.577199332,-0.46651414
3.298,-0.577219537,-0.3774673
3.299,-0.577240027,-0.48009422
3.3,-0.577260802,-0.51696652
3.301,-0.577281861,-0.56045824
3.302,-0.577303206,-0.56154722
3.303,-0.577324836,-0.46864489
3.304,-0.577346752,-0.64367259
3.305,-0.577368954,-0.40196651
3.306,-0.577391441,-0.56858706
3.307,-0.577414214,-0.6406821
3.308,-0.577437274,-0.48417684
3.309,-0.57746062,-0.52995729
3.31,-0.577484253,-0.49281955
3.311,-0.577508172,-0.41777822
3.312,-0.577532378,-0.52610368
3.313,-0.577556871,-0.54366517
3.314,-0.577581651,-0.60829151
3.315,-0.577606719,-0.34221703
3.316,-0.577632074,-0.59434032
3.317,-0.577657717,-0.64537078
3.318,-0.577683647,-0.39109001
3.319,-0.577709865,-0.41083723
3.32,-0.577736371,-0.44506633
3.321,-0.577763165,-0.56808841
3.322,-0.577790247,-0.63777101
3.323,-0.577817617,-0.5005511
3.324,-0.577845276,-0.60865456
3.325,-0.577873223,-0.46079695
3.326,-0.577901459,-0.65281355
3.327,-0.577929983,-0.55070066
3.328,-0.577958796,-0.52624953
3.329,-0.577987898,-0.53498149
3.33,-0.578017289,-0.47413823
3.331,-0.578046968,-0.43575323
3.332,-0.578076937,-0.53966886
3.333,-0.578107195,-0.40758181
3.334,-0.578137741,-0.65872985
3.335,-0.578168577,-0.57375836
3.336,-0.578199703,-0.58789885
3.337,-0.578231117,-0.4946841
3.338,-0.578262821,-0.71499276
3.339,-0.578294814,-0.53720772
3.34,-0.578327097,-0.34687033
3.341,-0.578359669,-0.55044925
3.342,-0.57839253,-0.41419962
3.343,-0.578425681,-0.39036092
3.344,-0.578459122,-0.69253862
3.345,-0.578492852,-0.52766562
3.346,-0.578526871,-0.54585451
3.347,-0.57856118,-0.44968349
3.348,-0.578595779,-0.40694574
3.349,-0.578630667,-0.5386883
3.35,-0.578665845,-0.57199901
3.351,-0.578701312,-0.85979092
3.352,-0.578737068,-0.46912807
3.353,-0.578773115,-0.37660676
3.354,-0.57880945,-0.61728251
3.355,-0.578846075,-0.53993362
3.356,-0.578882989,-0.33312473
3.357,-0.578920193,-0.61859858
3.358,-0.578957686,-0.60223758
3.359,-0.578995468,-0.52880001
3.36,-0.57903354,-0.69655496
3.361,-0.5790719,-0.39630955
3.362,-0.57911055,-0.44066593
3.363,-0.579149489,-0.62577784
3.364,-0.579188716,-0.61678189
3.365,-0.579228233,-0.67528868
3.366,-0.579268038,-0.35503858
3.367,-0.579308133,-0.55803776
3.368,-0.579348515,-0.34639955
3.369,-0.579389187,-0.68086731
3.37,-0.579430147,-0.89919335
3.371,-0.579471395,-0.4821609
3.372,-0.579512932,-0.53788245
3.373,-0.579554756,-0.66820884
3.374,-0.579596869,-0.41588598
3.375,-0.57963927,-0.64763129
3.376,-0.579681958,-0.53573233
3.377,-0.579724935,-0.50812453
3.378,-0.579768199,-0.49889782
3.379,-0.57981175,-0.57072896
3.38,-0.579855589,-0.41142458
3.381,-0.579899715,-0.4985947
3.382,-0.579944127,-0.37753731
3.383,-0.579988827,-0.63999623
3.384,-0.580033814,-0.45087537
3.385,-0.580079087,-0.55178356
3.386,-0.580124647,-0.69385159
3.387,-0.580170492,-0.30631348
3.388,-0.580216624,-0.48242551
3.389,-0.580263042,-0.45381057
3.39,-0.580309746,-0.46618322
3.391,-0.580356735,-0.40515515
3.392,-0.580404009,-0.48592672
3.393,-0.580451569,-0.49979207
3.394,-0.580499413,-0.46562281
3.395,-0.580547543,-0.56866264
3.396,-0.580595957,-0.31429979
3.397,-0.580644655,-0.38155317
3.398,-0.580693638,-0.56693351
3.399,-0.580742904,-0.31306145
3.4,-0.580792455,-0.57645321
3.401,-0.580842288,-0.31832221
3.402,-0.580892405,-0.3620083
3.403,-0.580942805,-0.47982726
3.404,-0.580993488,-0.45649436
3.405,-0.581044453,-0.31139734
3.406,-0.581095701,-0.4536522
3.407,-0.581147231,-0.66106313
3.408,-0.581199042,-0.32222825
3.409,-0.581251135,-0.26217762
3.41,-0.58130351,-0.29526603
3.411,-0.581356165,-0.34029099
3.412,-0.581409101,-0.42057648
3.413,-0.581462318,-0.46624568
3.414,-0.581515815,-0.56838346
3.415,-0.581569591,-0.35002026
3.416,-0.581623647,-0.50095761
3.417,-0.581677983,-0.33823729
3.418,-0.581732597,-0.43792605
3.419,-0.581787491,-0.41117749
3.42,-0.581842662,-0.39588666
3.421,-0.581898112,-0.32911557
3.422,-0.58195384,-0.53020358
3.423,-0.582009845,-0.21344277
3.424,-0.582066127,-0.4718087
3.425,-0.582122686,-0.43157387
3.426,-0.582179521,-0.43507537
3.427,-0.582236633,-0.57618952
3.428,-0.58229402,-0.37321121
3.429,-0.582351683,-0.36641616
3.43,-0.582409621,-0.46510959
3.431,-0.582467833,-0.42874944
3.432,-0.58252632,-0.28032622
3.433,-0.582585081,-0.37274957
3.434,-0.582644116,-0.39118123
3.435,-0.582703424,-0.30901423
3.436,-0.582763004,-0.49295238
3.437,-0.582822858,-0.56952184
3.438,-0.582882983,-0.26449177
3.439,-0.58294338,-0.51615167
3.44,-0.583004049,-0.40276924
3.441,-0.583064989,-0.2094864
3.442,-0.583126199,-0.23962991
3.443,-0.583187679,-0.4757961
3.444,-0.583249429,-0.30527377
3.445,-0.583311448,-0.30809587
3.446,-0.583373737,-0.47052485
3.447,-0.583436293,-0.47577336
3.448,-0.583499118,-0.46252841
3.449,-0.583562211,-0.25174916
3.45,-0.58362557,-0.2860333
3.451,-0.583689196,-0.27551797
3.452,-0.583753089,-0.24836959
3.453,-0.583817248,-0.43222171
3.454,-0.583881672,-0.27374801
3.455,-0.58394636,-0.18597224
3.456,-0.584011314,-0.46739876
3.457,-0.584076531,-0.23419566
3.458,-0.584142012,-0.41635305
3.459,-0.584207756,-0.24891731
3.46,-0.584273763,-0.35588023
3.461,-0.584340031,-0.30774271
3.462,-0.584406562,-0.40539378
3.463,-0.584473353,-0.6245901
3.464,-0.584540405,-0.35211459
3.465,-0.584607718,-0.3186608
3.466,-0.58467529,-0.54941392
3.467,-0.584743121,-0.35709196
3.468,-0.58481121,-0.2927759
3.469,-0.584879558,-0.37881184
3.47,-0.584948163,-0.31328645
3.471,-0.585017026,-0.31744853
3.472,-0.585086145,-0.42085049
3.473,-0.58515552,-0.40518805
3.474,-0.58522515,-0.56791216
3.475,-0.585295035,-0.32705837
3.476,-0.585365175,-0.31274238
3.477,-0.585435568,-0.25305548
3.478,-0.585506215,-0.2546272
3.479,-0.585577114,-0.26802436
3.48,-0.585648266,-0.25390199
3.481,-0.585719669,-0.41227093
3.482,-0.585791323,-0.3789103
3.483,-0.585863228,-0.088864535
3.484,-0.585935382,-0.28830144
3.485,-0.586007786,-0.32951891
3.486,-0.586080438,-0.38560808
3.487,-0.586153338,-0.18508399
3.488,-0.586226486,-0.42141497
3.489,-0.586299881,-0.27973303
3.49,-0.586373522,-0.29825035
3.491,-0.586447409,-0.20010857
3.492,-0.586521541,-0.41351518
3.493,-0.586595917,-0.36945054
3.494,-0.586670537,-0.47736645
3.495,-0.5867454,-0.16032527
3.496,-0.586820506,-0.2778582
3.497,-0.586895854,-0.2500363
3.498,-0.586971443,-0.32948458
3.499,-0.587047273,-0.27991787
3.5,-0.587123342,-0.040275186
3.501,-0.587199651,-0.34086287
3.502,-0.587276199,-0.27344987
3.503,-0.587352985,-0.60048842
3.504,-0.587430008,-0.17898113
3.505,-0.587507268,-0.17176677
3.506,-0.587584764,-0.26246169
3.507,-0.587662495,-0.31607413
3.508,-0.587740461,-0.38789353
3.509,-0.587818661,-0.2708382
3.51,-0.587897095,-0.30094573
3.511,-0.587975761,-0.34075812
3.512,-0.588054659,-0.40532264
3.513,-0.588133788,-0.24704666
3.514,-0.588213148,-0.20723148
3.515,-0.588292737,-0.25013059
3.516,-0.588372556,-0.32857186
3.517,-0.588452603,-0.16364644
3.518,-0.588532878,-0.26331094
3.519,-0.58861338,-0.26712915
3.52,-0.588694108,-0.058281377
3.521,-0.588775061,-0.27409536
3.522,-0.588856239,-0.33962917
3.523,-0.588937642,-0.18651344
3.524,-0.589019267,-0.009162546
3.525,-0.589101115,-0.33816689
3.526,-0.589183185,-0.11663233
3.527,-0.589265476,-0.24716313
3.528,-0.589347987,-0.31411129
3.529,-0.589430718,-0.25128236
3.53,-0.589513668,-0.53749168
3.531,-0.589596835,-0.28016523
3.532,-0.58968022,-0.31485012
3.533,-0.589763821,-0.09268944
3.534,-0.589847638,-0.4041065
3.535,-0.589931669,-0.2509985
3.536,-0.590015915,-0.099685386
3.537,-0.590100374,0.001516837
3.538,-0.590185046,-0.31687701
3.539,-0.590269929,-0.27022931
3.54,-0.590355023,-0.20379475
3.541,-0.590440327,-0.33363873
3.542,-0.59052584,-0.11069395
3.543,-0.590611562,-0.29484624
3.544,-0.590697492,-0.086665682
3.545,-0.590783628,-0.25557262
3.546,-0.59086997,-0.44107014
3.547,-0.590956517,-0.37035003
3.548,-0.591043269,-0.30349192
3.549,-0.591130224,-0.28985569
3.55,-0.591217382,0.01964511
3.551,-0.591304741,-0.139318
3.552,-0.591392302,-0.1263551
3.553,-0.591480062,-0.25983408
3.554,-0.591568022,-0.36286843
3.555,-0.59165618,-0.26606843
3.556,-0.591744535,-0.16895247
3.557,-0.591833087,-0.022187922
3.558,-0.591921835,-0.16181125
3.559,-0.592010778,-0.18013881
3.56,-0.592099914,-0.11520261
3.561,-0.592189244,-0.30225024
3.562,-0.592278766,-0.21784069
3.563,-0.59236848,-0.4056538
3.564,-0.592458383,-0.05807177
3.565,-0.592548476,-0.13481967
3.566,-0.592638758,-0.18930019
3.567,-0.592729228,-0.28509918
3.568,-0.592819884,-0.2367585
3.569,-0.592910727,-0.11170591
3.57,-0.593001754,0.002548314
3.571,-0.593092965,-0.20553432
3.572,-0.59318436,-0.19710672
3.573,-0.593275936,-0.09753295
3.574,-0.593367694,-0.23246109
3.575,-0.593459633,-0.10852713
3.576,-0.59355175,-0.20967592
3.577,-0.593644046,-0.18016854
3.578,-0.59373652,-0.27315038
3.579,-0.59382917,-0.088127948
3.58,-0.593921996,-0.10095295
3.581,-0.594014997,-0.14477348
3.582,-0.594108171,-0.1924348
3.583,-0.594201518,-0.26719373
3.584,-0.594295037,-0.069866657
3.585,-0.594388726,-0.28674904
3.586,-0.594482586,-0.15467402
3.587,-0.594576614,-0.083911352
3.588,-0.59467081,-0.24217525
3.589,-0.594765173,-0.19468749
3.59,-0.594859702,-0.019165242
3.591,-0.594954396,-0.22858618
3.592,-0.595049254,-0.33182451
3.593,-0.595144274,-0.049118176
3.594,-0.595239457,-0.32639265
3.595,-0.595334801,0.04479355
3.596,-0.595430304,-0.13459492
3.597,-0.595525967,-0.14979653
3.598,-0.595621787,-0.24508765
3.599,-0.595717764,-0.24104924
3.6,-0.595813897,-0.24991889
3.601,-0.595910185,-0.036852989
3.602,-0.596006627,-0.12471313
3.603,-0.596103222,-0.37005457
3.604,-0.596199968,-0.20999442
3.605,-0.596296865,-0.23167218
3.606,-0.596393912,-0.077732459
3.607,-0.596491107,-0.20870432
3.608,-0.59658845,-0.026737651
3.609,-0.59668594,-0.35844156
3.61,-0.596783575,-0.26474294
3.611,-0.596881354,0.0577062
3.612,-0.596979277,-0.15292647
3.613,-0.597077342,-0.34044996
3.614,-0.597175549,-0.067633554
3.615,-0.597273895,-0.2790316
3.616,-0.597372381,-0.13636929
3.617,-0.597471005,-0.12300079
3.618,-0.597569766,-0.30573124
3.619,-0.597668663,-0.014681068
3.62,-0.597767695,0.068962663
3.621,-0.59786686,-0.091214128
3.622,-0.597966158,-0.067798562
3.623,-0.598065588,-0.17112616
3.624,-0.598165148,-0.12995288
3.625,-0.598264837,-0.16993837
3.626,-0.598364655,-0.18382631
3.627,-0.5984646,-0.146001
3.628,-0.598564671,-0.1928252
3.629,-0.598664867,0.024997937
3.63,-0.598765187,-0.16623011
3.631,-0.598865629,-0.19175109
3.632,-0.598966193,0.10576077
3.633,-0.599066878,-0.14731123
3.634,-0.599167682,-0.049763519
3.635,-0.599268604,-0.0234123
3.636,-0.599369644,0.034322724
3.637,-0.599470799,-0.22426932
3.638,-0.59957207,-0.20194185
3.639,-0.599673454,-0.20486233
3.64,-0.59977495,-0.097126245
3.641,-0.599876559,-0.14503732
3.642,-0.599978277,-0.1309478
3.643,-0.600080105,-0.14141914
3.644,-0.60018204,-0.21719462
3.645,-0.600284083,-0.3187972
3.646,-0.600386231,-0.28843334
3.647,-0.600488484,-0.12846102
3.648,-0.60059084,-0.1274851
3.649,-0.600693299,-0.29559633
3.65,-0.600795858,-0.19240992
3.651,-0.600898518,-0.09107665
3.652,-0.601001276,-0.14178541
3.653,-0.601104132,-0.074068069
3.654,-0.601207084,-0.30738601
3.655,-0.601310131,-0.12376498
3.656,-0.601413273,-0.14878565
3.657,-0.601516507,-0.14159153
3.658,-0.601619833,-0.1637519
3.659,-0.601723249,-0.000461641
3.66,-0.601826755,-0.080056399
3.661,-0.601930349,-0.16137481
3.662,-0.60203403,-0.18106866
3.663,-0.602137796,0.077851318
3.664,-0.602241647,0.015146203
3.665,-0.602345582,0.066292927
3.666,-0.602449598,-0.17815337
3.667,-0.602553696,-0.28423128
3.668,-0.602657873,-0.058150925
3.669,-0.602762128,0.015391323
3.67,-0.602866461,-0.24063973
3.671,-0.60297087,-0.062640563
3.672,-0.603075354,-0.03484299
3.673,-0.603179912,-0.16842011
3.674,-0.603284542,-0.078308612
3.675,-0.603389243,-0.13966465
3.676,-0.603494014,-0.012334633
3.677,-0.603598854,-0.16671462
3.678,-0.603703762,-0.11085276
3.679,-0.603808736,-0.10699546
3.68,-0.603913774,0.046891607
3.681,-0.604018877,-0.080129638
3.682,-0.604124043,-0.16183482
3.683,-0.604229269,-0.11812697
3.684,-0.604334556,-0.024098506
3.685,-0.604439902,-0.096412189
3.686,-0.604545305,-0.15902172
3.687,-0.604650765,0.015882604
3.688,-0.60475628,-0.062717795
3.689,-0.604861849,-0.36328191
3.69,-0.60496747,-0.10342453
3.691,-0.605073143,-0.0566325
3.692,-0.605178866,-0.12477614
3.693,-0.605284638,0.03504774
3.694,-0.605390457,-0.3225624
3.695,-0.605496323,-0.21939307
3.696,-0.605602234,-0.086191297
3.697,-0.605708189,-0.079958156
3.698,-0.605814187,-0.072257325
3.699,-0.605920225,-0.056907583
3.7,-0.606026304,0.055569194
3.701,-0.606132422,0.005637096
3.702,-0.606238577,-0.13257633
3.703,-0.606344768,-0.035346329
3.704,-0.606450995,-0.41663358
3.705,-0.606557255,0.10923953
3.706,-0.606663547,-0.084123217
3.707,-0.606769871,-0.11371371
3.708,-0.606876224,-0.14889543
3.709,-0.606982607,-0.18604143
3.71,-0.607089016,-0.20853655
3.711,-0.607195451,-0.13057797
3.712,-0.607301911,-0.10909519
3.713,-0.607408395,0.010701708
3.714,-0.607514901,-0.12404925
3.715,-0.607621427,-0.11360306
3.716,-0.607727974,-0.10335414
3.717,-0.607834538,-0.15143555
3.718,-0.60794112,-0.07964088
3.719,-0.608047717,-0.19455189
3.72,-0.608154328,-0.066118196
3.721,-0.608260953,-0.030223237
3.722,-0.60836759,-0.15886723
3.723,-0.608474237,-0.15592007
3.724,-0.608580893,-0.15118428
3.725,-0.608687557,-0.11610904
3.726,-0.608794228,-0.13799785
3.727,-0.608900904,-0.19818084
3.728,-0.609007584,-0.086755343
3.729,-0.609114267,-0.099523723
3.73,-0.609220951,-0.1524633
3.731,-0.609327636,-0.18031572
3.732,-0.609434319,-0.20774585
3.733,-0.609541,-0.33889246
3.734,-0.609647676,-0.18445404
3.735,-0.609754348,-0.22893722
3.736,-0.609861013,-0.09006153
3.737,-0.609967671,-0.14337513
3.738,-0.610074319,-0.18458726
3.739,-0.610180957,-0.17047404
3.74,-0.610287584,-0.086677916
3.741,-0.610394197,-0.12909903
3.742,-0.610500796,-0.19349262
3.743,-0.61060738,-0.094335459
3.744,-0.610713946,-0.14957424
3.745,-0.610820495,-0.25922018
3.746,-0.610927023,-0.13096713
3.747,-0.611033531,-0.27308831
3.748,-0.611140017,-0.23844051
3.749,-0.611246479,-0.072776906
3.75,-0.611352916,-0.20670414
3.751,-0.611459327,-0.13996597
3.752,-0.611565711,-0.11343069
3.753,-0.611672065,-0.1054692
3.754,-0.61177839,-0.24551663
3.755,-0.611884683,-0.15621665
3.756,-0.611990944,-0.20966542
3.757,-0.61209717,-0.25711873
3.758,-0.612203361,-0.18879555
3.759,-0.612309515,0.011328487
3.76,-0.612415632,-0.12478458
3.761,-0.612521708,-0.21695854
3.762,-0.612627745,-0.015500887
3.763,-0.612733739,-0.055677596
3.764,-0.61283969,-0.08092805
3.765,-0.612945596,-0.17551304
3.766,-0.613051456,-0.14379002
3.767,-0.613157269,0.0154307
3.768,-0.613263033,-0.21717793
3.769,-0.613368747,-0.40721577
3.77,-0.613474411,-0.08458259
3.771,-0.613580021,0.004310099
3.772,-0.613685578,-0.20650244
3.773,-0.613791079,-0.12014086
3.774,-0.613896524,-0.067840531
3.775,-0.614001911,-0.23216011
3.776,-0.614107239,-0.18711099
3.777,-0.614212506,-0.19300213
3.778,-0.614317712,-0.18767495
3.779,-0.614422854,-0.20843579
3.78,-0.614527932,-0.24877934
3.781,-0.614632944,-0.11619072
3.782,-0.614737889,-0.13251568
3.783,-0.614842766,-0.17012317
3.784,-0.614947572,-0.084808029
3.785,-0.615052308,-0.11428811
3.786,-0.615156972,-0.26672995
3.787,-0.615261562,-0.28359666
3.788,-0.615366076,0.032942522
3.789,-0.615470515,-0.21555853
3.79,-0.615574876,-0.12626246
3.791,-0.615679158,-0.23915219
3.792,-0.615783359,-0.32255468
3.793,-0.615887479,-0.40781602
3.794,-0.615991517,-0.10833628
3.795,-0.61609547,-0.33016562
3.796,-0.616199337,-0.37944204
3.797,-0.616303118,-0.37037298
3.798,-0.616406811,-0.066274717
3.799,-0.616510414,-0.10064768
3.8,-0.616613927,-0.2150525
3.801,-0.616717347,-0.26923999
3.802,-0.616820674,-0.24806201
3.803,-0.616923907,-0.32114521
3.804,-0.617027043,-0.20198891
3.805,-0.617130083,-0.30909958
3.806,-0.617233024,-0.25273758
3.807,-0.617335865,-0.19360705
3.808,-0.617438605,-0.40272942
3.809,-0.617541242,-0.39836589
3.81,-0.617643776,-0.19371456
3.811,-0.617746205,-0.28565276
3.812,-0.617848527,-0.028425617
3.813,-0.617950742,-0.13694917
3.814,-0.618052848,-0.08578603
3.815,-0.618154844,-0.22646283
3.816,-0.618256729,-0.31063658
3.817,-0.6183585,-0.030256741
3.818,-0.618460158,-0.34868187
3.819,-0.6185617,-0.20382273
3.82,-0.618663126,-0.43144184
3.821,-0.618764434,-0.43760514
3.822,-0.618865623,-0.349235
3.823,-0.618966691,-0.26822123
3.824,-0.619067638,-0.21517858
3.825,-0.619168461,-0.32284424
3.826,-0.619269161,-0.31976977
3.827,-0.619369735,-0.350216
3.828,-0.619470182,-0.19647761
3.829,-0.619570501,-0.23681976
3.83,-0.619670691,-0.16886115
3.831,-0.61977075,-0.29531163
3.832,-0.619870678,-0.33440253
3.833,-0.619970472,-0.2617757
3.834,-0.620070132,-0.27097791
3.835,-0.620169656,-0.30715936
3.836,-0.620269044,-0.41919434
3.837,-0.620368294,-0.24516757
3.838,-0.620467404,-0.19287573
3.839,-0.620566374,-0.21056864
3.84,-0.620665201,-0.33510226
3.841,-0.620763886,-0.19549312
3.842,-0.620862427,-0.18258753
3.843,-0.620960822,-0.21281636
3.844,-0.62105907,-0.35729435
3.845,-0.62115717,-0.019126011
3.846,-0.621255121,-0.11985548
3.847,-0.621352921,-0.36607027
3.848,-0.62145057,-0.22018877
3.849,-0.621548066,-0.39769581
3.85,-0.621645408,-0.38286099
3.851,-0.621742594,-0.27956513
3.852,-0.621839624,-0.35494557
3.853,-0.621936496,-0.29711142
3.854,-0.622033209,-0.12408389
3.855,-0.622129762,-0.3698149
3.856,-0.622226154,-0.42962202
3.857,-0.622322383,-0.42975447
3.858,-0.622418448,-0.26793396
3.859,-0.622514349,-0.16863011
3.86,-0.622610083,-0.2227356
3.861,-0.622705649,-0.26755363
3.862,-0.622801048,-0.46191987
3.863,-0.622896276,-0.2472854
3.864,-0.622991334,-0.26695094
3.865,-0.623086219,-0.42777088
3.866,-0.623180931,-0.62515867
3.867,-0.623275469,-0.35446936
3.868,-0.623369831,-0.21633029
3.869,-0.623464017,-0.34709486
3.87,-0.623558024,-0.21320741
3.871,-0.623651852,-0.38357016
3.872,-0.623745501,-0.34487683
3.873,-0.623838967,-0.22220498
3.874,-0.623932252,-0.42062199
3.875,-0.624025352,-0.39033827
3.876,-0.624118268,-0.35744271
3.877,-0.624210998,-0.42485169
3.878,-0.62430354,-0.08843828
3.879,-0.624395895,-0.35532871
3.88,-0.62448806,-0.37781975
3.881,-0.624580034,-0.15729742
3.882,-0.624671817,-0.27144724
3.883,-0.624763407,-0.47546768
3.884,-0.624854804,-0.30085674
3.885,-0.624946005,-0.25319362
3.886,-0.625037011,-0.25976303
3.887,-0.625127819,-0.34585497
3.888,-0.625218429,-0.24777924
3.889,-0.625308839,-0.31211025
3.89,-0.62539905,-0.23076029
3.891,-0.625489058,-0.37475288
3.892,-0.625578864,-0.37676665
3.893,-0.625668466,-0.36429948
3.894,-0.625757864,-0.32683271
3.895,-0.625847056,-0.46745548
3.896,-0.625936041,-0.38784516
3.897,-0.626024817,-0.47965521
3.898,-0.626113385,-0.42091224
3.899,-0.626201743,-0.30199584
3.9,-0.626289889,-0.43016028
3.901,-0.626377824,-0.38075992
3.902,-0.626465545,-0.25994557
3.903,-0.626553052,-0.46470633
3.904,-0.626640344,-0.4086293
3.905,-0.626727419,-0.27161673
3.906,-0.626814277,-0.37998211
3.907,-0.626900917,-0.206984
3.908,-0.626987337,-0.3233912
3.909,-0.627073537,-0.39596504
3.91,-0.627159515,-0.44045877
3.911,-0.627245271,-0.39655793
3.912,-0.627330804,-0.35003823
3.913,-0.627416112,-0.35163197
3.914,-0.627501195,-0.55584061
3.915,-0.627586051,-0.39862543
3.916,-0.627670681,-0.38077557
3.917,-0.627755082,-0.36203939
3.918,-0.627839253,-0.45339507
3.919,-0.627923195,-0.35124433
3.92,-0.628006905,-0.40152395
3.921,-0.628090383,-0.54443288
3.922,-0.628173628,-0.48450214
3.923,-0.628256639,-0.29929933
3.924,-0.628339415,-0.37078986
3.925,-0.628421955,-0.44690847
3.926,-0.628504258,-0.36400881
3.927,-0.628586323,-0.25986463
3.928,-0.62866815,-0.49776354
3.929,-0.628749737,-0.32702965
3.93,-0.628831084,-0.35212567
3.931,-0.628912189,-0.41921034
3.932,-0.628993052,-0.55708164
3.933,-0.629073672,-0.43416312
3.934,-0.629154047,-0.43087348
3.935,-0.629234178,-0.4468576
3.936,-0.629314063,-0.21785456
3.937,-0.629393701,-0.43604216
3.938,-0.629473092,-0.20209314
3.939,-0.629552234,-0.41196892
3.94,-0.629631127,-0.50196648
3.941,-0.62970977,-0.402677
3.942,-0.629788162,-0.4028962
3.943,-0.629866302,-0.60579556
3.944,-0.629944189,-0.45435706
3.945,-0.630021824,-0.54769808
3.946,-0.630099203,-0.40718293
3.947,-0.630176328,-0.38881636
3.948,-0.630253197,-0.43100268
3.949,-0.630329809,-0.52546626
3.95,-0.630406164,-0.3986854
3.951,-0.63048226,-0.63589609
3.952,-0.630558098,-0.60896808
3.953,-0.630633676,-0.35657609
3.954,-0.630708993,-0.21946482
3.955,-0.630784048,-0.42663097
3.956,-0.630858842,-0.38676625
3.957,-0.630933373,-0.54275954
3.958,-0.63100764,-0.32235315
3.959,-0.631081643,-0.56119287
3.96,-0.631155381,-0.35985214
3.961,-0.631228853,-0.38855213
3.962,-0.631302058,-0.37851551
3.963,-0.631374997,-0.5810867
3.964,-0.631447667,-0.36252239
3.965,-0.631520069,-0.55621457
3.966,-0.631592202,-0.56040406
3.967,-0.631664064,-0.34655312
3.968,-0.631735656,-0.68008488
3.969,-0.631806977,-0.47914696
3.97,-0.631878025,-0.54143155
3.971,-0.631948801,-0.48263767
3.972,-0.632019304,-0.55798572
3.973,-0.632089532,-0.44599852
3.974,-0.632159486,-0.71108216
3.975,-0.632229165,-0.37101531
3.976,-0.632298568,-0.42023444
3.977,-0.632367694,-0.40303621
3.978,-0.632436544,-0.50393385
3.979,-0.632505115,-0.52962464
3.98,-0.632573409,-0.62140793
3.981,-0.632641423,-0.47683409
3.982,-0.632709158,-0.4070507
3.983,-0.632776614,-0.60120511
3.984,-0.632843788,-0.46780229
3.985,-0.632910681,-0.35416868
3.986,-0.632977293,-0.466842
3.987,-0.633043623,-0.45846492
3.988,-0.633109669,-0.49638599
3.989,-0.633175433,-0.3446734
3.99,-0.633240912,-0.41691905
3.991,-0.633306107,-0.41237074
3.992,-0.633371017,-0.52855361
3.993,-0.633435642,-0.47433242
3.994,-0.633499982,-0.46368715
3.995,-0.633564034,-0.59730411
3.996,-0.6336278,-0.36807725
3.997,-0.633691279,-0.49491125
3.998,-0.63375447,-0.57392085
3.999,-0.633817373,-0.36582124
4,-0.633879987,-0.69024843
4.001,-0.633942312,-0.46245712
4.002,-0.634004347,-0.27204543
4.003,-0.634066093,-0.45256397
4.004,-0.634127548,-0.53995389
4.005,-0.634188712,-0.56320518
4.006,-0.634249586,-0.41603073
4.007,-0.634310167,-0.45897618
4.008,-0.634370457,-0.46822333
4.009,-0.634430455,-0.50234592
4.01,-0.63449016,-0.67298514
4.011,-0.634549571,-0.56420839
4.012,-0.63460869,-0.4187237
4.013,-0.634667515,-0.41550824
4.014,-0.634726045,-0.4889113
4.015,-0.634784281,-0.57995778
4.016,-0.634842223,-0.66974956
4.017,-0.63489987,-0.59095436
4.018,-0.634957221,-0.61276257
4.019,-0.635014277,-0.65718889
4.02,-0.635071036,-0.49245575
4.021,-0.6351275,-0.47738087
4.022,-0.635183667,-0.48202205
4.023,-0.635239538,-0.61216319
4.024,-0.635295111,-0.37094906
4.025,-0.635350388,-0.4972643
4.026,-0.635405367,-0.42723069
4.027,-0.635460048,-0.50214446
4.028,-0.635514432,-0.75575548
4.029,-0.635568517,-0.53606719
4.03,-0.635622305,-0.27070957
4.031,-0.635675793,-0.44180101
4.032,-0.635728984,-0.4359985
4.033,-0.635781875,-0.46221322
4.034,-0.635834467,-0.4239594
4.035,-0.635886761,-0.4752056
4.036,-0.635938755,-0.66666812
4.037,-0.63599045,-0.56299555
4.038,-0.636041845,-0.56039524
4.039,-0.636092941,-0.53578573
4.04,-0.636143737,-0.29183608
4.041,-0.636194233,-0.51464242
4.042,-0.636244429,-0.64464903
4.043,-0.636294325,-0.62618715
4.044,-0.636343921,-0.3285605
4.045,-0.636393217,-0.42701966
4.046,-0.636442213,-0.43578175
4.047,-0.636490908,-0.65190095
4.048,-0.636539304,-0.44068441
4.049,-0.636587399,-0.48939011
4.05,-0.636635193,-0.60423082
4.051,-0.636682688,-0.62660038
4.052,-0.636729882,-0.40615079
4.053,-0.636776776,-0.39136708
4.054,-0.636823369,-0.63480163
4.055,-0.636869662,-0.60027516
4.056,-0.636915656,-0.61815506
4.057,-0.636961348,-0.42054597
4.058,-0.637006741,-0.53600073
4.059,-0.637051834,-0.38902164
4.06,-0.637096627,-0.55669916
4.061,-0.63714112,-0.48536551
4.062,-0.637185313,-0.48518965
4.063,-0.637229207,-0.56867921
4.064,-0.637272801,-0.4247824
4.065,-0.637316096,-0.40171084
4.066,-0.637359092,-0.53367925
4.067,-0.637401788,-0.56826001
4.068,-0.637444185,-0.39612219
4.069,-0.637486284,-0.4835169
4.07,-0.637528084,-0.66326207
4.071,-0.637569586,-0.5431782
4.072,-0.637610789,-0.42336413
4.073,-0.637651695,-0.52309328
4.074,-0.637692302,-0.45720538
4.075,-0.637732612,-0.58497649
4.076,-0.637772625,-0.42140731
4.077,-0.637812341,-0.35208324
4.078,-0.637851759,-0.3981553
4.079,-0.637890882,-0.48419586
4.08,-0.637929708,-0.43124518
4.081,-0.637968238,-0.56351823
4.082,-0.638006472,-0.48428065
4.083,-0.638044411,-0.45073837
4.084,-0.638082055,-0.52192187
4.085,-0.638119404,-0.45114297
4.086,-0.638156458,-0.53587461
4.087,-0.638193219,-0.65218711
4.088,-0.638229686,-0.48096773
4.089,-0.63826586,-0.54807872
4.09,-0.63830174,-0.57587767
4.091,-0.638337329,-0.52822971
4.092,-0.638372625,-0.62240726
4.093,-0.638407629,-0.40786281
4.094,-0.638442342,-0.48142764
4.095,-0.638476764,-0.50150698
4.096,-0.638510896,-0.52068567
4.097,-0.638544737,-0.54203373
4.098,-0.638578289,-0.33567679
4.099,-0.638611552,-0.67179638
4.1,-0.638644527,-0.51798224
4.101,-0.638677213,-0.53695482
4.102,-0.638709612,-0.47574535
4.103,-0.638741724,-0.43867624
4.104,-0.638773549,-0.27732626
4.105,-0.638805089,-0.48904592
4.106,-0.638836343,-0.53473783
4.107,-0.638867312,-0.37684491
4.108,-0.638897997,-0.33161107
4.109,-0.638928398,-0.50279683
4.11,-0.638958515,-0.51037067
4.111,-0.638988351,-0.45904192
4.112,-0.639017904,-0.48051614
4.113,-0.639047177,-0.45222679
4.114,-0.639076168,-0.45455667
4.115,-0.63910488,-0.51813716
4.116,-0.639133312,-0.45098251
4.117,-0.639161465,-0.57119
4.118,-0.639189341,-0.36420786
4.119,-0.639216939,-0.50515485
4.12,-0.63924426,-0.45333326
4.121,-0.639271306,-0.54793066
4.122,-0.639298076,-0.32375279
4.123,-0.639324572,-0.27725285
4.124,-0.639350795,-0.52734172
4.125,-0.639376744,-0.47661206
4.126,-0.639402421,-0.51924378
4.127,-0.639427827,-0.58575141
4.128,-0.639452962,-0.5444231
4.129,-0.639477827,-0.53738123
4.13,-0.639502423,-0.3880401
4.131,-0.639526751,-0.59819651
4.132,-0.639550812,-0.43288344
4.133,-0.639574606,-0.45672387
4.134,-0.639598134,-0.32338199
4.135,-0.639621398,-0.54272175
4.136,-0.639644398,-0.37705451
4.137,-0.639667134,-0.42308614
4.138,-0.639689609,-0.15521644
4.139,-0.639711822,-0.4493897
4.14,-0.639733775,-0.54046398
4.141,-0.639755468,-0.34741592
4.142,-0.639776903,-0.41210899
4.143,-0.639798081,-0.24830446
4.144,-0.639819001,-0.3117927
4.145,-0.639839667,-0.51505542
4.146,-0.639860078,-0.49575153
4.147,-0.639880235,-0.4969658
4.148,-0.639900139,-0.44873309
4.149,-0.639919792,-0.44786894
4.15,-0.639939195,-0.38370895
4.151,-0.639958348,-0.40341789
4.152,-0.639977252,-0.40104043
4.153,-0.63999591,-0.49269667
4.154,-0.64001432,-0.32291928
4.155,-0.640032486,-0.40003854
4.156,-0.640050408,-0.4890044
4.157,-0.640068086,-0.60205466
4.158,-0.640085523,-0.48960546
4.159,-0.640102718,-0.42551643
4.16,-0.640119675,-0.41809025
4.161,-0.640136392,-0.32920516
4.162,-0.640152873,-0.50190508
4.163,-0.640169117,-0.22797909
4.164,-0.640185126,-0.16572323
4.165,-0.640200902,-0.45742562
4.166,-0.640216445,-0.33789581
4.167,-0.640231757,-0.44539467
4.168,-0.640246838,-0.43999431
4.169,-0.640261691,-0.39611402
4.17,-0.640276316,-0.24708885
4.171,-0.640290715,-0.42295572
4.172,-0.640304888,-0.42811325
4.173,-0.640318838,-0.28428954
4.174,-0.640332566,-0.38134491
4.175,-0.640346072,-0.27000627
4.176,-0.640359358,-0.45787817
4.177,-0.640372426,-0.29116663
4.178,-0.640385277,-0.2504288
4.179,-0.640397911,-0.36522189
4.18,-0.640410332,-0.27889103
4.181,-0.640422539,-0.40629065
4.182,-0.640434534,-0.3137784
4.183,-0.640446319,-0.31325716
4.184,-0.640457895,-0.24072295
4.185,-0.640469264,-0.39010999
4.186,-0.640480427,-0.3467142
4.187,-0.640491385,-0.32200184
4.188,-0.640502139,-0.27687576
4.189,-0.640512692,-0.25691241
4.19,-0.640523045,-0.073089913
4.191,-0.640533199,-0.42470011
4.192,-0.640543156,-0.1338063
4.193,-0.640552916,-0.25603244
4.194,-0.640562483,-0.23332004
4.195,-0.640571857,-0.27949291
4.196,-0.64058104,-0.26593143
4.197,-0.640590033,-0.29191357
4.198,-0.640598837,-0.27955604
4.199,-0.640607456,-0.33617026
4.2,-0.640615889,-0.24905781
4.201,-0.640624139,-0.36361137
4.202,-0.640632207,-0.13460694
4.203,-0.640640096,-0.37535805
4.204,-0.640647805,-0.43863139
4.205,-0.640655338,-0.21756952
4.206,-0.640662695,-0.32094413
4.207,-0.640669879,-0.34120145
4.208,-0.640676891,-0.1457274
4.209,-0.640683733,-0.36914179
4.21,-0.640690406,-0.090370059
4.211,-0.640696912,-0.44389066
4.212,-0.640703253,-0.40208393
4.213,-0.640709431,-0.12383516
4.214,-0.640715446,-0.071813449
4.215,-0.640721302,-0.31173897
4.216,-0.640727,-0.39799023
4.217,-0.640732541,-0.25093529
4.218,-0.640737927,-0.095737539
4.219,-0.640743161,-0.24754097
4.22,-0.640748243,-0.18189213
4.221,-0.640753176,-0.15386657
4.222,-0.640757962,-0.3481763
4.223,-0.640762601,-0.2516765
4.224,-0.640767097,-0.3138833
4.225,-0.640771451,-0.21537001
4.226,-0.640775665,-0.25304428
4.227,-0.64077974,-0.088102818
4.228,-0.640783679,-0.22999193
4.229,-0.640787483,-0.24000877
4.23,-0.640791154,-0.2835623
4.231,-0.640794695,-0.25120097
4.232,-0.640798107,-0.33779046
4.233,-0.640801391,-0.20954801
4.234,-0.640804551,-0.2438354
4.235,-0.640807588,-0.29763976
4.236,-0.640810503,-0.024163675
4.237,-0.6408133,-0.12057645
4.238,-0.640815979,-0.16305961
4.239,-0.640818543,-0.22228929
4.24,-0.640820993,-0.30886367
4.241,-0.640823333,-0.16569205
4.242,-0.640825563,-0.28233814
4.243,-0.640827685,-0.010799811
4.244,-0.640829703,-0.24998046
4.245,-0.640831617,-0.2171938
4.246,-0.640833431,-0.17808349
4.247,-0.640835145,-0.001542336
4.248,-0.640836762,-0.027578002
4.249,-0.640838284,-0.14932615
4.25,-0.640839714,-0.19147627
4.251,-0.640841052,-0.031769656
4.252,-0.640842302,-0.30296513
4.253,-0.640843465,-0.03487527
4.254,-0.640844544,-0.076062918
4.255,-0.64084554,-0.1108337
4.256,-0.640846457,-0.18507141
4.257,-0.640847295,-0.38481325
4.258,-0.640848057,-0.036684476
4.259,-0.640848745,-0.34313858
4.26,-0.640849362,-0.22046529
4.261,-0.64084991,-0.12329572
4.262,-0.64085039,0.037053283
4.263,-0.640850805,-0.22930732
4.264,-0.640851158,-0.14591517
4.265,-0.64085145,-0.19862589
4.266,-0.640851683,-0.18804346
4.267,-0.64085186,-0.28212893
4.268,-0.640851984,-0.09618675
4.269,-0.640852055,-0.21924348
4.27,-0.640852077,-0.11258554
4.271,-0.640852052,-0.13840908
4.272,-0.640851983,-0.310637
4.273,-0.64085187,-0.1501987
4.274,-0.640851717,-0.085348755
4.275,-0.640851526,-0.17814453
4.276,-0.6408513,-0.19140574
4.277,-0.640851039,-0.14154816
4.278,-0.640850748,-0.041809868
4.279,-0.640850428,-0.15459433
4.28,-0.640850081,-0.132902
4.281,-0.640849711,0.012022489
4.282,-0.640849318,-0.22357558
4.283,-0.640848906,-0.15488692
4.284,-0.640848477,-0.14856902
4.285,-0.640848033,-0.19224413
4.286,-0.640847577,-0.24077351
4.287,-0.640847111,-0.17171387
4.288,-0.640846637,-0.15554647
4.289,-0.640846158,0.047451619
4.29,-0.640845676,-0.1271379
4.291,-0.640845194,0.011040658
4.292,-0.640844714,-0.037949897
4.293,-0.640844238,-0.13502075
4.294,-0.640843769,-0.096589521
4.295,-0.640843309,-0.020515271
4.296,-0.640842861,-0.1546239
4.297,-0.640842428,-0.11826375
4.298,-0.64084201,-0.11068954
4.299,-0.640841612,-0.18805833
4.3,-0.640841236,0.012237443
4.301,-0.640840883,-0.060622867
4.302,-0.640840557,-0.11085207
4.303,-0.64084026,-0.11830499
4.304,-0.640839995,-0.13960524
4.305,-0.640839763,-0.11311182
4.306,-0.640839568,-0.054841656
4.307,-0.640839412,-0.15687123
4.308,-0.640839297,-0.06715405
4.309,-0.640839226,-0.17501336
4.31,-0.640839202,-0.27121702
4.311,-0.640839226,-0.1869061
4.312,-0.640839302,-0.094334222
4.313,-0.640839433,-0.18211402
4.314,-0.64083962,-0.1288842
4.315,-0.640839866,0.15966739
4.316,-0.640840173,0.014528897
4.317,-0.640840545,0.019595183
4.318,-0.640840984,-0.11577097
4.319,-0.640841492,-0.12832458
4.32,-0.640842072,-0.07095471
4.321,-0.640842726,-0.039370719
4.322,-0.640843458,-0.22982341
4.323,-0.640844269,-0.026993802
4.324,-0.640845163,0.13814455
4.325,-0.640846141,-0.055954546
4.326,-0.640847206,-0.066711456
4.327,-0.640848362,0.097213991
4.328,-0.64084961,-0.042280603
4.329,-0.640850954,0.005269721
4.33,-0.640852395,-0.046671748
4.331,-0.640853936,0.041292049
4.332,-0.640855581,-0.22600453
4.333,-0.640857331,-0.13868152
4.334,-0.640859189,-0.034681451
4.335,-0.640861159,-0.073977292
4.336,-0.640863241,-0.001040062
4.337,-0.64086544,0.080509871
4.338,-0.640867757,0.12020543
4.339,-0.640870196,0.040913805
4.34,-0.640872759,0.071492501
4.341,-0.640875448,-0.16516279
4.342,-0.640878267,-0.068301402
4.343,-0.640881217,-0.014982325
4.344,-0.640884302,0.008261435
4.345,-0.640887524,-0.11190306
4.346,-0.640890886,0.1746361
4.347,-0.64089439,-0.087830901
4.348,-0.640898039,-0.18599999
4.349,-0.640901836,0.033776946
4.35,-0.640905783,0.049340688
4.351,-0.640909883,-0.19279036
4.352,-0.640914139,-0.10792053
4.353,-0.640918553,0.040823836
4.354,-0.640923129,0.11812776
4.355,-0.640927867,0.054055776
4.356,-0.640932772,-0.16276449
4.357,-0.640937846,-0.10864671
4.358,-0.640943091,0.19542512
4.359,-0.64094851,-0.05811964
4.36,-0.640954107,0.000850766
4.361,-0.640959882,-0.17106974
4.362,-0.64096584,0.057685338
4.363,-0.640971983,-0.055728186
4.364,-0.640978313,0.097491823
4.365,-0.640984833,0.054761801
4.366,-0.640991546,-0.14206561
4.367,-0.640998454,0.068678372
4.368,-0.64100556,0.084112957
4.369,-0.641012867,0.073441625
4.37,-0.641020377,-0.012032689
4.371,-0.641028092,0.083315961
4.372,-0.641036017,0.15289359
4.373,-0.641044153,0.076152004
4.374,-0.641052502,-0.15854222
4.375,-0.641061068,0.12814727
4.376,-0.641069853,-0.016943736
4.377,-0.64107886,0.049997769
4.378,-0.641088091,-0.060824104
4.379,-0.641097549,-0.19226849
4.38,-0.641107236,0.092794761
4.381,-0.641117156,0.1101324
4.382,-0.641127311,0.17563875
4.383,-0.641137703,-0.074402519
4.384,-0.641148335,0.089264534
4.385,-0.641159209,0.026791928
4.386,-0.641170329,0.10325919
4.387,-0.641181697,-0.077483527
4.388,-0.641193315,-0.16274507
4.389,-0.641205186,-0.075102426
4.39,-0.641217313,-0.016112601
4.391,-0.641229698,-0.024427364
4.392,-0.641242343,-0.063717633
4.393,-0.641255252,0.073408544
4.394,-0.641268427,0.094624676
4.395,-0.64128187,0.13958195
4.396,-0.641295585,0.050320804
4.397,-0.641309572,0.009123039
4.398,-0.641323836,0.018763816
4.399,-0.641338379,0.02492298
4.4,-0.641353203,0.019961542
4.401,-0.64136831,0.11350545
4.402,-0.641383704,0.091463841
4.403,-0.641399386,-0.047080342
4.404,-0.64141536,0.039909996
4.405,-0.641431627,0.078810029
4.406,-0.641448191,-0.13404074
4.407,-0.641465053,0.1366592
4.408,-0.641482217,0.018880768
4.409,-0.641499684,0.10286488
4.41,-0.641517457,0.093235008
4.411,-0.641535539,-0.076934934
4.412,-0.641553933,0.10066438
4.413,-0.641572639,0.14425345
4.414,-0.641591662,-0.000157243
4.415,-0.641611003,0.12753384
4.416,-0.641630665,0.064826585
4.417,-0.64165065,0.10037831
4.418,-0.641670961,-0.11611187
4.419,-0.6416916,0.14983879
4.42,-0.641712569,-0.01022292
4.421,-0.641733871,0.14978088
4.422,-0.641755508,-0.039579827
4.423,-0.641777483,0.040675569
4.424,-0.641799798,0.073349297
4.425,-0.641822454,0.041301381
4.426,-0.641845456,0.064043023
4.427,-0.641868804,-0.04541884
4.428,-0.641892502,0.12710485
4.429,-0.641916551,0.15881552
4.43,-0.641940953,0.071482383
4.431,-0.641965712,0.069956116
4.432,-0.641990829,0.12536851
4.433,-0.642016307,0.054496374
4.434,-0.642042147,0.17386532
4.435,-0.642068353,-0.01689609
4.436,-0.642094926,0.15115532
4.437,-0.642121868,0.094905667
4.438,-0.642149182,0.02013132
4.439,-0.64217687,0.20750852
4.44,-0.642204934,0.10177124
4.441,-0.642233376,0.11250263
4.442,-0.642262199,0.10807527
4.443,-0.642291404,-0.06053514
4.444,-0.642320994,0.14730418
4.445,-0.64235097,0.14561325
4.446,-0.642381335,0.11007722
4.447,-0.642412091,0.068752587
4.448,-0.642443241,0.1619924
4.449,-0.642474785,0.12118487
4.45,-0.642506726,0.11993381
4.451,-0.642539066,0.23806083
4.452,-0.642571808,0.017212596
4.453,-0.642604952,-0.07572937
4.454,-0.642638502,0.050730068
4.455,-0.642672458,0.13567263
4.456,-0.642706824,0.11900416
4.457,-0.642741601,-0.017607924
4.458,-0.64277679,0.10516927
4.459,-0.642812394,0.11899377
4.46,-0.642848415,0.067092687
4.461,-0.642884854,-0.036758654
4.462,-0.642921714,0.20083286
4.463,-0.642958996,0.069935821
4.464,-0.642996702,0.24510895
4.465,-0.643034834,-0.036682405
4.466,-0.643073393,0.32745773
4.467,-0.643112382,0.099882402
4.468,-0.643151802,0.14771456
4.469,-0.643191655,0.081028379
4.47,-0.643231942,-0.033389464
4.471,-0.643272666,-0.068764433
4.472,-0.643313827,0.13693871
4.473,-0.643355429,0.25690702
4.474,-0.643397471,0.15222953
4.475,-0.643439957,0.018029204
4.476,-0.643482887,0.062752441
4.477,-0.643526263,0.002943096
4.478,-0.643570087,0.023327902
4.479,-0.643614359,0.16027077
4.48,-0.643659083,0.017858434
4.481,-0.643704259,0.079063885
4.482,-0.643749888,0.11995501
4.483,-0.643795973,-0.002370525
4.484,-0.643842514,0.19585843
4.485,-0.643889514,0.10196202
4.486,-0.643936972,0.2182208
4.487,-0.643984892,0.19885784
4.488,-0.644033274,0.01241287
4.489,-0.644082119,0.10729185
4.49,-0.644131429,0.031983085
4.491,-0.644181205,0.079317771
4.492,-0.644231448,0.14679596
4.493,-0.64428216,0.13098113
4.494,-0.644333342,0.14555737
4.495,-0.644384995,0.12999626
4.496,-0.64443712,0.25176895
4.497,-0.644489719,0.30377883
4.498,-0.644542792,0.10498799
4.499,-0.64459634,-0.086287946
4.5,-0.644650366,0.046483971
4.501,-0.644704869,0.16999656
4.502,-0.64475985,-0.055970907
4.503,-0.644815312,0.11542544
4.504,-0.644871254,0.013384948
4.505,-0.644927678,0.18724875
4.506,-0.644984584,0.012456088
4.507,-0.645041974,-0.035671953
4.508,-0.645099849,0.087231934
4.509,-0.645158208,0.12292909
4.51,-0.645217054,-0.072067663
4.511,-0.645276387,0.060394894
4.512,-0.645336207,-0.028401231
4.513,-0.645396516,0.10318487
4.514,-0.645457314,0.12741998
4.515,-0.645518601,0.044066802
4.516,-0.64558038,0.2174546
4.517,-0.645642649,0.045159485
4.518,-0.64570541,0.10765847
4.519,-0.645768663,-0.10860372
4.52,-0.645832409,0.095669791
4.521,-0.645896649,0.013193055
4.522,-0.645961382,0.10094247
4.523,-0.64602661,0.054623891
4.524,-0.646092332,0.14323451
4.525,-0.64615855,-0.049532313
4.526,-0.646225263,0.038039174
4.527,-0.646292472,-0.01518921
4.528,-0.646360177,-0.059094585
4.529,-0.646428379,0.051327914
4.53,-0.646497077,0.06583263
4.531,-0.646566273,-0.029720094
4.532,-0.646635966,0.054812409
4.533,-0.646706155,0.073456161
4.534,-0.646776843,0.10239364
4.535,-0.646848028,0.018336153
4.536,-0.64691971,0.084352396
4.537,-0.646991891,0.016597038
4.538,-0.647064568,0.08433906
4.539,-0.647137744,0.043150164
4.54,-0.647211417,0.003567211
4.541,-0.647285587,-0.001628108
4.542,-0.647360255,-0.049330369
4.543,-0.64743542,0.13206756
4.544,-0.647511082,0.026277412
4.545,-0.647587241,0.16003999
4.546,-0.647663896,-0.074544616
4.547,-0.647741047,0.090487473
4.548,-0.647818694,0.087576926
4.549,-0.647896837,-0.029122617
4.55,-0.647975474,-0.056893621
4.551,-0.648054607,-0.021734426
4.552,-0.648134233,0.19954839
4.553,-0.648214353,0.05796707
4.554,-0.648294966,-0.003861482
4.555,-0.648376072,-0.087524273
4.556,-0.648457669,0.076669373
4.557,-0.648539758,-0.16565308
4.558,-0.648622337,-0.012465049
4.559,-0.648705406,0.038526274
4.56,-0.648788964,-0.071497589
4.561,-0.648873011,0.05070626
4.562,-0.648957545,0.10824466
4.563,-0.649042565,-0.15961792
4.564,-0.649128071,-0.012678644
4.565,-0.649214061,0.034387112
4.566,-0.649300535,-0.009435003
4.567,-0.649387492,-0.06688606
4.568,-0.64947493,-0.036653124
4.569,-0.649562849,-0.20015374
4.57,-0.649651247,-0.062703602
4.571,-0.649740123,-0.18004084
4.572,-0.649829475,-0.035101816
4.573,-0.649919304,-0.056940474
4.574,-0.650009607,-0.093979314
4.575,-0.650100382,-0.16298661
4.576,-0.650191629,-0.055434983
4.577,-0.650283347,-0.13876142
4.578,-0.650375533,-0.041834023
4.579,-0.650468186,-0.16609107
4.58,-0.650561304,-0.18484795
4.581,-0.650654887,0.068664774
4.582,-0.650748931,-0.027628263
4.583,-0.650843437,-0.19156906
4.584,-0.650938401,-0.19622475
4.585,-0.651033823,-0.069549181
4.586,-0.651129699,0.015445499
4.587,-0.65122603,-0.037091039
4.588,-0.651322811,0.10373943
4.589,-0.651420043,-0.088885911
4.59,-0.651517722,-0.19685997
4.591,-0.651615847,-0.097994886
4.592,-0.651714415,0.005286022
4.593,-0.651813425,-0.070268579
4.594,-0.651912874,-0.059590153
4.595,-0.65201276,-0.043427411
4.596,-0.652113081,-0.1440628
4.597,-0.652213834,-0.14420719
4.598,-0.652315018,-0.080736622
4.599,-0.652416629,-0.07975769
4.6,-0.652518666,0.036427341
4.601,-0.652621126,-0.24111526
4.602,-0.652724006,-0.14583802
4.603,-0.652827304,-0.24389446
4.604,-0.652931017,-0.11449766
4.605,-0.653035142,-0.064262919
4.606,-0.653139678,-0.071044266
4.607,-0.65324462,-0.1495357
4.608,-0.653349966,-0.063143015
4.609,-0.653455714,-0.072596326
4.61,-0.653561861,-0.1507557
4.611,-0.653668403,-0.041737653
4.612,-0.653775337,-0.066964246
4.613,-0.653882662,-0.15048929
4.614,-0.653990372,-0.13946208
4.615,-0.654098466,-0.11424964
4.616,-0.654206939,-0.080280267
4.617,-0.65431579,-0.09751045
4.618,-0.654425014,-0.16374525
4.619,-0.654534608,-0.16246358
4.62,-0.654644569,-0.070763081
4.621,-0.654754894,-0.15349992
4.622,-0.654865578,-0.12601699
4.623,-0.654976619,-0.28931704
4.624,-0.655088012,-0.32047376
4.625,-0.655199755,-0.15923038
4.626,-0.655311843,-0.22637096
4.627,-0.655424272,-0.12992699
4.628,-0.65553704,-0.10758427
4.629,-0.655650141,-0.24329521
4.63,-0.655763573,-0.18678997
4.631,-0.655877331,0.030780362
4.632,-0.655991411,-0.041981649
4.633,-0.656105809,-0.079520702
4.634,-0.656220521,-0.24011172
4.635,-0.656335543,-0.24030961
4.636,-0.65645087,-0.24512516
4.637,-0.656566499,-0.10362182
4.638,-0.656682425,-0.070658721
4.639,-0.656798644,-0.18346409
4.64,-0.656915151,-0.21218681
4.641,-0.657031942,-0.23596884
4.642,-0.657149012,-0.12231842
4.643,-0.657266356,-0.1558806
4.644,-0.657383971,-0.26195434
4.645,-0.657501851,-0.22938718
4.646,-0.657619992,-0.08716251
4.647,-0.657738388,-0.25068393
4.648,-0.657857035,-0.17519006
4.649,-0.657975928,-0.091158926
4.65,-0.658095062,-0.18604854
4.651,-0.658214433,-0.085100286
4.652,-0.658334034,-0.07784608
4.653,-0.658453861,-0.18720442
4.654,-0.658573908,-0.025516149
4.655,-0.658694171,-0.31162
4.656,-0.658814644,-0.21960935
4.657,-0.658935321,-0.27581018
4.658,-0.659056198,-0.13503619
4.659,-0.659177269,-0.27628893
4.66,-0.659298528,-0.26431617
4.661,-0.659419969,-0.27976057
4.662,-0.659541587,-0.21911539
4.663,-0.659663377,-0.33003557
4.664,-0.659785332,-0.1985065
4.665,-0.659907447,-0.111522
4.666,-0.660029716,-0.26775917
4.667,-0.660152133,-0.26958612
4.668,-0.660274691,-0.26217961
4.669,-0.660397386,-0.25478214
4.67,-0.66052021,-0.20290753
4.671,-0.660643158,-0.11386104
4.672,-0.660766223,-0.22184031
4.673,-0.660889399,-0.23319615
4.674,-0.66101268,-0.18186057
4.675,-0.661136059,-0.20647575
4.676,-0.66125953,-0.28663141
4.677,-0.661383087,-0.16768725
4.678,-0.661506722,-0.2052424
4.679,-0.661630429,-0.367475
4.68,-0.661754202,-0.16155486
4.681,-0.661878033,-0.17717701
4.682,-0.662001916,-0.31705984
4.683,-0.662125844,-0.25480619
4.684,-0.66224981,-0.10962953
4.685,-0.662373807,-0.37408984
4.686,-0.662497828,-0.19117209
4.687,-0.662621865,-0.23375045
4.688,-0.662745912,-0.24266085
4.689,-0.662869962,-0.24407575
4.69,-0.662994006,-0.30946878
4.691,-0.663118038,-0.16014834
4.692,-0.663242051,-0.16223767
4.693,-0.663366036,-0.38179046
4.694,-0.663489986,-0.3485164
4.695,-0.663613894,-0.26213011
4.696,-0.663737752,-0.21592161
4.697,-0.663861551,-0.29973018
4.698,-0.663985285,-0.21284743
4.699,-0.664108946,-0.15720898
4.7,-0.664232525,-0.21444228
4.701,-0.664356015,-0.26627505
4.702,-0.664479407,-0.23247451
4.703,-0.664602693,-0.012076139
4.704,-0.664725866,-0.37326631
4.705,-0.664848917,-0.13397013
4.706,-0.664971837,-0.32315093
4.707,-0.665094618,-0.13723166
4.708,-0.665217253,-0.24161643
4.709,-0.665339731,-0.27283213
4.71,-0.665462046,-0.1401547
4.711,-0.665584187,-0.10841981
4.712,-0.665706147,-0.29256332
4.713,-0.665827917,-0.37372878
4.714,-0.665949488,-0.46292356
4.715,-0.66607085,-0.36807954
4.716,-0.666191996,-0.28345919
4.717,-0.666312916,-0.20355389
4.718,-0.666433601,-0.27152047
4.719,-0.666554041,-0.15667342
4.72,-0.666674229,-0.25382695
4.721,-0.666794154,-0.17034119
4.722,-0.666913806,-0.19107643
4.723,-0.667033178,-0.39514798
4.724,-0.667152259,-0.14049785
4.725,-0.667271039,-0.3493925
4.726,-0.66738951,-0.30304995
4.727,-0.667507661,-0.14107899
4.728,-0.667625482,-0.28246781
4.729,-0.667742965,-0.44844958
4.73,-0.667860099,-0.24023654
4.731,-0.667976874,-0.3344467
4.732,-0.66809328,-0.28082964
4.733,-0.668209308,-0.26201347
4.734,-0.668324946,-0.32888097
4.735,-0.668440186,-0.238176
4.736,-0.668555016,-0.14603555
4.737,-0.668669426,-0.32837743
4.738,-0.668783407,-0.19729921
4.739,-0.668896947,-0.10510235
4.74,-0.669010036,-0.27195376
4.741,-0.669122663,-0.24417353
4.742,-0.669234819,-0.36867613
4.743,-0.669346491,-0.14660761
4.744,-0.66945767,-0.076393671
4.745,-0.669568345,-0.33981293
4.746,-0.669678504,-0.0869748
4.747,-0.669788137,-0.41614053
4.748,-0.669897232,-0.21113014
4.749,-0.670005779,-0.20509778
4.75,-0.670113767,-0.18790039
4.751,-0.670221184,-0.41946304
4.752,-0.670328018,-0.25667718
4.753,-0.670434259,-0.31092706
4.754,-0.670539896,-0.27222949
4.755,-0.670644916,-0.34457794
4.756,-0.670749308,-0.31785616
4.757,-0.67085306,-0.43250614
4.758,-0.670956161,-0.21901618
4.759,-0.671058599,-0.14895512
4.76,-0.671160363,-0.32937911
4.761,-0.671261439,-0.22381228
4.762,-0.671361817,-0.44916701
4.763,-0.671461485,-0.34663716
4.764,-0.671560429,-0.27944684
4.765,-0.671658639,-0.34024236
4.766,-0.671756101,-0.40236875
4.767,-0.671852804,-0.29316732
4.768,-0.671948735,-0.36587906
4.769,-0.672043882,-0.49813226
4.77,-0.672138233,-0.18200371
4.771,-0.672231774,-0.47484735
4.772,-0.672324493,-0.28222775
4.773,-0.672416378,-0.35784051
4.774,-0.672507415,-0.25243831
4.775,-0.672597592,-0.42933583
4.776,-0.672686896,-0.23269804
4.777,-0.672775315,-0.21072169
4.778,-0.672862834,-0.35808283
4.779,-0.672949441,-0.061181575
4.78,-0.673035123,-0.27445653
4.781,-0.673119867,-0.34771669
4.782,-0.673203659,-0.29673377
4.783,-0.673286486,-0.21847047
4.784,-0.673368334,-0.26867276
4.785,-0.673449191,-0.24699506
4.786,-0.673529042,-0.46697545
4.787,-0.673607873,-0.24151322
4.788,-0.673685673,-0.24970831
4.789,-0.673762425,-0.22429615
4.79,-0.673838117,-0.40575129
4.791,-0.673912735,-0.14593916
4.792,-0.673986265,-0.30628738
4.793,-0.674058693,-0.31275472
4.794,-0.674130005,-0.36809275
4.795,-0.674200186,-0.26029196
4.796,-0.674269222,-0.23164077
4.797,-0.6743371,-0.17611764
4.798,-0.674403805,-0.29844975
4.799,-0.674469322,-0.3186197
4.8,-0.674533637,-0.28602529
4.801,-0.674596735,-0.20002182
4.802,-0.674658602,-0.29954743
4.803,-0.674719224,-0.179258
4.804,-0.674778584,-0.33624822
4.805,-0.67483667,-0.24567543
4.806,-0.674893465,-0.30803019
4.807,-0.674948955,-0.16946195
4.808,-0.675003125,-0.14684959
4.809,-0.67505596,-0.25944069
4.81,-0.675107444,-0.15605724
4.811,-0.675157563,-0.24503182
4.812,-0.675206302,-0.1771125
4.813,-0.675253644,-0.26539499
4.814,-0.675299575,-0.22969161
4.815,-0.675344079,-0.22758709
4.816,-0.67538714,-0.11559159
4.817,-0.675428744,-0.19988178
4.818,-0.675468874,-0.40739477
4.819,-0.675507515,-0.23073284
4.82,-0.675544651,-0.24448815
4.821,-0.675580266,-0.25052288
4.822,-0.675614345,-0.17456844
4.823,-0.67564687,-0.24452104
4.824,-0.675677827,-0.18917225
4.825,-0.675707199,-0.22944391
4.826,-0.675734971,-0.34652182
4.827,-0.675761125,-0.17648825
4.828,-0.675785645,-0.25274304
4.829,-0.675808516,-0.33532652
4.83,-0.675829721,-0.14422441
4.831,-0.675849244,-0.20409465
4.832,-0.675867067,-0.21319669
4.833,-0.675883175,-0.36099726
4.834,-0.67589755,-0.35578844
4.835,-0.675910176,-0.34866735
4.836,-0.675921037,-0.20057851
4.837,-0.675930114,-0.35994604
4.838,-0.675937393,-0.28918085
4.839,-0.675942855,-0.24425338
4.84,-0.675946483,-0.27995145
4.841,-0.675948261,-0.22773916
4.842,-0.675948171,-0.093674876
4.843,-0.675946196,-0.31649685
4.844,-0.675942319,-0.22920021
4.845,-0.675936523,-0.19881748
4.846,-0.67592879,-0.335749
4.847,-0.675919102,-0.21897423
4.848,-0.675907442,-0.28837156
4.849,-0.675893794,-0.30753574
4.85,-0.675878138,-0.23532368
4.851,-0.675860457,-0.36998221
4.852,-0.675840734,-0.4053117
4.853,-0.675818951,-0.20201498
4.854,-0.67579509,-0.34946311
4.855,-0.675769133,-0.22272824
4.856,-0.675741061,-0.33177972
4.857,-0.675710858,-0.283582
4.858,-0.675678504,-0.31071216
4.859,-0.675643982,-0.13210374
4.86,-0.675607274,-0.27624473
4.861,-0.675568361,-0.39515421
4.862,-0.675527224,-0.21322469
4.863,-0.675483846,-0.25722909
4.864,-0.675438209,-0.27385828
4.865,-0.675390292,-0.23490475
4.866,-0.675340079,-0.21791913
4.867,-0.675287549,-0.28057474
4.868,-0.675232686,-0.20780022
4.869,-0.675175469,-0.25575587
4.87,-0.675115881,-0.06523829
4.871,-0.675053901,-0.093676038
4.872,-0.674989512,-0.23872513
4.873,-0.674922695,-0.28558126
4.874,-0.674853429,-0.29211411
4.875,-0.674781697,-0.32156545
4.876,-0.674707479,-0.26760271
4.877,-0.674630756,-0.28505602
4.878,-0.674551509,-0.22785664
4.879,-0.674469718,-0.29390994
4.88,-0.674385364,-0.29368731
4.881,-0.674298428,-0.27861571
4.882,-0.67420889,-0.12182563
4.883,-0.67411673,-0.13251662
4.884,-0.67402193,-0.15371487
4.885,-0.673924469,-0.37370741
4.886,-0.673824328,-0.21864724
4.887,-0.673721487,-0.29512009
4.888,-0.673615926,-0.31510407
4.889,-0.673507625,-0.21532059
4.89,-0.673396565,-0.33035463
4.891,-0.673282726,-0.25752816
4.892,-0.673166087,-0.25566891
4.893,-0.673046628,-0.15231343
4.894,-0.67292433,-0.3277567
4.895,-0.672799173,-0.30420253
4.896,-0.672671135,-0.18758789
4.897,-0.672540197,-0.30672762
4.898,-0.672406338,-0.12501679
4.899,-0.672269539,-0.17677473
4.9,-0.672129778,-0.16818246
4.901,-0.671987036,-0.1539064
4.902,-0.671841291,-0.30685908
4.903,-0.671692524,-0.3765786
4.904,-0.671540713,-0.31930882
4.905,-0.671385838,-0.24665454
4.906,-0.671227878,-0.23911986
4.907,-0.671066813,-0.25528196
4.908,-0.670902621,-0.21618772
4.909,-0.670735282,-0.2571643
4.91,-0.670564774,-0.34178951
4.911,-0.670391078,-0.33490828
4.912,-0.670214172,-0.35252643
4.913,-0.670034034,-0.19192575
4.914,-0.669850644,-0.21927272
4.915,-0.669663981,-0.22987394
4.916,-0.669474023,-0.16183351
4.917,-0.669280749,-0.2017539
4.918,-0.669084138,-0.36065584
4.919,-0.668884169,-0.28135973
4.92,-0.66868082,-0.26111916
4.921,-0.66847407,-0.26717848
4.922,-0.668263897,-0.22153953
4.923,-0.668050279,-0.2051131
4.924,-0.667833196,-0.20903951
4.925,-0.667612626,-0.099677451
4.926,-0.667388547,-0.17635868
4.927,-0.667160936,-0.31648883
4.928,-0.666929774,-0.38834175
4.929,-0.666695037,-0.18269074
4.93,-0.666456704,-0.090701275
4.931,-0.666214753,-0.35198519
4.932,-0.665969162,-0.17375404
4.933,-0.66571991,-0.27911079
4.934,-0.665466974,-0.23634727
4.935,-0.665210332,-0.21574759
4.936,-0.664949962,-0.26585379
4.937,-0.664685842,-0.24810947
4.938,-0.66441795,-0.19387238
4.939,-0.664146264,-0.22563167
4.94,-0.663870761,-0.27608782
4.941,-0.663591419,-0.29046753
4.942,-0.663308216,-0.15350041
4.943,-0.663021129,-0.31072256
4.944,-0.662730137,-0.21838343
4.945,-0.662435216,-0.30177245
4.946,-0.662136344,-0.27614492
4.947,-0.661833499,-0.32596904
4.948,-0.661526658,-0.13798356
4.949,-0.661215798,-0.32584295
4.95,-0.660900898,-0.21779168
4.951,-0.660581933,-0.05755493
4.952,-0.660258882,-0.14898205
4.953,-0.659931721,-0.17033057
4.954,-0.659600429,0.008250982
4.955,-0.659264982,-0.22970171
4.956,-0.658925357,-0.23355682
4.957,-0.658581531,-0.10792489
4.958,-0.658233482,-0.23159793
4.959,-0.657881186,-0.26227927
4.96,-0.657524621,-0.34486142
4.961,-0.657163764,-0.33469263
4.962,-0.65679859,-0.40754893
4.963,-0.656429079,-0.17536044
4.964,-0.656055205,-0.2265204
4.965,-0.655676947,-0.14473042
4.966,-0.65529428,-0.23836298
4.967,-0.654907182,-0.25064239
4.968,-0.654515629,-0.29789376
4.969,-0.654119599,-0.15121174
4.97,-0.653719067,-0.27048978
4.971,-0.65331401,-0.2474854
4.972,-0.652904406,-0.34905961
4.973,-0.65249023,-0.12214897
4.974,-0.652071459,-0.2680454
4.975,-0.65164807,-0.13581173
4.976,-0.651220039,-0.19882043
4.977,-0.650787343,-0.31467375
4.978,-0.650349958,-0.10237551
4.979,-0.64990786,-0.11172047
4.98,-0.649461026,-0.017557038
4.981,-0.649009432,-0.089615665
4.982,-0.648553055,-0.17089859
4.983,-0.648091871,-0.10957915
4.984,-0.647625855,-0.25609535
4.985,-0.647154985,-0.2990368
4.986,-0.646679236,-0.32687017
4.987,-0.646198585,-0.23135401
4.988,-0.645713008,-0.26068217
4.989,-0.64522248,-0.2186542
4.99,-0.644726979,-0.10168548
4.991,-0.64422648,-0.1579425
4.992,-0.643720959,-0.23871112
4.993,-0.643210392,-0.1172172
4.994,-0.642694755,-0.063764133
4.995,-0.642174025,-0.045266312
4.996,-0.641648177,-0.24290706
4.997,-0.641117186,-0.29619277
4.998,-0.64058103,-0.27944422
4.999,-0.640039683,-0.28298524
5,-0.639493123,-0.051030438
