!CSV A.01.01
!Agilent Technologies,E8362C,MY49020225,A.09.42.22
!Agilent E8362C: A.09.42.22
!Date: Friday, March 04, 2016 14:48:31
!Source: Standard

BEGIN CH1_DATA
Freq(Hz),S11 Phase(°),S21 Phase(°)
1000000000,47.909325,175.83127
1001000000,47.013855,175.84875
1002000000,45.883224,175.67482
1003000000,44.602608,175.47598
1004000000,43.367001,175.20287
1005000000,42.337448,175.03946
1006000000,40.475269,174.84032
1007000000,39.827877,174.7635
1008000000,37.445114,174.6431
1009000000,37.169861,174.34367
1010000000,36.029533,174.22472
1011000000,34.778381,173.84171
1012000000,32.491318,173.67725
1013000000,32.004242,173.48819
1014000000,30.230801,173.20534
1015000000,29.477112,173.0188
1016000000,28.931602,172.87956
1017000000,26.318523,172.6093
1018000000,25.855349,172.31616
1019000000,24.126589,172.25406
1020000000,22.425356,171.95561
1021000000,21.06547,171.83351
1022000000,20.901068,171.83194
1023000000,19.367491,171.61104
1024000000,16.611128,171.17099
1025000000,15.153729,171.01288
1026000000,14.635315,170.98581
1027000000,12.873934,170.52205
1028000000,11.78373,170.39568
1029000000,10.541454,170.29025
1030000000,8.8764048,169.98335
1031000000,7.896924,169.97754
1032000000,6.2062049,169.62759
1033000000,4.7960725,169.35568
1034000000,3.1343863,169.18312
1035000000,1.7349434,169.1497
1036000000,1.3136774,168.92336
1037000000,-0.7486977,168.81633
1038000000,-1.1725252,168.46402
1039000000,-3.3252223,168.19785
1040000000,-4.4911385,168.00533
1041000000,-5.7542992,167.90396
1042000000,-7.1659646,167.71819
1043000000,-8.2070799,167.41469
1044000000,-8.9902382,167.16542
1045000000,-10.659953,167.09933
1046000000,-12.729157,166.98228
1047000000,-13.586902,166.49533
1048000000,-14.490641,166.40755
1049000000,-15.499934,166.26317
1050000000,-16.649866,166.18491
1051000000,-19.420462,165.72499
1052000000,-19.761299,165.63937
1053000000,-20.608721,165.49704
1054000000,-21.900108,165.36536
1055000000,-22.590567,165.18996
1056000000,-24.179705,164.92627
1057000000,-24.890635,164.66315
1058000000,-25.556459,164.27773
1059000000,-26.847204,164.29079
1060000000,-29.219372,164.23161
1061000000,-29.115454,164.09004
1062000000,-29.538858,163.82678
1063000000,-31.179104,163.5378
1064000000,-31.599522,163.17526
1065000000,-32.683136,163.24014
1066000000,-33.792953,162.99574
1067000000,-34.908188,162.74313
1068000000,-34.961689,162.68958
1069000000,-35.487732,162.24289
1070000000,-37.344246,162.06429
1071000000,-36.949081,161.97977
1072000000,-37.995975,161.74042
1073000000,-38.884411,161.3992
1074000000,-40.402634,161.56949
1075000000,-39.724056,161.06522
1076000000,-41.735435,160.87769
1077000000,-41.762394,160.90585
1078000000,-43.379993,160.64401
1079000000,-43.152699,160.15971
1080000000,-43.454399,159.97574
1081000000,-44.280479,159.81927
1082000000,-45.726517,159.60262
1083000000,-46.613914,159.52866
1084000000,-45.831985,159.39207
1085000000,-47.018818,159.07779
1086000000,-48.101719,159.03932
1087000000,-48.405331,158.71754
1088000000,-48.805824,158.42505
1089000000,-49.5732,158.3909
1090000000,-50.034203,158.15488
1091000000,-50.715778,157.95764
1092000000,-51.479099,157.76033
1093000000,-51.980133,157.43674
1094000000,-52.040287,157.30287
1095000000,-53.025307,157.15839
1096000000,-53.742294,157.00513
1097000000,-53.861675,156.67932
1098000000,-54.245808,156.36606
1099000000,-54.361675,156.33315
1100000000,-55.5592,156.03432
1101000000,-55.01302,155.8829
1102000000,-56.117485,155.91481
1103000000,-56.553543,155.41965
1104000000,-57.814499,155.40031
1105000000,-58.448593,155.1925
1106000000,-58.222031,154.94232
1107000000,-57.826603,154.74835
1108000000,-59.160995,154.5583
1109000000,-59.385475,154.43654
1110000000,-60.107975,154.16536
1111000000,-61.366238,153.84032
1112000000,-61.53989,153.7579
1113000000,-61.524063,153.42079
1114000000,-61.689724,153.24225
1115000000,-62.465134,152.95695
1116000000,-63.395939,152.84529
1117000000,-62.830097,152.67487
1118000000,-63.300758,152.75761
1119000000,-63.940147,152.19757
1120000000,-64.024788,152.17493
1121000000,-64.600204,151.83679
1122000000,-64.899559,151.80447
1123000000,-64.906601,151.65855
1124000000,-65.802521,151.41829
1125000000,-66.3479,151.15096
1126000000,-66.532265,150.99028
1127000000,-67.093376,150.8741
1128000000,-67.315971,150.3998
1129000000,-67.446625,150.18813
1130000000,-67.973625,150.09937
1131000000,-67.796326,149.9642
1132000000,-68.630157,149.53668
1133000000,-68.88736,149.509
1134000000,-69.145187,149.29633
1135000000,-68.776093,149.2115
1136000000,-70.403252,148.72701
1137000000,-70.324226,148.44576
1138000000,-69.810188,148.27623
1139000000,-70.624802,148.11597
1140000000,-70.724136,148.1337
1141000000,-71.488304,147.77614
1142000000,-70.48188,147.52913
1143000000,-71.737816,147.31061
1144000000,-71.403084,147.31172
1145000000,-71.7658,146.97141
1146000000,-72.545601,146.68805
1147000000,-72.388939,146.52133
1148000000,-72.878075,146.35832
1149000000,-73.732323,146.18454
1150000000,-73.420807,145.96548
1151000000,-73.668625,145.89621
1152000000,-74.025459,145.72963
1153000000,-73.946838,145.38847
1154000000,-74.420151,145.41977
1155000000,-74.836563,145.03984
1156000000,-74.169853,144.94997
1157000000,-74.687981,144.5417
1158000000,-75.351959,144.46025
1159000000,-75.66584,144.30885
1160000000,-75.968521,144.04495
1161000000,-75.519379,143.81271
1162000000,-76.575714,143.53307
1163000000,-76.555305,143.50726
1164000000,-77.360161,143.21631
1165000000,-77.255974,142.97621
1166000000,-77.398872,142.70692
1167000000,-77.883148,142.52954
1168000000,-78.089279,142.2341
1169000000,-78.518517,142.13728
1170000000,-78.032501,141.96884
1171000000,-78.958527,141.84219
1172000000,-79.376961,141.55946
1173000000,-79.020325,141.48077
1174000000,-79.530617,141.3045
1175000000,-79.740898,141.02725
1176000000,-80.045784,140.8983
1177000000,-80.47821,140.5639
1178000000,-80.323097,140.38589
1179000000,-80.668137,140.12088
1180000000,-80.93972,140.08046
1181000000,-80.906296,139.86708
1182000000,-81.661964,139.59428
1183000000,-80.826569,139.40146
1184000000,-81.522736,139.16614
1185000000,-82.154663,138.83835
1186000000,-81.888306,138.8311
1187000000,-82.378082,138.59016
1188000000,-83.051559,138.34544
1189000000,-82.504944,138.18355
1190000000,-83.080711,137.8849
1191000000,-83.009468,137.74835
1192000000,-83.222389,137.44136
1193000000,-83.684128,137.26297
1194000000,-83.33007,137.02742
1195000000,-83.909798,136.78384
1196000000,-84.766846,136.72185
1197000000,-84.160202,136.57848
1198000000,-84.65004,136.41586
1199000000,-84.750473,135.91249
1200000000,-85.147835,135.88747
1201000000,-85.002243,135.5632
1202000000,-84.399933,135.32707
1203000000,-84.972847,135.3071
1204000000,-85.435905,134.99683
1205000000,-85.903603,134.82616
1206000000,-85.7407,134.68964
1207000000,-86.66922,134.35999
1208000000,-86.382027,134.18745
1209000000,-86.767311,134.10759
1210000000,-86.342133,133.87404
1211000000,-86.978554,133.55841
1212000000,-87.374199,133.58652
1213000000,-87.029633,133.31564
1214000000,-87.665115,133.14493
1215000000,-87.19162,132.93953
1216000000,-87.129074,132.61967
1217000000,-88.112984,132.31944
1218000000,-88.018646,132.07367
1219000000,-88.804115,131.95872
1220000000,-89.113441,131.86328
1221000000,-88.173203,131.69902
1222000000,-89.257195,131.33293
1223000000,-88.967979,131.11525
1224000000,-89.59343,130.74904
1225000000,-89.269699,130.5723
1226000000,-89.611595,130.6046
1227000000,-89.468277,130.38649
1228000000,-89.902031,130.23203
1229000000,-90.022133,129.8076
1230000000,-90.316086,129.78384
1231000000,-90.723564,129.60478
1232000000,-91.401283,129.2652
1233000000,-90.332565,129.20157
1234000000,-91.338539,128.62178
1235000000,-91.353645,128.80145
1236000000,-91.834145,128.47292
1237000000,-90.429878,128.34624
1238000000,-91.571404,127.89092
1239000000,-91.299675,127.835
1240000000,-92.08477,127.62449
1241000000,-92.409248,127.32943
1242000000,-91.807625,127.09314
1243000000,-91.720627,127.19577
1244000000,-92.603363,126.50878
1245000000,-92.811981,126.50861
1246000000,-92.916779,126.34477
1247000000,-92.034409,126.12539
1248000000,-92.840195,125.9649
1249000000,-92.462616,125.80637
1250000000,-92.667664,125.66114
1251000000,-93.610703,125.2279
1252000000,-93.337334,125.2567
1253000000,-92.863838,124.92109
1254000000,-93.51432,124.83529
1255000000,-94.200607,124.6237
1256000000,-93.924347,124.44421
1257000000,-94.397285,124.18119
1258000000,-94.254662,124.05679
1259000000,-94.663437,123.81355
1260000000,-94.827499,123.41708
1261000000,-93.732849,123.19786
1262000000,-94.75927,123.13744
1263000000,-94.743294,122.98839
1264000000,-94.402702,122.60143
1265000000,-95.143471,122.42522
1266000000,-95.227432,122.35347
1267000000,-95.493797,121.87967
1268000000,-95.669327,121.91705
1269000000,-95.076752,121.75201
1270000000,-95.756683,121.29405
1271000000,-95.442078,121.32635
1272000000,-95.179108,120.97121
1273000000,-95.746048,120.75437
1274000000,-96.570007,120.48786
1275000000,-95.261978,120.24094
1276000000,-95.782204,120.0678
1277000000,-96.686256,119.7879
1278000000,-96.049805,119.69402
1279000000,-96.641243,119.37974
1280000000,-96.121132,119.3474
1281000000,-96.038795,119.03709
1282000000,-96.082726,118.91348
1283000000,-96.234474,118.66235
1284000000,-96.264427,118.55724
1285000000,-97.008965,117.98612
1286000000,-95.92292,118.16762
1287000000,-96.653801,117.7045
1288000000,-97.141739,117.54746
1289000000,-97.301117,117.42448
1290000000,-97.133575,117.16129
1291000000,-96.841293,116.8624
1292000000,-96.214455,116.7315
1293000000,-96.708664,116.49892
1294000000,-95.745049,116.27228
1295000000,-97.260773,116.03738
1296000000,-97.068359,115.79472
1297000000,-95.941078,115.52744
1298000000,-96.052818,115.47404
1299000000,-97.110535,115.19466
1300000000,-97.110886,115.0528
1301000000,-95.997284,114.80624
1302000000,-97.243774,114.62742
1303000000,-95.751396,114.44337
1304000000,-97.078804,114.10439
1305000000,-95.844933,113.98786
1306000000,-96.63591,113.71847
1307000000,-96.772964,113.54697
1308000000,-97.02298,113.30351
1309000000,-96.131973,113.04677
1310000000,-96.070747,113.0075
1311000000,-95.483986,112.70455
1312000000,-96.381523,112.56578
1313000000,-96.433167,112.23558
1314000000,-96.454605,112.09704
1315000000,-96.205803,112.05547
1316000000,-96.030769,111.59779
1317000000,-96.705231,111.50033
1318000000,-95.742249,111.22538
1319000000,-96.645309,110.8501
1320000000,-96.64753,110.77242
1321000000,-95.488358,110.48579
1322000000,-95.949165,110.36556
1323000000,-95.858322,110.01975
1324000000,-95.834518,110.01806
1325000000,-95.701157,109.58075
1326000000,-96.147163,109.38679
1327000000,-96.034378,109.39995
1328000000,-96.569717,109.05957
1329000000,-95.46006,108.98098
1330000000,-96.07357,108.65646
1331000000,-95.00927,108.3817
1332000000,-95.755707,108.14642
1333000000,-95.775055,107.78557
1334000000,-95.665642,107.82737
1335000000,-95.208641,107.38568
1336000000,-94.602264,107.3025
1337000000,-95.075874,107.00234
1338000000,-94.696007,107.04367
1339000000,-94.025009,106.7215
1340000000,-94.626434,106.40959
1341000000,-94.635216,106.16793
1342000000,-94.364746,105.9563
1343000000,-94.075096,105.76552
1344000000,-94.736267,105.65602
1345000000,-93.388901,105.48764
1346000000,-93.353874,105.09792
1347000000,-93.281082,105.10954
1348000000,-93.244415,104.81916
1349000000,-93.077744,104.51909
1350000000,-93.442589,104.39787
1351000000,-92.507637,103.93289
1352000000,-92.602089,103.79539
1353000000,-92.246162,103.70071
1354000000,-92.788979,103.33881
1355000000,-92.376831,103.28136
1356000000,-92.477402,102.99457
1357000000,-90.835739,102.72183
1358000000,-91.076698,102.56889
1359000000,-92.25145,102.35925
1360000000,-90.73941,102.19218
1361000000,-91.999207,101.84515
1362000000,-90.160759,101.85844
1363000000,-89.824348,101.54977
1364000000,-90.460274,101.32504
1365000000,-90.067162,101.01147
1366000000,-89.641853,100.87137
1367000000,-90.022743,100.63644
1368000000,-90.076134,100.34002
1369000000,-89.488594,100.0741
1370000000,-89.036339,99.841072
1371000000,-88.943726,99.86869
1372000000,-89.680359,99.39193
1373000000,-88.261742,99.301888
1374000000,-88.188217,99.076347
1375000000,-87.920174,98.874802
1376000000,-87.275887,98.597832
1377000000,-88.121468,98.489288
1378000000,-87.700699,98.311958
1379000000,-87.48455,97.899498
1380000000,-86.878716,97.900848
1381000000,-86.515442,97.539764
1382000000,-87.416878,97.374832
1383000000,-85.515633,97.18013
1384000000,-86.362068,96.876389
1385000000,-85.958595,96.63916
1386000000,-84.744301,96.567307
1387000000,-85.558891,96.078857
1388000000,-84.928848,96.00988
1389000000,-84.267273,95.764
1390000000,-84.100792,95.540527
1391000000,-84.495377,95.214577
1392000000,-83.366707,95.064018
1393000000,-82.845909,94.690994
1394000000,-83.818054,94.663284
1395000000,-83.228348,94.437462
1396000000,-81.825363,94.19574
1397000000,-81.977272,93.934113
1398000000,-80.192398,93.789246
1399000000,-82.246704,93.458481
1400000000,-81.864677,93.218964
1401000000,-80.936241,93.144653
1402000000,-81.362198,92.842178
1403000000,-80.283508,92.665817
1404000000,-80.443382,92.444473
1405000000,-79.312309,92.344421
1406000000,-79.53212,92.06028
1407000000,-78.820587,91.659409
1408000000,-79.268578,91.626808
1409000000,-79.138512,91.095764
1410000000,-78.145538,91.171684
1411000000,-76.553802,90.795662
1412000000,-77.6745,90.516945
1413000000,-77.561424,90.270164
1414000000,-76.853012,90.103287
1415000000,-76.517159,89.961678
1416000000,-76.443901,89.681038
1417000000,-75.793976,89.503548
1418000000,-75.214844,89.397217
1419000000,-74.708786,89.146591
1420000000,-74.106544,88.815277
1421000000,-73.853836,88.608711
1422000000,-73.604561,88.513725
1423000000,-72.916061,88.11322
1424000000,-72.183235,88.127403
1425000000,-72.246185,87.801918
1426000000,-73.408554,87.397179
1427000000,-71.527832,87.483597
1428000000,-71.109962,86.952553
1429000000,-70.787025,86.908249
1430000000,-70.579208,86.502914
1431000000,-70.566216,86.360725
1432000000,-70.070297,86.217453
1433000000,-70.353966,85.928284
1434000000,-69.024345,85.581398
1435000000,-69.815804,85.49099
1436000000,-69.487083,85.110329
1437000000,-68.068237,84.970894
1438000000,-66.912041,84.75248
1439000000,-68.262833,84.566696
1440000000,-66.960121,84.359451
1441000000,-66.807732,84.016251
1442000000,-67.090698,83.833473
1443000000,-66.007416,83.671509
1444000000,-65.917152,83.420761
1445000000,-66.055672,83.246574
1446000000,-65.404144,82.966286
1447000000,-65.091042,82.584526
1448000000,-65.300797,82.635887
1449000000,-64.562912,82.247658
1450000000,-64.690071,82.1353
1451000000,-64.321655,81.900818
1452000000,-64.414459,81.677185
1453000000,-63.284626,81.456955
1454000000,-63.019623,81.223724
1455000000,-63.1651,80.811401
1456000000,-62.535927,80.706398
1457000000,-62.67461,80.386803
1458000000,-61.836853,80.180466
1459000000,-61.697258,79.868073
1460000000,-61.828972,79.728767
1461000000,-61.207081,79.32048
1462000000,-60.546745,79.370628
1463000000,-60.583633,78.987274
1464000000,-60.252331,78.881798
1465000000,-60.242619,78.590179
1466000000,-59.41423,78.595795
1467000000,-59.628475,78.139122
1468000000,-59.854328,77.928856
1469000000,-58.588352,77.761795
1470000000,-58.515434,77.331696
1471000000,-57.483513,77.014015
1472000000,-58.900505,76.870575
1473000000,-58.07505,76.852417
1474000000,-58.335361,76.562828
1475000000,-58.200848,76.168678
1476000000,-57.254341,76.082901
1477000000,-57.724415,75.868782
1478000000,-57.930935,75.533447
1479000000,-56.889847,75.348679
1480000000,-56.978077,75.02076
1481000000,-56.497005,74.724213
1482000000,-56.341381,74.468353
1483000000,-55.832573,74.375542
1484000000,-56.652061,74.089462
1485000000,-55.65836,73.917542
1486000000,-55.937099,73.744972
1487000000,-55.560398,73.516823
1488000000,-56.083458,73.149445
1489000000,-55.105461,73.020004
1490000000,-55.094715,72.792686
1491000000,-55.049011,72.400444
1492000000,-54.488319,72.497673
1493000000,-55.233459,71.96595
1494000000,-54.340504,71.870667
1495000000,-54.470058,71.632599
1496000000,-53.920826,71.513702
1497000000,-54.403393,71.16169
1498000000,-53.993713,70.985931
1499000000,-54.130066,70.592972
1500000000,-54.049786,70.565643
1501000000,-53.465969,70.199783
1502000000,-54.226242,70.020287
1503000000,-53.508526,69.672264
1504000000,-52.988949,69.601723
1505000000,-53.208111,69.390884
1506000000,-53.770718,68.975822
1507000000,-52.95042,68.810875
1508000000,-53.186184,68.644936
1509000000,-52.819294,68.38015
1510000000,-53.092075,68.061058
1511000000,-52.57869,67.943604
1512000000,-52.467232,67.700424
1513000000,-52.645775,67.367279
1514000000,-52.237553,67.087051
1515000000,-52.423122,66.877571
1516000000,-52.504845,66.71122
1517000000,-52.468845,66.344872
1518000000,-52.352524,66.313667
1519000000,-52.27589,65.790375
1520000000,-52.413593,65.761681
1521000000,-52.336216,65.489067
1522000000,-52.046509,65.24733
1523000000,-52.054264,65.070007
1524000000,-52.275471,64.634171
1525000000,-52.613518,64.457214
1526000000,-52.307919,64.356956
1527000000,-52.355,64.083549
1528000000,-52.602867,63.776611
1529000000,-52.45256,63.440094
1530000000,-52.210522,63.387161
1531000000,-52.295319,63.168411
1532000000,-52.628403,62.891739
1533000000,-52.524902,62.506237
1534000000,-52.652332,62.378227
1535000000,-52.311245,62.037685
1536000000,-52.566353,61.8241
1537000000,-52.418812,61.565285
1538000000,-52.368187,61.395866
1539000000,-52.38744,61.28994
1540000000,-52.141144,60.788795
1541000000,-52.523792,60.493916
1542000000,-52.785202,60.34507
1543000000,-52.402214,60.135357
1544000000,-52.802692,59.883007
1545000000,-52.535133,59.631603
1546000000,-52.679718,59.556553
1547000000,-52.486439,59.173336
1548000000,-52.653164,58.724957
1549000000,-52.904724,58.552898
1550000000,-52.56654,58.555
1551000000,-52.998875,58.123844
1552000000,-52.993767,57.876099
1553000000,-53.128963,57.626114
1554000000,-53.161816,57.296185
1555000000,-52.967064,57.262287
1556000000,-52.795517,56.984886
1557000000,-53.359238,56.719864
1558000000,-53.360386,56.501053
1559000000,-53.160103,56.16782
1560000000,-53.351784,55.93161
1561000000,-53.393444,55.852772
1562000000,-53.601627,55.273716
1563000000,-53.585827,55.156109
1564000000,-53.972263,55.136875
1565000000,-53.61422,54.722416
1566000000,-53.768124,54.528458
1567000000,-53.652222,54.351719
1568000000,-54.155678,53.92498
1569000000,-54.545338,53.546032
1570000000,-54.126701,53.458344
1571000000,-54.392891,53.23008
1572000000,-54.557938,53.043064
1573000000,-54.60149,52.759003
1574000000,-54.560463,52.491039
1575000000,-54.945637,52.093685
1576000000,-54.769444,52.024269
1577000000,-54.872063,51.657589
1578000000,-54.735661,51.598721
1579000000,-54.876972,51.495022
1580000000,-55.489361,50.889946
1581000000,-55.417995,50.820656
1582000000,-55.563423,50.336819
1583000000,-55.566727,50.186314
1584000000,-55.817635,49.907589
1585000000,-56.110813,49.698647
1586000000,-55.753025,49.594398
1587000000,-56.221642,49.084808
1588000000,-56.362587,48.856651
1589000000,-56.256989,48.59914
1590000000,-56.342098,48.677616
1591000000,-56.495762,48.329082
1592000000,-56.748653,48.067146
1593000000,-57.026756,47.619709
1594000000,-57.01083,47.62611
1595000000,-57.216446,47.207668
1596000000,-57.404293,47.096584
1597000000,-57.367306,46.729694
1598000000,-57.626492,46.509808
1599000000,-57.844704,46.149384
1600000000,-57.755409,46.055435
1601000000,-58.04969,45.613888
1602000000,-58.116085,45.512669
1603000000,-58.24633,45.271832
1604000000,-58.319305,45.009796
1605000000,-58.545925,44.715572
1606000000,-58.860722,44.487007
1607000000,-58.98119,44.395607
1608000000,-59.035622,44.039482
1609000000,-59.161461,43.733204
1610000000,-59.245621,43.289837
1611000000,-59.385674,43.177036
1612000000,-59.525715,42.938236
1613000000,-59.908772,42.61961
1614000000,-59.932083,42.477345
1615000000,-59.914162,42.311237
1616000000,-60.274521,41.777336
1617000000,-60.577297,41.659218
1618000000,-60.767673,41.479622
1619000000,-60.631786,41.271603
1620000000,-61.084274,40.836136
1621000000,-61.262344,40.580498
1622000000,-61.182549,40.445698
1623000000,-61.534225,40.027973
1624000000,-61.476135,39.897995
1625000000,-62.05545,39.469997
1626000000,-61.951538,39.362961
1627000000,-62.211571,39.036949
1628000000,-62.205853,38.920456
1629000000,-62.743832,38.396603
1630000000,-62.70158,38.393833
1631000000,-62.899677,38.004353
1632000000,-63.30093,37.755669
1633000000,-63.349957,37.570259
1634000000,-63.587444,37.218357
1635000000,-63.776947,37.003166
1636000000,-63.714027,36.88131
1637000000,-64.028336,36.450851
1638000000,-64.302498,36.295475
1639000000,-64.509857,35.996525
1640000000,-64.611115,35.779041
1641000000,-65.121384,35.144669
1642000000,-65.131592,35.046803
1643000000,-65.370796,34.772518
1644000000,-65.345467,34.712509
1645000000,-65.533218,34.485992
1646000000,-65.847313,34.167854
1647000000,-65.944252,33.939568
1648000000,-66.142776,33.691559
1649000000,-66.514214,33.285114
1650000000,-66.531364,33.174637
1651000000,-66.854515,32.745914
1652000000,-67.022385,32.531654
1653000000,-67.326294,32.196251
1654000000,-67.521233,32.079063
1655000000,-67.643448,31.776602
1656000000,-67.859764,31.444883
1657000000,-68.101883,31.364433
1658000000,-68.338737,30.811216
1659000000,-68.478531,30.776983
1660000000,-68.611076,30.441788
1661000000,-68.940269,30.041382
1662000000,-69.270607,29.864019
1663000000,-69.205345,29.708267
1664000000,-69.396515,29.47978
1665000000,-69.871223,29.101551
1666000000,-69.962723,28.811354
1667000000,-70.122154,28.578323
1668000000,-70.347572,28.426584
1669000000,-70.538086,28.16069
1670000000,-70.744263,27.860237
1671000000,-71.171364,27.55884
1672000000,-71.236206,27.361544
1673000000,-71.421127,27.123114
1674000000,-71.673073,26.773342
1675000000,-71.923866,26.441341
1676000000,-72.410347,26.184547
1677000000,-72.4468,26.059637
1678000000,-72.755554,25.74822
1679000000,-72.795509,25.519911
1680000000,-72.910461,25.162836
1681000000,-73.227386,25.045385
1682000000,-73.607002,24.551222
1683000000,-73.898888,24.288145
1684000000,-73.79509,24.152365
1685000000,-74.311699,23.834703
1686000000,-74.365807,23.733664
1687000000,-74.68895,23.454174
1688000000,-75.074936,22.900148
1689000000,-75.18718,22.833944
1690000000,-75.520699,22.449707
1691000000,-75.880928,21.975582
1692000000,-75.952972,21.841366
1693000000,-76.082748,21.675531
1694000000,-76.403732,21.351387
1695000000,-76.717468,20.999157
1696000000,-76.972466,20.687906
1697000000,-76.885582,20.720623
1698000000,-77.342812,20.383194
1699000000,-77.578941,20.143013
1700000000,-77.766724,19.707195
1701000000,-77.915474,19.497837
1702000000,-78.31881,19.262119
1703000000,-78.431519,18.905085
1704000000,-78.865128,18.590403
1705000000,-78.961525,18.404581
1706000000,-79.129356,18.120768
1707000000,-79.408897,17.935566
1708000000,-79.692131,17.568243
1709000000,-79.974136,17.478651
1710000000,-80.137146,17.162413
1711000000,-80.290672,16.894495
1712000000,-80.504875,16.685459
1713000000,-80.986794,16.20352
1714000000,-81.03804,16.000294
1715000000,-81.47612,15.718607
1716000000,-81.652695,15.408977
1717000000,-82.007912,15.187073
1718000000,-81.949242,14.973618
1719000000,-82.322823,14.554037
1720000000,-82.551414,14.318247
1721000000,-82.749893,14.279289
1722000000,-83.350845,13.692699
1723000000,-83.333321,13.576002
1724000000,-83.584846,13.379676
1725000000,-83.697372,13.205448
1726000000,-84.068947,12.76527
1727000000,-84.195404,12.57503
1728000000,-84.326553,12.387957
1729000000,-84.815712,11.932408
1730000000,-85.030418,11.839764
1731000000,-85.114388,11.566737
1732000000,-85.654976,11.092034
1733000000,-85.836838,10.986582
1734000000,-86.145485,10.577142
1735000000,-86.505638,10.127917
1736000000,-86.801788,9.9069328
1737000000,-87.176033,9.497076
1738000000,-87.30452,9.5213909
1739000000,-87.451859,9.2236948
1740000000,-87.623734,8.8845396
1741000000,-87.842781,8.804286
1742000000,-88.079018,8.3648901
1743000000,-88.292717,8.1674824
1744000000,-88.777107,7.7502155
1745000000,-88.999413,7.5286155
1746000000,-89.26207,7.2378149
1747000000,-89.321426,7.0502214
1748000000,-89.880905,6.525414
1749000000,-89.934746,6.3688631
1750000000,-90.227257,6.2938361
1751000000,-90.546066,5.942687
1752000000,-90.909531,5.6141772
1753000000,-90.959518,5.5496473
1754000000,-91.137428,4.9716296
1755000000,-91.390388,4.8728924
1756000000,-91.865013,4.519033
1757000000,-92.185219,4.1100383
1758000000,-92.246101,4.0440273
1759000000,-92.83046,3.6822665
1760000000,-92.974342,3.4698527
1761000000,-93.047905,3.1833901
1762000000,-93.343704,2.9843359
1763000000,-93.686714,2.5947535
1764000000,-93.742348,2.5185888
1765000000,-94.161224,2.1345561
1766000000,-94.477478,1.8255939
1767000000,-94.542366,1.508163
1768000000,-94.783432,1.4175901
1769000000,-95.091179,1.1268847
1770000000,-95.639557,0.65774894
1771000000,-95.831268,0.46875268
1772000000,-95.965508,0.20726413
1773000000,-96.151665,0.049784344
1774000000,-96.388245,-0.38551494
1775000000,-96.648743,-0.52403837
1776000000,-97.029778,-0.98182261
1777000000,-97.357193,-1.283501
1778000000,-97.628624,-1.5003972
1779000000,-97.871056,-1.7183788
1780000000,-98.08551,-2.0270281
1781000000,-98.397171,-2.2027299
1782000000,-98.735199,-2.7158101
1783000000,-98.760422,-2.6956735
1784000000,-99.302513,-3.1831717
1785000000,-99.374199,-3.37398
1786000000,-99.824745,-3.6451883
1787000000,-100.0513,-3.9473934
1788000000,-100.24815,-4.0955877
1789000000,-100.3105,-4.2413869
1790000000,-100.89399,-4.7642851
1791000000,-101.18285,-5.1158032
1792000000,-101.29848,-5.2770991
1793000000,-101.96071,-5.6691022
1794000000,-102.15498,-5.9121122
1795000000,-102.13535,-6.199018
1796000000,-102.21684,-6.2145572
1797000000,-102.70912,-6.6017623
1798000000,-103.03577,-6.8369293
1799000000,-103.36823,-7.3715501
1800000000,-103.40431,-7.4746876
1801000000,-103.91992,-7.6803122
1802000000,-104.08697,-8.0741234
1803000000,-104.36939,-8.3677025
1804000000,-104.66493,-8.6531296
1805000000,-104.76299,-8.8339615
1806000000,-105.24064,-9.1657248
1807000000,-105.4516,-9.4247074
1808000000,-105.8677,-9.7901173
1809000000,-106.10124,-10.126198
1810000000,-106.17941,-10.126314
1811000000,-106.56783,-10.694079
1812000000,-106.98701,-10.906227
1813000000,-107.1419,-11.062527
1814000000,-107.37482,-11.364352
1815000000,-107.58701,-11.511126
1816000000,-107.87041,-11.908556
1817000000,-108.08397,-11.994838
1818000000,-108.61033,-12.554772
1819000000,-108.61472,-12.719075
1820000000,-109.23824,-13.082899
1821000000,-109.32736,-13.370607
1822000000,-109.3861,-13.344758
1823000000,-109.78122,-13.716118
1824000000,-110.08336,-14.132715
1825000000,-110.40688,-14.614283
1826000000,-110.46793,-14.54007
1827000000,-111.0489,-15.018934
1828000000,-111.2898,-15.423894
1829000000,-111.24889,-15.294078
1830000000,-111.9202,-15.961226
1831000000,-112.25822,-16.184359
1832000000,-112.32395,-16.361261
1833000000,-112.62457,-16.582336
1834000000,-112.95133,-16.829641
1835000000,-113.08322,-17.166405
1836000000,-113.38526,-17.413879
1837000000,-113.64196,-17.64694
1838000000,-113.80697,-17.760439
1839000000,-114.23988,-18.27869
1840000000,-114.61637,-18.443655
1841000000,-114.79447,-18.789764
1842000000,-115.18855,-19.123068
1843000000,-115.35506,-19.326189
1844000000,-115.54354,-19.63295
1845000000,-115.95612,-19.979256
1846000000,-116.11984,-20.010065
1847000000,-116.53822,-20.285463
1848000000,-116.62057,-20.446232
1849000000,-117.22031,-21.02405
1850000000,-117.41016,-21.310167
1851000000,-117.45558,-21.459593
1852000000,-117.93471,-21.75419
1853000000,-118.22586,-21.98649
1854000000,-118.40558,-22.178757
1855000000,-118.63744,-22.55542
1856000000,-118.93237,-22.924326
1857000000,-119.19594,-23.143599
1858000000,-119.48176,-23.222624
1859000000,-119.78992,-23.567543
1860000000,-119.88291,-23.791897
1861000000,-120.31075,-24.192919
1862000000,-120.56411,-24.3531
1863000000,-120.80546,-24.607569
1864000000,-120.97225,-24.891235
1865000000,-121.32766,-25.271448
1866000000,-121.65218,-25.494167
1867000000,-121.8238,-25.770498
1868000000,-122.26738,-26.117048
1869000000,-122.57185,-26.372953
1870000000,-122.77229,-26.611359
1871000000,-123.18193,-26.94096
1872000000,-123.40278,-27.173697
1873000000,-123.7353,-27.505449
1874000000,-123.84612,-27.542902
1875000000,-124.25561,-27.985064
1876000000,-124.32262,-28.229961
1877000000,-124.78609,-28.64069
1878000000,-125.14439,-28.954802
1879000000,-125.51656,-29.050024
1880000000,-125.4551,-29.199697
1881000000,-125.95464,-29.593021
1882000000,-126.19329,-29.968477
1883000000,-126.36212,-30.14155
1884000000,-126.67596,-30.32155
1885000000,-127.07817,-30.841614
1886000000,-127.29422,-31.01149
1887000000,-127.43837,-31.265841
1888000000,-127.82072,-31.547178
1889000000,-128.05156,-31.762539
1890000000,-128.35989,-32.069836
1891000000,-128.66518,-32.321724
1892000000,-129.10234,-32.625889
1893000000,-129.25333,-32.910267
1894000000,-129.57834,-33.135323
1895000000,-129.62973,-33.252872
1896000000,-130.1669,-33.734638
1897000000,-130.15741,-33.758907
1898000000,-130.78146,-34.328465
1899000000,-130.6985,-34.240215
1900000000,-131.08005,-34.733101
1901000000,-131.30713,-34.949459
1902000000,-131.52179,-35.254189
1903000000,-132.01051,-35.56741
1904000000,-132.12685,-35.727596
1905000000,-132.53648,-35.8811
1906000000,-132.68658,-36.219536
1907000000,-132.81538,-36.407307
1908000000,-133.38063,-36.901215
1909000000,-133.6498,-37.070004
1910000000,-133.71765,-37.314518
1911000000,-134.19902,-37.731644
1912000000,-134.22322,-37.788525
1913000000,-134.71458,-38.199005
1914000000,-134.90797,-38.442379
1915000000,-135.10483,-38.687904
1916000000,-135.48381,-39.039932
1917000000,-135.69397,-39.183266
1918000000,-135.94461,-39.500813
1919000000,-136.3885,-39.827522
1920000000,-136.79533,-40.18589
1921000000,-136.65944,-40.144459
1922000000,-137.07895,-40.628387
1923000000,-137.30409,-40.880978
1924000000,-137.56267,-40.985207
1925000000,-137.82301,-41.374023
1926000000,-138.09056,-41.573975
1927000000,-138.40329,-41.804699
1928000000,-138.50107,-41.993973
1929000000,-139.04282,-42.508358
1930000000,-139.35196,-42.60453
1931000000,-139.43056,-42.880302
1932000000,-139.74228,-43.256618
1933000000,-140.26753,-43.529648
1934000000,-140.24292,-43.749851
1935000000,-140.56886,-43.873158
1936000000,-140.68172,-44.208374
1937000000,-141.01581,-44.460472
1938000000,-141.41539,-44.665398
1939000000,-141.50499,-44.909214
1940000000,-141.88399,-45.344986
1941000000,-142.22153,-45.514683
1942000000,-142.46808,-45.762932
1943000000,-142.87497,-46.025959
1944000000,-142.8542,-46.264683
1945000000,-143.2012,-46.529228
1946000000,-143.67349,-46.876976
1947000000,-143.81592,-47.14687
1948000000,-143.97969,-47.264565
1949000000,-144.2907,-47.633106
1950000000,-144.72495,-47.957981
1951000000,-144.754,-48.050442
1952000000,-145.20926,-48.458832
1953000000,-145.23018,-48.349697
1954000000,-145.53122,-48.788334
1955000000,-145.85089,-49.187275
1956000000,-146.25441,-49.469681
1957000000,-146.42773,-49.712658
1958000000,-146.44316,-49.814972
1959000000,-146.93001,-50.113796
1960000000,-147.00093,-50.248638
1961000000,-147.51825,-50.807388
1962000000,-147.56361,-50.64072
1963000000,-147.78513,-51.025314
1964000000,-148.13379,-51.435696
1965000000,-148.40417,-51.5172
1966000000,-148.65353,-51.786217
1967000000,-149.02835,-52.105499
1968000000,-149.32733,-52.502048
1969000000,-149.57364,-52.688705
1970000000,-149.61017,-52.714539
1971000000,-150.19678,-53.166908
1972000000,-150.33873,-53.657509
1973000000,-150.55826,-53.908558
1974000000,-150.69612,-53.847927
1975000000,-151.05334,-54.262375
1976000000,-151.28734,-54.348885
1977000000,-151.75888,-54.764343
1978000000,-151.93082,-55.039165
1979000000,-152.46863,-55.371769
1980000000,-152.4628,-55.564316
1981000000,-152.97351,-55.853344
1982000000,-153.09256,-56.007702
1983000000,-153.28268,-56.239002
1984000000,-153.5439,-56.580765
1985000000,-153.68365,-56.73209
1986000000,-153.97446,-56.984669
1987000000,-154.27097,-57.227489
1988000000,-154.37971,-57.387016
1989000000,-154.75055,-57.780834
1990000000,-154.91904,-57.931587
1991000000,-155.04298,-58.059723
1992000000,-155.75586,-58.490639
1993000000,-155.55804,-58.585957
1994000000,-156.01169,-58.976814
1995000000,-156.22191,-59.217461
1996000000,-156.62494,-59.501472
1997000000,-156.80241,-59.789024
1998000000,-157.16101,-60.084068
1999000000,-157.18945,-60.155369
2000000000,-157.43369,-60.477154
2001000000,-157.82428,-60.831627
2002000000,-158.10175,-61.043259
2003000000,-158.24066,-61.124115
2004000000,-158.53522,-61.491436
2005000000,-158.70667,-61.702427
2006000000,-159.27515,-62.099499
2007000000,-159.31294,-62.206688
2008000000,-159.55327,-62.388477
2009000000,-159.90584,-62.785095
2010000000,-160.00914,-62.890533
2011000000,-160.42572,-63.229492
2012000000,-160.38489,-63.347828
2013000000,-160.63589,-63.480606
2014000000,-161.13776,-63.896255
2015000000,-161.28824,-64.027649
2016000000,-161.62923,-64.450844
2017000000,-161.75232,-64.502815
2018000000,-161.89812,-64.66954
2019000000,-162.4673,-65.215744
2020000000,-162.61801,-65.231094
2021000000,-162.84367,-65.545731
2022000000,-163.09778,-65.817719
2023000000,-163.16414,-65.992744
2024000000,-163.69002,-66.29261
2025000000,-163.98662,-66.647469
2026000000,-163.93431,-66.599121
2027000000,-164.36548,-67.19574
2028000000,-164.57147,-67.274521
2029000000,-164.87181,-67.448799
2030000000,-165.12704,-67.637291
2031000000,-165.44513,-68.128159
2032000000,-165.52159,-68.104218
2033000000,-165.80968,-68.374924
2034000000,-165.99821,-68.549675
2035000000,-166.46454,-68.974243
2036000000,-166.48817,-69.062027
2037000000,-166.94588,-69.391792
2038000000,-167.02,-69.503754
2039000000,-167.20442,-69.805359
2040000000,-167.2171,-69.912956
2041000000,-167.63281,-70.291656
2042000000,-167.83447,-70.435677
2043000000,-168.37065,-70.8405
2044000000,-168.43019,-71.086403
2045000000,-168.62259,-71.135551
2046000000,-168.96356,-71.509621
2047000000,-169.19168,-71.830315
2048000000,-169.19183,-71.744507
2049000000,-169.75003,-72.319626
2050000000,-169.8497,-72.374969
2051000000,-170.10771,-72.614677
2052000000,-170.32724,-72.906319
2053000000,-170.71529,-73.290405
2054000000,-170.63626,-73.298164
2055000000,-170.92636,-73.558167
2056000000,-171.30554,-73.686035
2057000000,-171.59293,-74.054688
2058000000,-171.77032,-74.202721
2059000000,-171.98427,-74.534149
2060000000,-172.21979,-74.826469
2061000000,-172.45099,-75.032661
2062000000,-172.4935,-75.049156
2063000000,-172.73956,-75.379288
2064000000,-173.28476,-75.692146
2065000000,-173.55804,-76.001907
2066000000,-173.57896,-75.965385
2067000000,-173.79204,-76.147621
2068000000,-174.01921,-76.331291
2069000000,-174.31329,-76.601181
2070000000,-174.44919,-76.954079
2071000000,-175.02034,-77.260643
2072000000,-174.99988,-77.393875
2073000000,-175.47966,-77.770378
2074000000,-175.32971,-77.664757
2075000000,-175.75134,-78.177284
2076000000,-176.04417,-78.28405
2077000000,-176.34502,-78.49453
2078000000,-176.43483,-78.691566
2079000000,-176.83682,-79.082779
2080000000,-176.90213,-79.193672
2081000000,-176.96771,-79.111832
2082000000,-177.22589,-79.465637
2083000000,-177.51581,-79.782776
2084000000,-177.91911,-80.32766
2085000000,-177.687,-79.9412
2086000000,-178.26443,-80.524254
2087000000,-178.44821,-80.627785
2088000000,-178.72284,-80.871559
2089000000,-179.17957,-81.138222
2090000000,-179.14899,-81.31337
2091000000,-179.13716,-81.500839
2092000000,-179.5705,-81.921844
2093000000,-179.67824,-81.910065
2094000000,179.82768,-82.293106
2095000000,179.66905,-82.53273
2096000000,179.18585,-82.971138
2097000000,179.3839,-82.756615
2098000000,179.2327,-83.079727
2099000000,178.87418,-83.373566
2100000000,178.67935,-83.62735
2101000000,178.33006,-83.771965
2102000000,178.35197,-84.012039
2103000000,177.87527,-84.348801
2104000000,177.72314,-84.395775
2105000000,177.37846,-84.719254
2106000000,177.24139,-84.942635
2107000000,177.15048,-84.969604
2108000000,176.75336,-85.294823
2109000000,176.63205,-85.58075
2110000000,176.05823,-85.711624
2111000000,175.88753,-86.170914
2112000000,176.00491,-86.021286
2113000000,175.70207,-86.527473
2114000000,175.2097,-86.714821
2115000000,175.34448,-86.893311
2116000000,174.95935,-87.103722
2117000000,174.90018,-87.138924
2118000000,174.2343,-87.764992
2119000000,174.49771,-87.663582
2120000000,174.19814,-87.989334
2121000000,174.10306,-88.033623
2122000000,173.53151,-88.454636
2123000000,173.75079,-88.406448
2124000000,173.28493,-88.855606
2125000000,172.85213,-89.062881
2126000000,172.80074,-89.369453
2127000000,172.69376,-89.219742
2128000000,172.41753,-89.536835
2129000000,172.3176,-89.646278
2130000000,171.89653,-89.935844
2131000000,171.8127,-90.242195
2132000000,171.67494,-90.36554
2133000000,171.33916,-90.698189
2134000000,171.18532,-90.804512
2135000000,170.67101,-91.279472
2136000000,170.59532,-91.118523
2137000000,170.55496,-91.376892
2138000000,170.13593,-91.7873
2139000000,169.89114,-92.110168
2140000000,169.96596,-92.135948
2141000000,169.66858,-92.429848
2142000000,169.61742,-92.570625
2143000000,169.15393,-92.822594
2144000000,168.86099,-92.869652
2145000000,168.69675,-93.166161
2146000000,168.52577,-93.512482
2147000000,168.24503,-93.45462
2148000000,168.34915,-93.732124
2149000000,167.84021,-94.042412
2150000000,167.72002,-94.043839
2151000000,167.60878,-94.196991
2152000000,167.54483,-94.51313
2153000000,167.20361,-94.818321
2154000000,166.94579,-95.029968
2155000000,166.59119,-95.144676
2156000000,166.45439,-95.565605
2157000000,166.39494,-95.579788
2158000000,166.17036,-95.693108
2159000000,165.82019,-96.198395
2160000000,165.46043,-96.436737
2161000000,165.44151,-96.372566
2162000000,165.20255,-96.61412
2163000000,165.10355,-96.857597
2164000000,164.96152,-96.835968
2165000000,164.8074,-97.211777
2166000000,164.41283,-97.477966
2167000000,164.45685,-97.588203
2168000000,164.08772,-97.873436
2169000000,163.85097,-98.029945
2170000000,163.47658,-98.255096
2171000000,163.4758,-98.420868
2172000000,163.05748,-98.88176
2173000000,162.93245,-99.019669
2174000000,162.80881,-99.023659
2175000000,162.57545,-99.379143
2176000000,162.35745,-99.728142
2177000000,162.30182,-99.510666
2178000000,161.99754,-100.00079
2179000000,161.84401,-100.05046
2180000000,161.4675,-100.36011
2181000000,161.3571,-100.59483
2182000000,161.14243,-100.75591
2183000000,160.93748,-100.84674
2184000000,160.85924,-101.01913
2185000000,160.63719,-101.1011
2186000000,160.5694,-101.51888
2187000000,160.34561,-101.55589
2188000000,160.0271,-101.67181
2189000000,159.8586,-102.06577
2190000000,159.82832,-102.14304
2191000000,159.37648,-102.48875
2192000000,159.41029,-102.52385
2193000000,158.89069,-102.86987
2194000000,158.9816,-102.85468
2195000000,158.77345,-103.41229
2196000000,158.45917,-103.6537
2197000000,158.39433,-103.46905
2198000000,157.94693,-103.89474
2199000000,157.82307,-104.07156
2200000000,157.86859,-103.99028
2201000000,157.4642,-104.56115
2202000000,157.23325,-104.71058
2203000000,157.08716,-104.86798
2204000000,156.87686,-105.09479
2205000000,156.5656,-105.32277
2206000000,156.94255,-104.92764
2207000000,156.16481,-105.65491
2208000000,156.10301,-105.63557
2209000000,156.015,-105.97752
2210000000,155.7027,-106.27553
2211000000,155.55191,-106.28706
2212000000,155.31664,-106.65104
2213000000,154.95975,-106.85052
2214000000,154.88506,-107.11921
2215000000,154.83994,-107.25495
2216000000,154.40205,-107.62821
2217000000,154.44075,-107.56628
2218000000,154.2991,-107.5721
2219000000,153.76285,-108.26262
2220000000,153.88895,-108.20882
2221000000,153.46217,-108.28823
2222000000,153.49226,-108.62971
2223000000,153.48689,-108.56033
2224000000,152.91531,-109.04246
2225000000,152.72162,-109.36942
2226000000,152.43127,-109.42762
2227000000,152.42688,-109.74307
2228000000,152.5643,-109.64246
2229000000,152.28973,-109.78198
2230000000,151.91795,-110.22365
2231000000,151.69003,-110.33479
2232000000,151.56151,-110.60393
2233000000,151.36813,-110.56255
2234000000,151.13293,-111.00287
2235000000,151.08601,-111.0348
2236000000,150.89685,-111.37054
2237000000,150.79042,-111.48292
2238000000,150.32762,-111.87909
2239000000,150.06764,-111.96024
2240000000,150.04594,-112.00774
2241000000,149.64824,-112.58074
2242000000,149.71107,-112.46884
2243000000,149.35262,-112.96854
2244000000,149.35829,-112.96075
2245000000,149.11409,-113.15006
2246000000,148.85869,-113.34142
2247000000,148.694,-113.50275
2248000000,148.4593,-113.70168
2249000000,148.48436,-113.83226
2250000000,148.33531,-114.09247
2251000000,148.05017,-114.15315
2252000000,147.92984,-114.38165
2253000000,147.72032,-114.58005
2254000000,147.36441,-114.96763
2255000000,147.09161,-114.96892
2256000000,147.05989,-115.13844
2257000000,147.12398,-114.98116
2258000000,146.62863,-115.79522
2259000000,146.46519,-115.86513
2260000000,146.54858,-115.79919
2261000000,146.00464,-116.22059
2262000000,146.00441,-116.24101
2263000000,145.79892,-116.52864
2264000000,145.60854,-116.79305
2265000000,145.56731,-116.94963
2266000000,145.3477,-117.15759
2267000000,144.94989,-117.56149
2268000000,145.04288,-117.47386
2269000000,144.80098,-117.6724
2270000000,144.59825,-117.73731
2271000000,144.52031,-117.95834
2272000000,144.23993,-118.1364
2273000000,144.07285,-118.41816
2274000000,143.86958,-118.53826
2275000000,143.51724,-118.95482
2276000000,143.63667,-119.03912
2277000000,143.2896,-119.16523
2278000000,143.31561,-119.22365
2279000000,142.79211,-119.74781
2280000000,142.78247,-119.897
2281000000,142.44231,-120.09824
2282000000,142.35179,-119.98924
2283000000,142.04575,-120.51388
2284000000,141.93948,-120.62193
2285000000,141.87949,-120.82878
2286000000,141.5827,-120.94144
2287000000,141.3185,-121.40714
2288000000,141.42311,-121.26324
2289000000,141.18054,-121.60718
2290000000,140.8531,-121.74863
2291000000,140.80612,-121.96394
2292000000,140.49644,-122.14
2293000000,140.22589,-122.53889
2294000000,140.10774,-122.57724
2295000000,140.15936,-122.44547
2296000000,140.00133,-122.744
2297000000,139.53308,-123.15962
2298000000,139.49644,-123.34822
2299000000,139.30798,-123.71395
2300000000,138.92648,-123.9679
2301000000,138.94148,-123.98758
2302000000,138.95605,-123.94825
2303000000,138.45256,-124.35601
2304000000,138.52507,-124.55022
2305000000,138.30719,-124.4936
2306000000,138.17622,-124.80247
2307000000,137.72359,-125.26156
2308000000,137.82121,-125.0052
2309000000,137.5213,-125.53549
2310000000,137.19032,-125.92096
2311000000,137.21199,-125.88525
2312000000,136.92447,-126.11431
2313000000,136.78082,-126.33164
2314000000,136.71538,-126.43398
2315000000,136.52641,-126.54691
2316000000,136.20584,-126.94433
2317000000,135.9071,-127.12493
2318000000,136.11427,-127.19718
2319000000,135.90207,-127.33014
2320000000,135.67058,-127.50114
2321000000,135.52853,-127.81605
2322000000,134.98326,-128.33144
2323000000,135.16818,-128.09492
2324000000,134.79181,-128.61871
2325000000,134.99155,-128.52881
2326000000,134.6752,-128.68867
2327000000,134.37236,-129.25792
2328000000,134.26515,-129.34969
2329000000,133.88228,-129.5502
2330000000,133.88921,-129.53354
2331000000,133.54221,-129.8683
2332000000,133.71938,-129.64787
2333000000,133.41266,-129.96507
2334000000,133.24254,-130.36575
2335000000,133.12654,-130.4613
2336000000,132.8624,-131.04764
2337000000,132.60489,-131.00642
2338000000,132.52956,-131.056
2339000000,132.46658,-131.42561
2340000000,132.28693,-131.46912
2341000000,132.07455,-131.82353
2342000000,131.63759,-132.08611
2343000000,131.50546,-132.15327
2344000000,131.37907,-132.48494
2345000000,131.2764,-132.39885
2346000000,131.26353,-132.79091
2347000000,131.15527,-132.80438
2348000000,130.79651,-133.28421
2349000000,130.56505,-133.584
2350000000,130.40228,-133.64612
2351000000,130.12344,-133.78731
2352000000,130.08353,-134.03128
2353000000,129.92821,-134.09065
2354000000,129.73325,-134.2617
2355000000,129.58881,-134.74275
2356000000,129.25406,-135.02467
2357000000,129.34746,-135.10106
2358000000,128.96794,-135.33411
2359000000,128.83965,-135.62102
2360000000,128.58565,-135.67789
2361000000,128.41394,-135.86046
2362000000,128.35066,-135.90442
2363000000,128.18753,-136.11569
2364000000,127.99359,-136.39842
2365000000,127.63396,-136.99904
2366000000,127.58967,-136.92812
2367000000,127.16739,-137.49617
2368000000,127.30223,-137.33014
2369000000,127.12103,-137.57831
2370000000,127.04567,-137.90013
2371000000,126.85758,-137.8093
2372000000,126.72533,-138.18507
2373000000,126.4177,-138.50017
2374000000,126.11504,-138.65411
2375000000,126.07087,-138.65843
2376000000,125.83257,-139.15303
2377000000,125.80383,-139.08278
2378000000,125.51151,-139.61241
2379000000,125.53232,-139.37112
2380000000,125.2401,-139.94684
2381000000,124.84426,-140.31363
2382000000,124.80151,-140.37115
2383000000,124.69782,-140.61324
2384000000,124.36266,-140.74745
2385000000,124.2925,-141.00171
2386000000,124.22964,-141.02641
2387000000,124.02418,-141.37013
2388000000,123.78953,-141.75928
2389000000,123.53107,-142.10703
2390000000,123.58196,-141.97943
2391000000,123.15929,-142.39322
2392000000,123.08867,-142.5722
2393000000,122.92263,-142.84923
2394000000,122.66012,-143.01527
2395000000,122.64998,-143.07219
2396000000,122.30831,-143.40149
2397000000,122.25941,-143.43993
2398000000,121.99292,-143.7191
2399000000,121.87588,-144.08347
2400000000,121.73628,-144.31792
2401000000,121.53282,-144.80482
2402000000,121.46098,-144.79344
2403000000,121.14899,-145.14145
2404000000,120.92656,-145.41681
2405000000,120.81416,-145.56354
2406000000,120.9211,-145.60156
2407000000,120.38216,-145.98978
2408000000,120.27876,-145.97955
2409000000,120.00211,-146.58379
2410000000,119.87523,-146.88029
2411000000,119.74272,-146.87711
2412000000,119.41782,-147.54726
2413000000,119.02237,-147.55779
2414000000,119.20522,-147.62999
2415000000,118.85726,-148.1308
2416000000,118.85467,-148.12225
2417000000,118.54332,-148.31131
2418000000,118.44298,-148.49348
2419000000,118.48673,-148.62874
2420000000,118.06119,-149.03778
2421000000,117.93578,-149.37653
2422000000,117.7055,-149.83876
2423000000,117.58263,-149.91498
2424000000,117.33082,-150.2606
2425000000,117.18467,-150.30469
2426000000,116.96526,-150.78755
2427000000,116.96021,-150.58684
2428000000,116.74608,-151.15697
2429000000,116.47522,-151.33611
2430000000,116.36697,-151.65009
2431000000,116.04209,-151.65689
2432000000,115.76607,-152.12912
2433000000,115.90563,-152.33287
2434000000,115.63722,-152.66847
2435000000,115.51185,-152.65273
2436000000,115.36444,-153.17337
2437000000,115.26216,-153.28204
2438000000,114.84559,-153.64442
2439000000,114.53625,-154.11034
2440000000,114.46335,-154.42606
2441000000,114.2075,-154.5461
2442000000,114.00577,-154.81665
2443000000,113.86102,-155.12782
2444000000,113.59634,-155.46463
2445000000,113.38567,-155.70534
2446000000,113.45981,-155.68094
2447000000,113.29787,-155.99622
2448000000,113.00904,-156.43077
2449000000,112.77852,-156.6937
2450000000,112.50209,-157.03323
2451000000,112.44211,-157.34525
2452000000,112.19379,-157.51083
2453000000,112.01103,-157.90781
2454000000,111.64444,-158.18912
2455000000,111.58115,-158.44202
2456000000,111.44051,-158.82288
2457000000,111.37552,-158.82492
2458000000,111.02345,-159.28773
2459000000,111.04269,-159.39565
2460000000,110.66703,-160.06224
2461000000,110.5789,-160.3246
2462000000,110.3229,-160.70982
2463000000,110.08392,-160.93648
2464000000,109.89426,-161.28598
2465000000,109.80521,-161.37282
2466000000,109.57549,-161.81319
2467000000,109.6635,-161.90051
2468000000,109.44943,-162.19925
2469000000,109.29396,-162.50818
2470000000,108.784,-163.04836
2471000000,108.68694,-163.37851
2472000000,108.52331,-163.5363
2473000000,108.42605,-164.04411
2474000000,108.15459,-164.44891
2475000000,107.98713,-164.58223
2476000000,107.78982,-164.93909
2477000000,107.60567,-165.26837
2478000000,107.11123,-165.964
2479000000,107.07743,-166.27402
2480000000,106.85968,-166.50298
2481000000,106.55476,-166.98473
2482000000,106.61926,-167.04138
2483000000,106.33089,-167.26372
2484000000,106.23448,-167.67326
2485000000,106.00985,-168.01448
2486000000,105.96509,-168.29181
2487000000,105.37705,-168.9593
2488000000,105.54013,-169.10088
2489000000,105.36648,-169.45062
2490000000,105.01624,-169.93326
2491000000,104.65168,-170.44141
2492000000,104.56476,-170.80525
2493000000,104.43065,-171.09259
2494000000,104.15011,-171.47083
2495000000,104.04437,-171.86475
2496000000,103.89854,-172.30797
2497000000,103.78236,-172.67267
2498000000,103.19313,-173.21519
2499000000,103.14922,-173.49612
2500000000,102.88201,-174.08029
2501000000,102.62387,-174.31543
2502000000,102.56763,-174.79694
2503000000,102.29546,-175.05482
2504000000,102.23986,-175.42337
2505000000,101.81738,-176.05193
2506000000,101.74973,-176.20845
2507000000,101.44534,-176.81851
2508000000,101.2491,-177.2569
2509000000,101.32447,-177.59218
2510000000,100.98209,-178.12126
2511000000,100.73907,-178.56071
2512000000,100.79617,-179.13557
2513000000,100.43938,-179.33359
2514000000,100.15967,-179.9727
2515000000,99.902298,179.26915
2516000000,99.788567,179.17534
2517000000,99.50061,178.61301
2518000000,99.275002,178.09062
2519000000,99.045059,177.48782
2520000000,98.843636,177.04077
2521000000,98.664757,176.53876
2522000000,98.5187,176.00203
2523000000,98.453117,175.66327
2524000000,98.045822,175.04315
2525000000,97.664642,174.32417
2526000000,97.399452,173.82751
2527000000,97.581772,173.75359
2528000000,97.16925,172.7789
2529000000,96.940384,172.45908
2530000000,96.994606,171.96999
2531000000,96.463646,171.31996
2532000000,96.491035,170.77837
2533000000,96.353859,170.25937
2534000000,96.107803,169.79424
2535000000,95.739716,168.96117
2536000000,95.529465,168.39395
2537000000,95.546219,168.02299
2538000000,95.150665,167.20761
2539000000,95.015633,166.68217
2540000000,94.750984,166.07362
2541000000,94.499405,165.38876
2542000000,94.32711,164.5631
2543000000,94.007713,163.83727
2544000000,93.999947,163.33502
2545000000,93.673813,162.771
2546000000,93.57476,162.21678
2547000000,93.471718,161.44576
2548000000,93.256721,160.69937
2549000000,92.809074,160.04324
2550000000,92.905167,159.51254
2551000000,92.695259,158.78458
2552000000,92.441002,158.04112
2553000000,92.224098,157.1692
2554000000,91.856056,156.21294
2555000000,91.813423,155.79193
2556000000,91.628639,155.278
2557000000,91.56559,154.49596
2558000000,91.293762,153.51195
2559000000,91.077858,152.6161
2560000000,91.219978,152.18028
2561000000,90.976563,151.48457
2562000000,90.734932,150.55675
2563000000,90.54174,149.71512
2564000000,90.511581,149.06827
2565000000,90.324738,148.25829
2566000000,90.091896,147.26564
2567000000,89.878662,146.24825
2568000000,89.701385,145.6263
2569000000,89.823647,144.59366
2570000000,89.509056,143.87497
2571000000,89.509171,143.04178
2572000000,89.135872,141.9913
2573000000,89.384315,141.36322
2574000000,88.996597,140.40445
2575000000,89.098305,139.45227
2576000000,88.896637,138.39998
2577000000,88.653297,137.68338
2578000000,88.609077,136.66815
2579000000,88.421921,135.77892
2580000000,88.29586,134.78856
2581000000,88.466797,133.88791
2582000000,88.313782,132.93594
2583000000,88.191856,131.94379
2584000000,88.061714,130.65994
2585000000,88.091469,129.86201
2586000000,87.949265,128.95613
2587000000,88.009506,128.02994
2588000000,87.922417,126.9548
2589000000,87.917252,125.99243
2590000000,87.800278,124.89695
2591000000,87.574989,123.83122
2592000000,87.492188,122.68538
2593000000,87.834923,122.003
2594000000,87.727272,120.81482
2595000000,87.554306,119.56481
2596000000,87.550735,118.70316
2597000000,87.45858,117.44495
2598000000,87.534439,116.59742
2599000000,87.272255,115.3359
2600000000,87.294876,114.38539
2601000000,87.310066,113.25017
2602000000,87.105606,112.10423
2603000000,87.378273,111.11033
2604000000,87.188484,109.8799
2605000000,87.119743,108.79825
2606000000,86.993721,107.65333
2607000000,87.14505,106.88716
2608000000,86.98703,105.72222
2609000000,87.17627,104.68514
2610000000,86.669624,103.43876
2611000000,86.68544,102.17123
2612000000,86.621986,101.24857
2613000000,86.602821,100.07346
2614000000,86.328598,98.930542
2615000000,86.290894,97.881645
2616000000,86.132782,96.673584
2617000000,86.285805,95.66288
2618000000,85.936127,94.548386
2619000000,85.864563,93.36747
2620000000,85.489922,92.199203
2621000000,85.401947,90.962837
2622000000,85.350601,90.174911
2623000000,85.001839,88.805115
2624000000,84.827469,87.629326
2625000000,84.53746,86.641487
2626000000,84.665871,85.241493
2627000000,84.336426,84.33226
2628000000,84.002457,83.246689
2629000000,83.842117,82.00415
2630000000,83.65139,81.169548
2631000000,83.313568,79.727684
2632000000,82.811745,78.523346
2633000000,82.852097,77.611008
2634000000,82.258148,76.274628
2635000000,81.975258,75.114868
2636000000,81.520218,74.059769
2637000000,81.486359,73.303299
2638000000,80.95929,71.922699
2639000000,80.520203,70.689507
2640000000,80.447769,69.59285
2641000000,79.814034,68.690414
2642000000,79.318634,67.539986
2643000000,78.799507,66.100403
2644000000,78.352776,65.030266
2645000000,77.863594,63.842491
2646000000,77.338364,62.800941
2647000000,76.822701,61.656303
2648000000,76.367912,60.390976
2649000000,75.747551,59.149738
2650000000,75.23024,58.083836
2651000000,74.944069,57.014088
2652000000,74.175415,55.574562
2653000000,73.65744,54.604282
2654000000,73.260414,53.565121
2655000000,72.283897,52.109188
2656000000,71.666496,50.931248
2657000000,71.072029,49.824856
2658000000,70.368324,48.554432
2659000000,69.588417,47.436424
2660000000,68.864021,46.044365
2661000000,68.211533,44.792786
2662000000,67.578918,43.552979
2663000000,66.754578,42.383907
2664000000,66.151772,41.208763
2665000000,65.31189,39.85741
2666000000,64.546165,38.676006
2667000000,63.67601,37.196274
2668000000,63.087807,35.872471
2669000000,61.966091,34.692684
2670000000,61.059002,33.277607
2671000000,60.214314,32.100746
2672000000,59.251091,30.597315
2673000000,58.46487,29.320982
2674000000,57.670696,27.798166
2675000000,56.681652,26.519688
2676000000,55.816395,25.137545
2677000000,54.802044,23.746803
2678000000,53.84174,22.259161
2679000000,52.877735,20.782549
2680000000,52.027706,19.434685
2681000000,51.102646,17.800764
2682000000,50.281872,16.550644
2683000000,49.595142,15.085293
2684000000,48.457077,13.544671
2685000000,47.448071,11.882189
2686000000,46.753002,10.369092
2687000000,46.226715,9.0179405
2688000000,45.530266,7.2885156
2689000000,44.880638,5.9581575
2690000000,44.727943,4.4985118
2691000000,44.355682,2.6557937
2692000000,44.725975,1.3406286
2693000000,45.358059,-0.43945396
2694000000,47.289761,-1.6187711
2695000000,50.853222,-3.5036311
2696000000,57.435696,-4.8630924
2697000000,72.292503,-6.4825511
2698000000,108.54443,-8.2957382
2699000000,147.91693,-9.4800053
2700000000,168.89954,-11.250309
2701000000,177.84962,-12.602326
2702000000,-177.82727,-14.444202
2703000000,-176.10645,-16.055189
2704000000,-174.96907,-17.637884
2705000000,-174.52785,-18.931042
2706000000,-174.56276,-20.488071
2707000000,-175.07802,-22.342607
2708000000,-175.67168,-23.851915
2709000000,-176.28166,-25.352411
2710000000,-177.08115,-26.547049
2711000000,-177.94563,-28.253988
2712000000,-178.93787,-29.743107
2713000000,-179.94835,-30.945459
2714000000,179.39456,-32.311714
2715000000,178.27599,-33.822563
2716000000,177.23573,-35.21056
2717000000,176.13579,-36.616219
2718000000,174.96494,-37.887478
2719000000,174.05463,-39.408844
2720000000,172.83636,-40.729778
2721000000,171.82104,-41.873875
2722000000,171.00052,-43.096806
2723000000,170.14191,-44.322872
2724000000,168.83717,-45.765759
2725000000,168.03369,-46.61515
2726000000,166.95045,-48.051086
2727000000,165.73759,-49.319302
2728000000,164.73618,-50.539185
2729000000,163.67921,-51.410011
2730000000,162.91881,-52.487186
2731000000,162.07687,-53.538467
2732000000,161.22316,-54.639053
2733000000,160.20844,-55.708965
2734000000,159.41106,-56.704945
2735000000,158.492,-57.816471
2736000000,157.67148,-58.708046
2737000000,156.86412,-59.65802
2738000000,155.97324,-60.592079
2739000000,154.90919,-61.809128
2740000000,154.25404,-62.339111
2741000000,153.35211,-63.291805
2742000000,152.52974,-64.246956
2743000000,151.84424,-65.167763
2744000000,151.08385,-65.819572
2745000000,150.62965,-66.572044
2746000000,149.79597,-67.409317
2747000000,149.16934,-68.094696
2748000000,148.55621,-68.907143
2749000000,147.72559,-69.642593
2750000000,147.02869,-70.239777
2751000000,146.53705,-70.836151
2752000000,145.69907,-71.761162
2753000000,144.90715,-72.471992
2754000000,144.48712,-73.042648
2755000000,143.8145,-73.596367
2756000000,143.50383,-74.186844
2757000000,142.71236,-74.635193
2758000000,142.1019,-75.280884
2759000000,141.54105,-75.793678
2760000000,141.02766,-76.318314
2761000000,140.3026,-77.139252
2762000000,139.97481,-77.381813
2763000000,139.46684,-78.091995
2764000000,138.79094,-78.639771
2765000000,138.20752,-79.390419
2766000000,137.75014,-79.643822
2767000000,137.3069,-80.172043
2768000000,136.88272,-80.595551
2769000000,136.2597,-80.86705
2770000000,135.98096,-81.411201
2771000000,135.70541,-81.464142
2772000000,134.86229,-82.390984
2773000000,134.5533,-82.458214
2774000000,134.06436,-82.97567
2775000000,133.77873,-83.294556
2776000000,133.23137,-83.640053
2777000000,132.79912,-83.797577
2778000000,132.31874,-84.439697
2779000000,131.94835,-84.882706
2780000000,131.66119,-85.188354
2781000000,131.21761,-85.699844
2782000000,130.91963,-85.578163
2783000000,130.26689,-86.209641
2784000000,130.03081,-86.349724
2785000000,129.35432,-86.847717
2786000000,129.28136,-86.395203
2787000000,129.12416,-86.989883
2788000000,128.62973,-87.284828
2789000000,128.3194,-87.413605
2790000000,127.89382,-87.870316
2791000000,127.41107,-87.693855
2792000000,127.0308,-88.193535
2793000000,126.60957,-88.39772
2794000000,126.62256,-88.405418
2795000000,125.99755,-88.715225
2796000000,125.93201,-88.521347
2797000000,125.58523,-89.055824
2798000000,125.06784,-88.995804
2799000000,124.91015,-89.162834
2800000000,124.50203,-89.93943
2801000000,124.25291,-89.603043
2802000000,123.88644,-89.768333
2803000000,123.5454,-89.93074
2804000000,123.44422,-90.16288
2805000000,123.07828,-89.901207
2806000000,122.81647,-90.335831
2807000000,122.34067,-90.994255
2808000000,122.18868,-90.570656
2809000000,122.0923,-90.478905
2810000000,121.5083,-90.761734
2811000000,121.31935,-90.181709
2812000000,121.13192,-90.76281
2813000000,120.71117,-90.660568
2814000000,120.42274,-91.284088
2815000000,120.37428,-90.572815
2816000000,120.07072,-90.787651
2817000000,119.68759,-90.703239
2818000000,119.65633,-91.045807
2819000000,119.38136,-90.873009
2820000000,119.08054,-90.947586
2821000000,118.66104,-91.432594
2822000000,118.58153,-90.488533
2823000000,118.40833,-90.939919
2824000000,118.08755,-90.565239
2825000000,117.67177,-90.765709
2826000000,117.61797,-90.917053
2827000000,117.48091,-91.134659
2828000000,117.09726,-90.427399
2829000000,116.96377,-90.146439
2830000000,116.6179,-90.667168
2831000000,116.51886,-90.598
2832000000,116.2212,-90.126846
2833000000,116.15971,-90.154236
2834000000,115.68901,-90.201637
2835000000,115.44326,-89.618065
2836000000,115.28241,-89.778877
2837000000,115.12939,-90.099213
2838000000,114.9159,-88.66922
2839000000,114.67714,-89.3983
2840000000,114.77854,-89.267014
2841000000,114.22723,-88.729851
2842000000,114.1835,-88.954231
2843000000,114.02052,-88.42524
2844000000,113.86901,-88.306267
2845000000,113.29403,-88.130447
2846000000,113.191,-88.433014
2847000000,112.95828,-88.106277
2848000000,113.00337,-88.232384
2849000000,112.67793,-87.816254
2850000000,112.57716,-86.550789
2851000000,112.30357,-87.390327
2852000000,112.25017,-87.012993
2853000000,111.87116,-86.51545
2854000000,111.60271,-87.551483
2855000000,111.54996,-88.419037
2856000000,111.3925,-86.140213
2857000000,111.15932,-85.886635
2858000000,110.86932,-86.171585
2859000000,110.98374,-84.981308
2860000000,110.6087,-85.449402
2861000000,110.41253,-85.068802
2862000000,110.36278,-85.676437
2863000000,110.07085,-84.941757
2864000000,109.80566,-84.411659
2865000000,109.6265,-82.951996
2866000000,109.50962,-84.928406
2867000000,109.37328,-83.695045
2868000000,109.2169,-83.406837
2869000000,109.07537,-83.737717
2870000000,109.02477,-82.845261
2871000000,108.74496,-82.945152
2872000000,108.64307,-83.947784
2873000000,108.51551,-84.384987
2874000000,108.41694,-83.126488
2875000000,108.06256,-82.930092
2876000000,108.01852,-82.796196
2877000000,107.74298,-81.88485
2878000000,107.67634,-82.112885
2879000000,107.46051,-80.451729
2880000000,107.23771,-80.21563
2881000000,107.17552,-81.706955
2882000000,107.18843,-79.590431
2883000000,106.93262,-80.243164
2884000000,106.86852,-78.562737
2885000000,106.54968,-79.197807
2886000000,106.25169,-77.862862
2887000000,106.25814,-78.314377
2888000000,106.09422,-78.23027
2889000000,105.85896,-79.608856
2890000000,105.59676,-76.914154
2891000000,105.52098,-76.581078
2892000000,105.4194,-76.418182
2893000000,105.56462,-75.445313
2894000000,105.06628,-76.156998
2895000000,104.87253,-75.977051
2896000000,105.12003,-75.994278
2897000000,104.58471,-75.739891
2898000000,104.6456,-74.768127
2899000000,104.44702,-73.495087
2900000000,104.40583,-74.79924
2901000000,104.14362,-75.387047
2902000000,103.92818,-74.957375
2903000000,103.91708,-71.675629
2904000000,103.71256,-72.135956
2905000000,103.59486,-75.002701
2906000000,103.46358,-74.383041
2907000000,103.40221,-73.198524
2908000000,102.87514,-71.749199
2909000000,102.94921,-71.843849
2910000000,102.85941,-73.819328
2911000000,102.68732,-73.242531
2912000000,102.48556,-76.01429
2913000000,102.45248,-74.60363
2914000000,102.3647,-71.374687
2915000000,102.13699,-73.488113
2916000000,102.03871,-74.396606
2917000000,101.97483,-73.044762
2918000000,101.92181,-73.961418
2919000000,101.67701,-75.146988
2920000000,101.57137,-72.103302
2921000000,101.51364,-72.573608
2922000000,101.06543,-72.651291
2923000000,101.0817,-71.710228
2924000000,101.20279,-71.259315
2925000000,100.8548,-73.096367
2926000000,100.9998,-72.322449
2927000000,100.69301,-70.138878
2928000000,100.59985,-71.072639
2929000000,100.29292,-68.491539
2930000000,100.4513,-74.18644
2931000000,100.02554,-70.890411
2932000000,100.03017,-71.427849
2933000000,99.779861,-72.365562
2934000000,99.633827,-71.042656
2935000000,99.611046,-74.085304
2936000000,99.597641,-71.480873
2937000000,99.295662,-72.995964
2938000000,99.32225,-73.395035
2939000000,99.013405,-71.925323
2940000000,99.096603,-73.847069
2941000000,98.876312,-74.403252
2942000000,98.794785,-70.341255
2943000000,98.574875,-71.975128
2944000000,98.547562,-72.869995
2945000000,98.367355,-76.333473
2946000000,98.35685,-73.263977
2947000000,98.134872,-73.685219
2948000000,98.063919,-76.049889
2949000000,97.926048,-76.705139
2950000000,97.963486,-79.302757
2951000000,97.7966,-78.745064
2952000000,97.519531,-77.616821
2953000000,97.363174,-77.59433
2954000000,97.199104,-78.551483
2955000000,97.058273,-75.622108
2956000000,97.010796,-78.458679
2957000000,97.007835,-78.90313
2958000000,96.948151,-77.912613
2959000000,96.596252,-78.084198
2960000000,96.575371,-80.732986
2961000000,96.659164,-79.474663
2962000000,96.556671,-82.046623
2963000000,96.51506,-79.33493
2964000000,96.121315,-76.371147
2965000000,96.174278,-81.194405
2966000000,95.860504,-78.811317
2967000000,95.92498,-84.003403
2968000000,95.760345,-79.443588
2969000000,95.625114,-83.301399
2970000000,95.461685,-79.251846
2971000000,95.455299,-83.408775
2972000000,95.421028,-79.832977
2973000000,95.048622,-81.828941
2974000000,95.094421,-83.966202
2975000000,94.867455,-83.345772
2976000000,94.770485,-84.351891
2977000000,94.76635,-87.115692
2978000000,94.622353,-86.856735
2979000000,94.417023,-87.865349
2980000000,94.156898,-85.472252
2981000000,94.180771,-86.271614
2982000000,94.181488,-88.386284
2983000000,94.100533,-83.262115
2984000000,94.034164,-88.145462
2985000000,93.89785,-86.712296
2986000000,93.798965,-85.463341
2987000000,93.64814,-84.645134
2988000000,93.467758,-85.599464
2989000000,93.382835,-83.693085
2990000000,93.37114,-84.95417
2991000000,93.205658,-87.754524
2992000000,92.970055,-85.859108
2993000000,92.92083,-85.525169
2994000000,92.84951,-88.203087
2995000000,92.788635,-86.295837
2996000000,92.662743,-85.398399
2997000000,92.446465,-87.81411
2998000000,92.341087,-86.061226
2999000000,92.460304,-90.860672
3000000000,92.297058,-90.974045
3001000000,92.064552,-88.11734
3002000000,92.014503,-90.227325
3003000000,91.953613,-92.441116
3004000000,91.896439,-91.194214
3005000000,91.683403,-92.945007
3006000000,91.717926,-96.008377
3007000000,91.482826,-93.86232
3008000000,91.359276,-96.170639
3009000000,91.426094,-94.59758
3010000000,91.123367,-92.730629
3011000000,91.065918,-88.772896
3012000000,91.153473,-95.925171
3013000000,90.874962,-98.832832
3014000000,90.7201,-100.22007
3015000000,90.680458,-96.51738
3016000000,90.449631,-94.891678
3017000000,90.336273,-94.562393
3018000000,90.564766,-94.866638
3019000000,90.080444,-97.296318
3020000000,90.29541,-95.418686
3021000000,89.942177,-98.186333
3022000000,89.81131,-97.442261
3023000000,89.972504,-97.908623
3024000000,89.704712,-99.365433
3025000000,89.676582,-99.050934
3026000000,89.58416,-99.50042
3027000000,89.616852,-100.79412
3028000000,89.429443,-98.613968
3029000000,89.219315,-97.353149
3030000000,89.007164,-101.49775
3031000000,89.198448,-97.596153
3032000000,88.980957,-96.02491
3033000000,88.823143,-97.391289
3034000000,89.011772,-98.929863
3035000000,88.776268,-96.183365
3036000000,88.753029,-96.701424
3037000000,88.599678,-100.59167
3038000000,88.378853,-98.29715
3039000000,88.490791,-98.386108
3040000000,88.054771,-99.459457
3041000000,88.131966,-98.143288
3042000000,88.029655,-100.02755
3043000000,87.781128,-99.730057
3044000000,87.758728,-100.75761
3045000000,87.630791,-97.65641
3046000000,87.54248,-98.768646
3047000000,87.614937,-96.650215
3048000000,87.206467,-100.13119
3049000000,86.956474,-99.473518
3050000000,87.098557,-98.08429
3051000000,87.07283,-101.77361
3052000000,86.936501,-96.432976
3053000000,86.877716,-99.918465
3054000000,86.653465,-100.23494
3055000000,86.665939,-102.28036
3056000000,86.494919,-102.7317
3057000000,86.510239,-101.37876
3058000000,86.349342,-107.68439
3059000000,86.127213,-106.40479
3060000000,86.180267,-101.8417
3061000000,85.983482,-104.57292
3062000000,85.954277,-103.53284
3063000000,85.785011,-108.57627
3064000000,85.838844,-106.63378
3065000000,85.635536,-108.96615
3066000000,85.601677,-108.55721
3067000000,85.529549,-108.94209
3068000000,85.477486,-109.78728
3069000000,85.36113,-107.36231
3070000000,84.964523,-109.60706
3071000000,85.073959,-109.12629
3072000000,85.045586,-109.26054
3073000000,84.84211,-107.92161
3074000000,84.96212,-111.55679
3075000000,84.85923,-109.13401
3076000000,84.569267,-107.39496
3077000000,84.590004,-108.821
3078000000,84.45752,-110.69072
3079000000,84.432716,-109.49004
3080000000,84.249168,-108.82045
3081000000,84.128242,-106.09187
3082000000,84.27343,-106.33473
3083000000,84.021935,-109.89682
3084000000,83.940025,-108.98686
3085000000,83.774452,-110.28128
3086000000,83.900253,-111.10843
3087000000,83.608696,-112.11992
3088000000,83.324242,-108.53768
3089000000,83.185349,-110.17308
3090000000,83.43399,-111.93525
3091000000,83.185745,-108.38305
3092000000,82.964302,-110.99179
3093000000,83.01326,-113.91559
3094000000,83.058807,-111.10696
3095000000,82.872398,-112.65276
3096000000,82.67495,-116.0755
3097000000,82.477188,-117.7975
3098000000,82.592758,-114.38529
3099000000,82.477791,-119.81287
3100000000,82.394173,-116.59674
3101000000,82.219894,-116.96848
3102000000,82.087471,-119.32713
3103000000,81.90831,-120.03413
3104000000,81.946968,-113.14903
3105000000,81.919746,-117.38969
3106000000,81.93988,-117.45118
3107000000,81.53035,-124.28547
3108000000,81.542664,-119.13675
3109000000,81.449646,-118.96394
3110000000,81.485725,-120.88885
3111000000,81.40004,-120.76503
3112000000,81.273125,-122.72088
3113000000,81.213333,-121.48272
3114000000,80.968491,-121.61533
3115000000,81.070381,-120.80397
3116000000,80.774406,-122.32489
3117000000,80.831787,-125.87477
3118000000,80.5373,-123.34518
3119000000,80.563805,-125.47921
3120000000,80.65593,-123.10724
3121000000,80.449638,-124.98615
3122000000,80.440788,-121.99805
3123000000,80.271751,-123.49438
3124000000,80.068977,-123.76554
3125000000,79.906082,-123.17088
3126000000,79.808784,-122.98107
3127000000,79.783669,-123.41113
3128000000,79.83387,-124.48322
3129000000,79.415222,-123.8207
3130000000,79.646881,-123.94647
3131000000,79.433022,-124.24165
3132000000,79.541252,-124.45302
3133000000,79.171814,-127.08526
3134000000,79.017387,-124.82959
3135000000,79.126221,-128.10114
3136000000,78.951096,-127.58901
3137000000,78.962105,-127.5635
3138000000,78.966507,-127.78754
3139000000,78.600258,-130.40866
3140000000,78.633278,-130.71448
3141000000,78.511139,-130.29549
3142000000,78.184753,-127.75167
3143000000,78.36615,-130.02312
3144000000,78.305649,-131.43964
3145000000,78.143433,-127.90894
3146000000,77.898628,-129.58928
3147000000,77.923347,-130.88211
3148000000,77.980568,-132.60532
3149000000,77.801186,-129.40662
3150000000,77.736176,-129.59784
3151000000,77.650993,-132.56996
3152000000,77.434639,-131.99452
3153000000,77.318459,-131.29541
3154000000,77.088127,-132.55884
3155000000,77.186768,-130.23482
3156000000,77.192261,-130.06761
3157000000,77.022881,-131.5114
3158000000,77.097374,-132.1212
3159000000,76.717834,-132.50351
3160000000,76.548538,-132.96158
3161000000,76.550232,-131.42905
3162000000,76.708008,-130.88924
3163000000,76.394226,-132.32919
3164000000,76.408424,-132.72253
3165000000,76.400558,-131.8409
3166000000,76.080452,-134.64333
3167000000,76.156006,-131.91617
3168000000,75.935883,-133.429
3169000000,75.804344,-133.66577
3170000000,75.804649,-135.46986
3171000000,75.727585,-134.43517
3172000000,75.486282,-134.71658
3173000000,75.499908,-134.77788
3174000000,75.408783,-137.01657
3175000000,75.119354,-135.21434
3176000000,75.148453,-134.61447
3177000000,74.920349,-135.20784
3178000000,75.075333,-136.98901
3179000000,74.902077,-138.92958
3180000000,74.80999,-136.72717
3181000000,74.559311,-136.95447
3182000000,74.608559,-137.92024
3183000000,74.612343,-134.03017
3184000000,74.410286,-138.69148
3185000000,74.402061,-138.45789
3186000000,74.42543,-138.01521
3187000000,73.967316,-139.02835
3188000000,74.21701,-139.8286
3189000000,73.950119,-139.08925
3190000000,73.985596,-138.94788
3191000000,73.716476,-139.30127
3192000000,73.637688,-138.18283
3193000000,73.524254,-138.29797
3194000000,73.447807,-140.93304
3195000000,73.386703,-138.95697
3196000000,73.274841,-139.46294
3197000000,73.104492,-141.48535
3198000000,73.058937,-140.75026
3199000000,73.019432,-141.01694
3200000000,72.99086,-140.87067
3201000000,72.750175,-141.2739
3202000000,72.603355,-141.89066
3203000000,72.619942,-143.10594
3204000000,72.571442,-140.961
3205000000,72.556229,-142.34729
3206000000,72.448318,-141.94063
3207000000,72.330193,-142.94139
3208000000,72.20578,-144.74136
3209000000,71.755684,-145.15056
3210000000,71.805267,-143.72409
3211000000,71.741676,-145.96524
3212000000,71.507393,-144.912
3213000000,71.773895,-145.97577
3214000000,71.56514,-148.91711
3215000000,71.502556,-148.12053
3216000000,71.233063,-148.04524
3217000000,71.368805,-149.47003
3218000000,71.165756,-146.89378
3219000000,71.180161,-146.1002
3220000000,71.035522,-145.65388
3221000000,71.068039,-149.51071
3222000000,70.798637,-145.84882
3223000000,70.576172,-149.60649
3224000000,70.702591,-147.0119
3225000000,70.522438,-145.96715
3226000000,70.403725,-149.98151
3227000000,70.111679,-150.23627
3228000000,70.195175,-147.07936
3229000000,69.961609,-152.45564
3230000000,69.935379,-152.09418
3231000000,69.857758,-149.53377
3232000000,69.964851,-151.20937
3233000000,69.498047,-153.50363
3234000000,69.612442,-151.09409
3235000000,69.562912,-152.75171
3236000000,69.344955,-154.28458
3237000000,69.263992,-151.95381
3238000000,69.333229,-155.5425
3239000000,69.017296,-153.85625
3240000000,69.265915,-153.68404
3241000000,68.892334,-155.00787
3242000000,68.985817,-153.19443
3243000000,68.647797,-153.87703
3244000000,68.646912,-153.48138
3245000000,68.496445,-154.89844
3246000000,68.437744,-157.05591
3247000000,68.65844,-155.68529
3248000000,68.023811,-155.59926
3249000000,68.130272,-154.63463
3250000000,68.150291,-153.07507
3251000000,67.742714,-155.36935
3252000000,67.721092,-153.76271
3253000000,67.768898,-157.08032
3254000000,67.657265,-155.92065
3255000000,67.355614,-157.55594
3256000000,67.258842,-156.15086
3257000000,67.369827,-156.70116
3258000000,67.44268,-155.68285
3259000000,66.833496,-156.40895
3260000000,67.086967,-158.79706
3261000000,67.003654,-154.58328
3262000000,66.587845,-158.02733
3263000000,66.785278,-155.10945
3264000000,66.622429,-155.18317
3265000000,66.435524,-157.14717
3266000000,66.423744,-155.52467
3267000000,66.267235,-157.75801
3268000000,66.114159,-156.16837
3269000000,66.185036,-157.32906
3270000000,65.893776,-155.63747
3271000000,66.00705,-158.99321
3272000000,65.788437,-156.93004
3273000000,65.686745,-155.94868
3274000000,65.595543,-158.10045
3275000000,65.57589,-158.92336
3276000000,65.387154,-156.33566
3277000000,65.309052,-158.58469
3278000000,65.375572,-159.27798
3279000000,65.019203,-157.32756
3280000000,65.092377,-157.3152
3281000000,64.72657,-158.06131
3282000000,64.863777,-158.617
3283000000,64.629883,-158.49641
3284000000,64.607513,-158.83629
3285000000,64.506088,-159.21848
3286000000,64.36084,-157.84242
3287000000,64.353409,-158.74385
3288000000,64.076065,-158.63786
3289000000,63.949162,-158.51216
3290000000,64.026955,-160.25827
3291000000,64.097748,-160.14688
3292000000,63.465244,-159.5867
3293000000,63.733521,-162.66902
3294000000,63.596451,-161.28922
3295000000,63.357834,-161.50702
3296000000,63.427113,-160.13579
3297000000,63.113087,-160.71758
3298000000,63.184368,-159.83759
3299000000,63.080952,-160.16386
3300000000,62.691212,-160.23921
3301000000,62.632103,-160.87886
3302000000,62.736458,-161.53896
3303000000,62.576084,-161.58029
3304000000,62.249382,-160.256
3305000000,62.2407,-161.54839
3306000000,62.03434,-161.44673
3307000000,61.916691,-161.8448
3308000000,61.838032,-162.60526
3309000000,61.544876,-160.54445
3310000000,61.843353,-159.7039
3311000000,61.808563,-159.94914
3312000000,61.346733,-161.48167
3313000000,61.446819,-161.50739
3314000000,61.444374,-160.56122
3315000000,61.058605,-160.66606
3316000000,61.172672,-160.21933
3317000000,61.156067,-162.13097
3318000000,60.959938,-162.14249
3319000000,60.766953,-162.04132
3320000000,60.68544,-161.03185
3321000000,60.72588,-161.31105
3322000000,60.316597,-158.78137
3323000000,60.282425,-161.96986
3324000000,60.140499,-162.93556
3325000000,59.852581,-161.09909
3326000000,59.884155,-161.33174
3327000000,59.975719,-162.40556
3328000000,59.952244,-160.57527
3329000000,59.414204,-162.05823
3330000000,59.530331,-161.25475
3331000000,59.622929,-161.905
3332000000,59.284199,-160.76334
3333000000,59.189102,-161.45073
3334000000,59.095943,-160.32887
3335000000,59.06945,-161.1613
3336000000,58.839382,-161.71397
3337000000,58.892117,-160.28053
3338000000,58.595482,-161.78334
3339000000,58.52206,-162.15543
3340000000,58.566414,-159.55074
3341000000,58.3363,-161.90895
3342000000,58.149548,-162.12616
3343000000,58.176628,-162.92133
3344000000,57.936089,-160.93929
3345000000,57.898529,-161.42711
3346000000,57.697613,-161.27289
3347000000,57.489601,-161.91086
3348000000,57.52227,-160.64244
3349000000,57.401718,-161.18024
3350000000,57.247379,-160.67677
3351000000,56.881561,-161.56046
3352000000,56.98621,-161.88391
3353000000,56.678154,-160.47357
3354000000,56.839592,-160.88898
3355000000,56.681534,-162.10379
3356000000,56.56543,-161.7005
3357000000,56.385086,-161.80852
3358000000,56.341919,-161.88002
3359000000,56.058174,-161.68344
3360000000,56.029011,-162.04892
3361000000,55.83633,-161.05365
3362000000,55.516438,-163.27971
3363000000,55.658398,-162.5544
3364000000,55.536068,-162.30338
3365000000,55.366821,-161.98621
3366000000,55.152802,-163.94907
3367000000,55.119614,-162.00415
3368000000,55.132229,-161.06894
3369000000,55.021099,-162.00423
3370000000,54.865852,-162.83472
3371000000,54.935486,-162.23621
3372000000,54.65004,-161.70735
3373000000,54.751656,-161.1107
3374000000,54.365757,-162.12949
3375000000,54.026661,-161.23979
3376000000,53.990681,-161.93709
3377000000,53.938725,-161.58713
3378000000,53.652458,-161.42899
3379000000,53.959801,-159.26247
3380000000,53.544743,-160.91098
3381000000,53.57407,-161.62921
3382000000,53.366287,-161.31316
3383000000,53.021633,-160.35231
3384000000,53.062607,-159.93654
3385000000,52.526119,-160.4866
3386000000,52.752739,-160.14813
3387000000,52.691998,-159.9575
3388000000,52.518421,-157.78683
3389000000,52.231152,-157.75473
3390000000,52.401756,-159.34688
3391000000,52.033234,-158.93188
3392000000,51.798862,-158.5679
3393000000,51.873669,-160.10844
3394000000,51.720276,-157.88606
3395000000,51.740799,-158.15846
3396000000,51.493095,-158.30365
3397000000,51.400707,-158.03574
3398000000,51.288467,-158.6701
3399000000,50.924179,-158.74554
3400000000,50.867565,-158.00929
3401000000,50.959949,-157.63551
3402000000,50.66407,-157.88882
3403000000,50.69846,-157.37321
3404000000,50.363789,-158.48944
3405000000,50.171093,-157.40086
3406000000,50.31546,-157.7644
3407000000,50.197422,-156.13055
3408000000,49.888332,-156.73978
3409000000,49.681541,-156.62672
3410000000,49.709743,-156.12524
3411000000,49.579304,-154.95743
3412000000,49.354465,-155.10254
3413000000,49.307076,-154.88216
3414000000,49.277855,-153.62323
3415000000,49.082348,-154.78514
3416000000,49.006336,-154.03841
3417000000,48.81992,-154.6649
3418000000,48.654499,-153.36139
3419000000,48.197769,-153.86183
3420000000,48.307228,-153.65036
3421000000,48.112995,-152.35095
3422000000,47.780731,-152.65837
3423000000,47.92128,-152.03128
3424000000,47.610451,-151.44583
3425000000,47.438034,-150.96791
3426000000,47.408573,-150.0672
3427000000,47.25489,-150.72958
3428000000,47.167511,-150.36909
3429000000,46.993061,-149.76892
3430000000,46.986427,-150.20717
3431000000,46.933029,-149.71036
3432000000,46.585278,-149.08005
3433000000,46.37896,-149.75629
3434000000,46.405518,-149.21426
3435000000,46.163124,-149.13756
3436000000,46.049622,-148.35739
3437000000,45.922005,-148.76869
3438000000,45.63266,-148.03581
3439000000,45.596931,-147.97406
3440000000,45.526371,-147.6382
3441000000,45.40152,-147.85007
3442000000,45.008183,-147.27406
3443000000,45.072418,-147.72713
3444000000,44.79739,-147.71423
3445000000,44.511673,-147.31154
3446000000,44.622723,-146.82854
3447000000,44.249748,-147.04062
3448000000,44.267796,-147.31454
3449000000,44.212749,-147.15381
3450000000,43.733158,-147.04834
3451000000,43.914597,-146.40965
3452000000,43.600311,-146.224
3453000000,43.453518,-145.62206
3454000000,42.978096,-146.86183
3455000000,43.345455,-145.81641
3456000000,42.895424,-145.59261
3457000000,42.849628,-145.47295
3458000000,42.737217,-145.34094
3459000000,42.720924,-144.53107
3460000000,42.691452,-144.55792
3461000000,42.277199,-145.02925
3462000000,42.065441,-144.20343
3463000000,41.749851,-143.92593
3464000000,41.963066,-143.8539
3465000000,41.841972,-143.17619
3466000000,41.690037,-143.21581
3467000000,41.221771,-142.56126
3468000000,40.982975,-143.17987
3469000000,40.896603,-142.41289
3470000000,40.66066,-142.08939
3471000000,40.476589,-142.61475
3472000000,40.312977,-142.48148
3473000000,40.447254,-141.81903
3474000000,39.887432,-142.1537
3475000000,39.924473,-141.95912
3476000000,39.779831,-142.13387
3477000000,39.790333,-142.21204
3478000000,39.501865,-141.83301
3479000000,39.279625,-142.04564
3480000000,39.129711,-141.99344
3481000000,39.021812,-142.28297
3482000000,38.84156,-141.88643
3483000000,38.781639,-141.96507
3484000000,38.430676,-141.6926
3485000000,38.390789,-141.60342
3486000000,37.985317,-142.00127
3487000000,37.885086,-142.12689
3488000000,37.728939,-141.81779
3489000000,37.708431,-142.13789
3490000000,37.55447,-141.89252
3491000000,37.341572,-141.88536
3492000000,37.07024,-141.43887
3493000000,36.901131,-141.73997
3494000000,36.841957,-141.53383
3495000000,36.573383,-141.63075
3496000000,36.372494,-141.62331
3497000000,36.331196,-141.5257
3498000000,36.085697,-141.57289
3499000000,35.766262,-141.52147
3500000000,35.657234,-141.97037
3501000000,35.602394,-141.34416
3502000000,35.106434,-141.60002
3503000000,35.166,-141.04201
3504000000,34.864586,-141.60107
3505000000,34.778908,-141.33183
3506000000,34.578079,-141.13138
3507000000,34.483803,-140.69821
3508000000,34.313877,-140.7384
3509000000,33.915436,-141.33499
3510000000,33.979023,-141.04453
3511000000,33.951298,-141.37085
3512000000,33.381084,-141.74664
3513000000,33.197559,-141.13652
3514000000,32.981709,-141.52431
3515000000,32.86784,-141.61644
3516000000,32.611012,-141.95973
3517000000,32.558357,-141.70863
3518000000,32.306679,-141.89252
3519000000,32.092037,-142.33803
3520000000,31.696388,-142.64702
3521000000,31.804787,-142.62769
3522000000,31.489536,-143.00366
3523000000,31.434183,-143.17081
3524000000,31.335335,-143.3334
3525000000,31.145697,-143.28787
3526000000,30.875566,-143.45866
3527000000,30.524874,-143.4343
3528000000,30.156179,-143.94403
3529000000,29.995487,-143.8837
3530000000,30.342169,-143.88066
3531000000,29.635897,-144.57877
3532000000,29.549984,-144.2664
3533000000,29.232716,-144.77377
3534000000,29.076973,-145.19685
3535000000,29.146023,-144.83644
3536000000,28.569435,-145.72488
3537000000,28.8176,-145.4046
3538000000,28.723377,-146.00859
3539000000,28.251516,-146.38458
3540000000,27.977886,-146.51607
3541000000,27.859068,-146.9834
3542000000,27.571007,-146.92149
3543000000,27.285963,-147.23869
3544000000,27.147039,-147.41687
3545000000,27.135984,-147.51778
3546000000,26.932941,-147.92175
3547000000,26.395424,-148.12277
3548000000,26.031467,-148.3681
3549000000,25.953751,-148.38434
3550000000,25.905132,-148.70279
3551000000,25.585531,-149.05099
3552000000,25.49646,-149.49481
3553000000,25.296991,-149.43771
3554000000,25.084133,-150.06978
3555000000,24.701191,-150.2923
3556000000,24.847658,-150.58493
3557000000,24.66684,-150.75217
3558000000,24.208344,-151.24916
3559000000,23.844728,-151.77332
3560000000,23.767199,-152.05486
3561000000,23.548243,-152.31892
3562000000,23.388384,-152.81395
3563000000,22.890722,-153.11476
3564000000,22.983974,-153.50905
3565000000,22.64242,-154.15828
3566000000,22.482065,-154.36743
3567000000,22.21907,-154.81812
3568000000,22.072084,-155.26074
3569000000,21.641691,-155.6981
3570000000,21.813364,-156.04553
3571000000,21.542881,-156.4801
3572000000,21.239456,-157.05341
3573000000,21.353472,-157.0701
3574000000,20.926191,-157.93867
3575000000,20.326986,-158.5558
3576000000,20.168957,-159.064
3577000000,20.171509,-159.38634
3578000000,19.8074,-159.88098
3579000000,19.415071,-160.54913
3580000000,19.526285,-160.88501
3581000000,18.970955,-161.7206
3582000000,18.710922,-162.21861
3583000000,18.762802,-162.66356
3584000000,18.409506,-163.20665
3585000000,18.510921,-163.6485
3586000000,17.826042,-164.59309
3587000000,18.297602,-164.64877
3588000000,17.627676,-165.52579
3589000000,17.537989,-166.08041
3590000000,16.958784,-167.04521
3591000000,16.749384,-167.49022
3592000000,16.931688,-167.89485
3593000000,16.65461,-168.70816
3594000000,16.345835,-169.24509
3595000000,16.085514,-170.08542
3596000000,16.106823,-170.6814
3597000000,15.788113,-171.24049
3598000000,15.781779,-171.92145
3599000000,15.295116,-172.64732
3600000000,15.138654,-173.40384
3601000000,15.042566,-173.96698
3602000000,14.761539,-174.80882
3603000000,14.484468,-175.54276
3604000000,14.272449,-176.46162
3605000000,14.232542,-177.02763
3606000000,14.057702,-177.74283
3607000000,13.729491,-178.57129
3608000000,13.508678,-179.39378
3609000000,13.659748,-179.79909
3610000000,13.16731,179.16193
3611000000,13.111806,178.52014
3612000000,12.837841,177.4908
3613000000,12.542415,176.71242
3614000000,12.784532,176.14981
3615000000,12.458346,175.29424
3616000000,12.077718,174.23474
3617000000,11.767947,173.58295
3618000000,11.540803,172.57545
3619000000,11.61009,172.01427
3620000000,11.301208,171.27617
3621000000,11.642344,170.77443
3622000000,10.978693,169.77423
3623000000,10.844754,168.88185
3624000000,10.436545,167.73373
3625000000,10.465624,167.0453
3626000000,10.369405,166.24828
3627000000,10.167542,165.54973
3628000000,10.146178,164.77626
3629000000,9.8022919,163.69655
3630000000,9.5560904,162.71255
3631000000,9.7676344,162.07755
3632000000,9.8276901,161.38901
3633000000,9.4351292,160.42542
3634000000,8.8343325,159.17622
3635000000,8.6000757,158.4129
3636000000,8.8450451,157.73621
3637000000,8.7047052,156.90923
3638000000,8.4547491,156.06177
3639000000,8.3039331,155.20395
3640000000,8.1644907,154.43654
3641000000,7.874135,153.36452
3642000000,7.5393243,152.55952
3643000000,7.5690064,151.74956
3644000000,7.5193295,150.86319
3645000000,7.4462919,150.16299
3646000000,7.1083455,149.37056
3647000000,7.0276742,148.25847
3648000000,6.7099133,147.56929
3649000000,6.3882818,146.61295
3650000000,6.3352036,145.78189
3651000000,6.4279208,145.08748
3652000000,6.2426801,144.18407
3653000000,5.9594374,143.49043
3654000000,5.6638155,142.60608
3655000000,5.6533227,141.71976
3656000000,5.1586328,140.59149
3657000000,4.909513,140.10544
3658000000,4.6800022,138.95154
3659000000,4.5777755,138.00325
3660000000,4.5555487,137.52922
3661000000,4.2204537,136.57925
3662000000,4.0941701,136.0502
3663000000,3.8790314,135.06673
3664000000,3.7164857,134.41025
3665000000,3.5035555,133.40858
3666000000,3.3308756,132.75838
3667000000,3.1815994,131.94901
3668000000,3.0326757,131.13341
3669000000,2.8420672,130.48676
3670000000,2.4991434,129.45016
3671000000,2.4401684,128.68123
3672000000,2.1775246,128.10329
3673000000,1.8645493,127.35654
3674000000,1.7094918,126.5845
3675000000,1.6220015,125.69743
3676000000,1.4069766,125.00943
3677000000,0.92549032,124.03538
3678000000,0.45742753,122.98185
3679000000,0.50323737,122.55458
3680000000,0.12385473,121.75279
3681000000,-0.12410688,120.87688
3682000000,-0.27224973,120.2994
3683000000,-0.72621673,119.37204
3684000000,-0.69374114,118.7925
3685000000,-1.2639108,117.94069
3686000000,-1.154725,117.50383
3687000000,-1.7331529,116.59638
3688000000,-1.9770265,115.73676
3689000000,-2.3334248,114.95524
3690000000,-2.5374341,114.30527
3691000000,-2.7445598,113.72468
3692000000,-2.4265871,113.25896
3693000000,-3.1735179,112.36666
3694000000,-3.7823262,111.27477
3695000000,-3.6492817,111.15619
3696000000,-4.0735254,110.12815
3697000000,-4.5194831,109.411
3698000000,-4.6935024,108.80115
3699000000,-4.8531222,108.06034
3700000000,-5.1823506,107.49097
3701000000,-5.5298634,106.51134
3702000000,-6.0820684,105.82497
3703000000,-6.3150959,105.19757
3704000000,-6.6192493,104.55242
3705000000,-6.978785,103.80969
3706000000,-7.2547131,102.98199
3707000000,-7.5887518,102.48876
3708000000,-7.805923,101.6824
3709000000,-8.2173128,101.08202
3710000000,-8.5508976,100.1465
3711000000,-8.9545183,99.853806
3712000000,-9.0997305,99.035149
3713000000,-9.1851721,98.586189
3714000000,-9.8500566,97.739967
3715000000,-9.9775009,97.020485
3716000000,-10.214545,96.321335
3717000000,-10.639667,96.044991
3718000000,-10.942885,95.227547
3719000000,-11.516979,94.540634
3720000000,-11.718378,93.927208
3721000000,-11.885942,93.350624
3722000000,-12.418205,92.582161
3723000000,-12.705,91.944092
3724000000,-12.944528,91.341835
3725000000,-13.26407,90.621849
3726000000,-13.733518,90.025444
3727000000,-14.050476,89.461708
3728000000,-14.380374,88.918144
3729000000,-14.471219,88.345322
3730000000,-15.112316,87.532478
3731000000,-15.159569,86.902534
3732000000,-15.662868,86.41497
3733000000,-16.137888,85.628021
3734000000,-16.543388,85.074547
3735000000,-17.027855,84.350021
3736000000,-17.130926,83.86692
3737000000,-17.767176,83.296295
3738000000,-17.701759,82.743538
3739000000,-18.386211,82.115227
3740000000,-19.112757,81.342064
3741000000,-19.081448,80.706337
3742000000,-19.719584,80.195183
3743000000,-19.681374,79.557983
3744000000,-20.141836,78.906769
3745000000,-20.398331,78.33226
3746000000,-21.018454,77.632202
3747000000,-21.042242,77.28968
3748000000,-21.353321,76.654282
3749000000,-22.263872,75.699638
3750000000,-22.32531,75.194435
3751000000,-22.762905,74.640991
3752000000,-23.223083,73.986145
3753000000,-23.508537,73.487289
3754000000,-23.718204,72.849388
3755000000,-24.273575,72.208084
3756000000,-24.909594,71.499992
3757000000,-25.035234,70.770714
3758000000,-25.292606,70.326653
3759000000,-25.50313,69.808411
3760000000,-26.047012,69.333237
3761000000,-26.159134,68.543709
3762000000,-26.540686,68.03434
3763000000,-27.132095,67.469383
3764000000,-27.518425,66.808228
3765000000,-27.589931,66.311157
3766000000,-28.092344,65.633369
3767000000,-28.504459,65.105766
3768000000,-28.983994,64.521301
3769000000,-29.25577,63.848103
3770000000,-29.66511,63.233345
3771000000,-29.741198,62.821156
3772000000,-30.716562,61.92387
3773000000,-30.592335,61.573841
3774000000,-30.899323,60.916096
3775000000,-31.561214,60.168072
3776000000,-31.910303,59.78294
3777000000,-32.022968,59.169731
3778000000,-32.533997,58.459351
3779000000,-33.068546,57.767834
3780000000,-33.151131,57.379162
3781000000,-33.403954,56.832634
3782000000,-33.921352,56.189213
3783000000,-34.21846,55.680904
3784000000,-34.450924,54.833206
3785000000,-34.943478,54.334263
3786000000,-35.192009,53.78381
3787000000,-35.315327,53.275318
3788000000,-35.691006,52.787357
3789000000,-35.972572,51.863255
3790000000,-36.222237,51.457943
3791000000,-36.561455,50.870636
3792000000,-36.630936,50.504986
3793000000,-36.848694,49.975487
3794000000,-37.528267,49.270454
3795000000,-37.498173,48.727859
3796000000,-38.215042,47.886024
3797000000,-38.495491,47.398891
3798000000,-38.38298,47.031132
3799000000,-38.908009,46.346298
3800000000,-39.089928,45.884785
3801000000,-39.579014,45.174038
3802000000,-39.547066,44.613518
3803000000,-39.887962,44.153774
3804000000,-40.046108,43.690502
3805000000,-40.016422,43.053246
3806000000,-40.554363,42.35442
3807000000,-40.585693,41.845139
3808000000,-41.029205,41.208542
3809000000,-41.096539,40.693089
3810000000,-41.269241,40.156933
3811000000,-41.465897,39.403049
3812000000,-41.865883,38.858406
3813000000,-41.889439,38.363819
3814000000,-41.891136,37.732155
3815000000,-42.024094,37.133186
3816000000,-42.389164,36.609188
3817000000,-42.587929,36.198063
3818000000,-42.144341,35.582466
3819000000,-42.348282,35.05619
3820000000,-42.529282,34.521332
3821000000,-42.452179,34.097008
3822000000,-42.53323,33.389153
3823000000,-42.510204,32.864895
3824000000,-42.505516,32.136696
3825000000,-42.084606,31.677376
3826000000,-42.271832,31.067223
3827000000,-41.885754,30.628424
3828000000,-41.600006,30.153633
3829000000,-41.090351,29.537697
3830000000,-41.554089,28.864838
3831000000,-41.145039,28.369602
3832000000,-41.14941,27.752924
3833000000,-40.640396,27.247219
3834000000,-40.552929,26.716696
3835000000,-39.75732,26.109022
3836000000,-39.333008,25.660185
3837000000,-39.268974,24.962681
3838000000,-38.669464,24.56074
3839000000,-38.436684,23.994938
3840000000,-37.921925,23.440546
3841000000,-37.063835,22.752398
3842000000,-36.997036,22.238939
3843000000,-35.628586,21.68685
3844000000,-35.570744,21.332916
3845000000,-33.742271,20.863028
3846000000,-33.20293,20.175619
3847000000,-31.899883,19.779501
3848000000,-30.668755,19.088371
3849000000,-29.591541,18.405596
3850000000,-27.912291,18.152266
3851000000,-26.17473,17.694197
3852000000,-25.351471,17.050346
3853000000,-24.427174,16.425192
3854000000,-21.928478,16.068048
3855000000,-20.607119,15.468547
3856000000,-17.610897,15.026486
3857000000,-16.948004,14.384914
3858000000,-15.3304,13.803013
3859000000,-11.857773,13.467209
3860000000,-10.124845,12.681325
3861000000,-7.8910875,12.40388
3862000000,-5.3220863,11.856218
3863000000,-3.7689321,11.225321
3864000000,-0.67096031,10.77053
3865000000,1.6912199,10.282105
3866000000,3.6502597,9.6670294
3867000000,6.7341442,9.2750359
3868000000,7.9522586,8.600852
3869000000,9.5704193,8.0188894
3870000000,12.987092,7.6266651
3871000000,14.248289,7.1168218
3872000000,17.103399,6.7410107
3873000000,19.30154,6.2174549
3874000000,19.983835,5.5801015
3875000000,22.010199,5.1884742
3876000000,24.104856,4.7205691
3877000000,24.740875,3.9509742
3878000000,27.027809,3.7277884
3879000000,28.556593,3.1962793
3880000000,29.805611,2.7268429
3881000000,31.3022,2.0718446
3882000000,32.234051,1.6280321
3883000000,33.318283,1.3044773
3884000000,34.383961,0.57178068
3885000000,35.934349,0.39829069
3886000000,36.429867,-0.22300452
3887000000,37.326958,-0.60122299
3888000000,37.930325,-1.1586607
3889000000,38.8629,-1.7398897
3890000000,39.535103,-2.2078211
3891000000,40.041218,-2.6574876
3892000000,40.656837,-3.1565924
3893000000,41.275288,-3.6065834
3894000000,41.289658,-4.2137537
3895000000,42.374294,-4.5603137
3896000000,42.526577,-5.0027485
3897000000,42.700123,-5.5846162
3898000000,43.176807,-6.0559254
3899000000,43.123734,-6.4899006
3900000000,43.476421,-6.9931345
3901000000,44.169235,-7.3081098
3902000000,43.716408,-7.9722223
3903000000,43.769051,-8.4943247
3904000000,44.42123,-8.6426973
3905000000,44.993378,-9.173502
3906000000,44.459568,-9.8512268
3907000000,45.004173,-10.139194
3908000000,44.312649,-10.839623
3909000000,44.307671,-11.212775
3910000000,44.932518,-11.545244
3911000000,44.750549,-11.989348
3912000000,45.343987,-12.475286
3913000000,44.918476,-13.056619
3914000000,44.706402,-13.330303
3915000000,44.740601,-13.887842
3916000000,44.548065,-14.344224
3917000000,44.98521,-14.589869
3918000000,44.664349,-15.073244
3919000000,44.759003,-15.498435
3920000000,44.4944,-16.149702
3921000000,44.121387,-16.598688
3922000000,43.694496,-17.166693
3923000000,43.950981,-17.34726
3924000000,43.090382,-18.071947
3925000000,43.289665,-18.374197
3926000000,43.723309,-18.82761
3927000000,43.39481,-19.19997
3928000000,42.730171,-19.580412
3929000000,43.037731,-20.195272
3930000000,42.634029,-20.552505
3931000000,42.626793,-20.851078
3932000000,42.359493,-21.534737
3933000000,42.512798,-21.817341
3934000000,42.084026,-22.226295
3935000000,41.93174,-22.598221
3936000000,41.546982,-23.07008
3937000000,41.602417,-23.499687
3938000000,41.192406,-23.963308
3939000000,40.695892,-24.438667
3940000000,40.49696,-24.908928
3941000000,40.506577,-25.280106
3942000000,39.942875,-25.689676
3943000000,40.243149,-25.894135
3944000000,39.75613,-26.532133
3945000000,39.549313,-26.975492
3946000000,39.338737,-27.25894
3947000000,38.97551,-27.633543
3948000000,38.559265,-28.199757
3949000000,37.992561,-28.646248
3950000000,37.768284,-29.073378
3951000000,37.74102,-29.516314
3952000000,37.399796,-29.756815
3953000000,36.875805,-30.292299
3954000000,37.091187,-30.670187
3955000000,36.682274,-31.10631
3956000000,36.42001,-31.522884
3957000000,36.376804,-31.693352
3958000000,35.906845,-32.225735
3959000000,35.821281,-32.563717
3960000000,35.10643,-33.063412
3961000000,35.333893,-33.32169
3962000000,34.984173,-33.96413
3963000000,34.407661,-34.2122
3964000000,34.496635,-34.653683
3965000000,33.847958,-35.037086
3966000000,33.251514,-35.498306
3967000000,33.166492,-35.898304
3968000000,32.78281,-36.254677
3969000000,32.828686,-36.747051
3970000000,32.556118,-37.001709
3971000000,31.81916,-37.461349
3972000000,31.776157,-37.702183
3973000000,31.740931,-38.112545
3974000000,30.864765,-38.623661
3975000000,30.508202,-39.023808
3976000000,30.424316,-39.458813
3977000000,30.220346,-39.827236
3978000000,29.768669,-40.221664
3979000000,29.247919,-40.578869
3980000000,28.917429,-41.195942
3981000000,28.544685,-41.393356
3982000000,28.413166,-41.731171
3983000000,28.188221,-42.330898
3984000000,27.472578,-42.591541
3985000000,27.384295,-42.922783
3986000000,27.083452,-43.566692
3987000000,26.971518,-43.799381
3988000000,26.543146,-44.071484
3989000000,26.113003,-44.51107
3990000000,25.511873,-44.949669
3991000000,25.686083,-45.113651
3992000000,24.60108,-45.755913
3993000000,24.907291,-45.981201
3994000000,24.383669,-46.384552
3995000000,24.331573,-46.776825
3996000000,23.954273,-47.196304
3997000000,23.490223,-47.460724
3998000000,23.421167,-47.748783
3999000000,22.772758,-48.223721
4000000000,22.413031,-48.545387
4001000000,22.078583,-49.041447
4002000000,21.815512,-49.355087
4003000000,21.975819,-49.699078
4004000000,21.107519,-50.257557
4005000000,20.741299,-50.414158
4006000000,20.460363,-51.017323
4007000000,20.102062,-51.071239
4008000000,20.172291,-51.568249
4009000000,19.133617,-52.040756
4010000000,19.251108,-52.059608
4011000000,18.684216,-52.694485
4012000000,18.633749,-52.996307
4013000000,18.212646,-53.408447
4014000000,18.039234,-53.648933
4015000000,17.242214,-54.242992
4016000000,17.320774,-54.32093
4017000000,16.99073,-54.687988
4018000000,16.870972,-55.139961
4019000000,16.265455,-55.683884
4020000000,15.922766,-55.988285
4021000000,15.441246,-56.333275
4022000000,15.357957,-56.746883
4023000000,14.911375,-57.024399
4024000000,14.703536,-57.407978
4025000000,14.077785,-57.765999
4026000000,13.353129,-58.378139
4027000000,13.476788,-58.390873
4028000000,13.355887,-58.789536
4029000000,12.24536,-59.214798
4030000000,12.210485,-59.663574
4031000000,12.368968,-59.788162
4032000000,11.685635,-60.20298
4033000000,11.296,-60.583683
4034000000,11.243937,-61.011452
4035000000,10.667394,-61.263042
4036000000,10.458869,-61.559204
4037000000,10.068241,-61.995499
4038000000,9.5239964,-62.329365
4039000000,9.0477772,-62.891418
4040000000,9.2068357,-63.018734
4041000000,8.3944387,-63.489799
4042000000,8.0085173,-63.797478
4043000000,7.7262878,-64.160774
4044000000,7.1977382,-64.542542
4045000000,7.3321519,-64.758385
4046000000,6.6478686,-65.195
4047000000,6.5473585,-65.404617
4048000000,6.1449933,-65.91758
4049000000,6.1871247,-66.039001
4050000000,5.4265871,-66.70105
4051000000,5.3185768,-66.860229
4052000000,5.1298442,-67.18045
4053000000,4.5505886,-67.606453
4054000000,4.1468706,-68.057327
4055000000,3.8502939,-68.118324
4056000000,3.720057,-68.669708
4057000000,3.2270088,-68.78891
4058000000,2.9633012,-69.288338
4059000000,2.5366507,-69.519157
4060000000,2.375324,-69.672356
4061000000,1.7969257,-70.221802
4062000000,1.2405032,-70.696617
4063000000,1.1314745,-70.967888
4064000000,0.55208904,-71.398735
4065000000,0.23542301,-71.645065
4066000000,0.18467715,-71.90377
4067000000,-0.079292916,-72.273849
4068000000,-0.83564037,-72.642265
4069000000,-1.4252383,-73.203049
4070000000,-1.4918545,-73.233559
4071000000,-1.8773546,-73.653946
4072000000,-1.7991972,-74.031357
4073000000,-2.6647875,-74.248566
4074000000,-2.5262868,-74.533905
4075000000,-3.1123409,-75.1278
4076000000,-3.3884537,-75.384727
4077000000,-3.4149055,-75.589264
4078000000,-4.1608777,-75.870499
4079000000,-4.5203266,-76.23558
4080000000,-4.8336363,-76.807449
4081000000,-5.1392479,-77.034737
4082000000,-5.704247,-77.356644
4083000000,-6.1184349,-77.835266
4084000000,-6.0207243,-77.907257
4085000000,-6.6806216,-78.332787
4086000000,-6.6337533,-78.560349
4087000000,-7.2854266,-78.910866
4088000000,-7.3622856,-79.335464
4089000000,-8.0098581,-79.688873
4090000000,-8.2266588,-79.995506
4091000000,-8.1217661,-80.268921
4092000000,-8.8843365,-80.625092
4093000000,-9.2970934,-80.921097
4094000000,-9.596446,-81.368027
4095000000,-10.199046,-81.724571
4096000000,-10.616279,-81.957443
4097000000,-10.338534,-82.187988
4098000000,-10.955005,-82.568314
4099000000,-11.623081,-82.920807
4100000000,-11.751928,-83.295639
4101000000,-12.215906,-83.460449
4102000000,-12.433947,-83.864174
4103000000,-12.355454,-84.07711
4104000000,-12.974755,-84.389587
4105000000,-13.287688,-84.810387
4106000000,-13.828965,-85.096214
4107000000,-13.763786,-85.341492
4108000000,-14.48496,-85.864388
4109000000,-14.338487,-85.889053
4110000000,-15.304822,-86.520256
4111000000,-15.355755,-86.745201
4112000000,-15.930819,-87.099716
4113000000,-15.877823,-87.278412
4114000000,-16.214575,-87.577644
4115000000,-16.635805,-87.946014
4116000000,-17.60043,-88.543831
4117000000,-17.452942,-88.716568
4118000000,-17.679199,-89.055641
4119000000,-18.220951,-89.23996
4120000000,-18.328436,-89.579323
4121000000,-18.701122,-89.892891
4122000000,-19.462818,-90.245659
4123000000,-19.4816,-90.569649
4124000000,-19.539057,-90.78756
4125000000,-20.036045,-91.015968
4126000000,-20.601097,-91.402641
4127000000,-20.896614,-91.773491
4128000000,-21.324469,-92.169983
4129000000,-21.674953,-92.427734
4130000000,-21.639471,-92.595146
4131000000,-22.068007,-93.015709
4132000000,-22.65564,-93.479042
4133000000,-23.301716,-93.905617
4134000000,-23.348801,-94.059563
4135000000,-23.405056,-94.083687
4136000000,-24.109159,-94.578522
4137000000,-24.559301,-94.891083
4138000000,-25.069775,-95.28775
4139000000,-25.102188,-95.396461
4140000000,-25.58087,-95.890907
4141000000,-25.584347,-96.093491
4142000000,-26.236338,-96.542793
4143000000,-26.145161,-96.710831
4144000000,-26.727358,-97.018234
4145000000,-27.285313,-97.513481
4146000000,-27.542725,-97.594673
4147000000,-27.633053,-97.904633
4148000000,-27.928593,-98.239944
4149000000,-28.419571,-98.609215
4150000000,-29.079462,-98.933289
4151000000,-29.551699,-99.438713
4152000000,-29.57893,-99.419075
4153000000,-29.856882,-99.93927
4154000000,-30.159975,-100.23902
4155000000,-30.568171,-100.4304
4156000000,-31.347921,-100.8425
4157000000,-31.436691,-101.0719
4158000000,-31.392387,-101.39491
4159000000,-31.492834,-101.7897
4160000000,-32.289612,-102.04565
4161000000,-33.025837,-102.43298
4162000000,-33.115391,-102.59777
4163000000,-33.26757,-102.80869
4164000000,-33.348301,-103.10342
4165000000,-34.067886,-103.4688
4166000000,-34.46196,-103.94813
4167000000,-34.540489,-104.09154
4168000000,-35.260132,-104.40224
4169000000,-34.837559,-104.72324
4170000000,-35.618256,-105.04279
4171000000,-36.00211,-105.28601
4172000000,-36.516918,-105.65549
4173000000,-36.772949,-105.84268
4174000000,-37.102154,-106.09076
4175000000,-37.645058,-106.40366
4176000000,-37.825764,-106.8233
4177000000,-38.253777,-107.16269
4178000000,-38.482883,-107.55746
4179000000,-38.863468,-107.74275
4180000000,-38.792679,-107.99079
4181000000,-39.413269,-108.40178
4182000000,-39.508049,-108.59772
4183000000,-40.036362,-109.01937
4184000000,-40.32267,-109.15298
4185000000,-40.91193,-109.36665
4186000000,-41.337059,-109.77368
4187000000,-41.569019,-110.1884
4188000000,-41.671188,-110.45815
4189000000,-41.766762,-110.70201
4190000000,-42.109905,-111.05586
4191000000,-43.014198,-111.52929
4192000000,-43.284458,-111.55488
4193000000,-43.458645,-111.85876
4194000000,-43.334801,-112.0871
4195000000,-43.388313,-112.4485
4196000000,-44.594051,-112.83621
4197000000,-44.429878,-113.15063
4198000000,-44.912262,-113.29938
4199000000,-45.035244,-113.6208
4200000000,-45.48241,-113.96719
4201000000,-46.326904,-114.34646
4202000000,-45.690948,-114.43398
4203000000,-46.76078,-114.87217
4204000000,-46.853737,-115.07221
4205000000,-46.641144,-115.37772
4206000000,-47.824085,-115.86292
4207000000,-47.73629,-116.04998
4208000000,-48.078854,-116.25809
4209000000,-48.239861,-116.52698
4210000000,-48.665184,-116.91434
4211000000,-48.940922,-117.24566
4212000000,-49.56292,-117.48177
4213000000,-50.07579,-117.7566
4214000000,-50.057823,-118.21764
4215000000,-50.187202,-118.49512
4216000000,-50.50684,-118.7026
4217000000,-51.179546,-118.9666
4218000000,-51.187614,-119.30119
4219000000,-51.178741,-119.48696
4220000000,-51.778133,-119.67793
4221000000,-52.203831,-119.93134
4222000000,-52.346432,-120.28762
4223000000,-52.914188,-120.62556
4224000000,-52.604824,-120.91559
4225000000,-53.311695,-121.26706
4226000000,-53.81282,-121.70255
4227000000,-53.946609,-121.80285
4228000000,-54.492558,-122.23764
4229000000,-54.014359,-122.50428
4230000000,-54.630276,-122.63236
4231000000,-55.2999,-123.03623
4232000000,-55.57983,-123.28864
4233000000,-55.532791,-123.64454
4234000000,-55.77964,-123.82115
4235000000,-56.410809,-124.13815
4236000000,-56.270538,-124.50701
4237000000,-56.969524,-124.93682
4238000000,-56.933933,-125.01762
4239000000,-57.052692,-125.34563
4240000000,-57.588802,-125.59969
4241000000,-57.960991,-125.81889
4242000000,-57.992508,-126.04778
4243000000,-58.282177,-126.46119
4244000000,-58.477341,-126.5788
4245000000,-58.744278,-126.83134
4246000000,-59.478161,-127.37331
4247000000,-59.656921,-127.52045
4248000000,-59.836269,-127.843
4249000000,-60.141071,-128.03726
4250000000,-60.559353,-128.40282
4251000000,-60.719223,-128.60248
4252000000,-60.95216,-129.15938
4253000000,-60.871445,-129.08603
4254000000,-61.371456,-129.53862
4255000000,-61.910305,-129.96358
4256000000,-62.128719,-130.09943
4257000000,-61.670078,-130.29428
4258000000,-62.494003,-130.8206
4259000000,-62.548264,-130.82451
4260000000,-63.143837,-131.23344
4261000000,-63.036594,-131.47159
4262000000,-63.453293,-131.72743
4263000000,-64.051552,-132.12047
4264000000,-64.285622,-132.35535
4265000000,-63.956089,-132.75661
4266000000,-64.3899,-132.76585
4267000000,-64.387337,-133.19308
4268000000,-64.667328,-133.43391
4269000000,-65.509834,-133.64766
4270000000,-65.237984,-134.13306
4271000000,-65.530922,-134.29701
4272000000,-65.610703,-134.69522
4273000000,-66.467979,-134.83083
4274000000,-66.269089,-135.14903
4275000000,-66.716675,-135.46564
4276000000,-67.1707,-135.83139
4277000000,-67.057579,-135.94997
4278000000,-67.426102,-136.26541
4279000000,-67.522911,-136.63776
4280000000,-67.502663,-136.84131
4281000000,-67.744095,-137.17563
4282000000,-68.234291,-137.43448
4283000000,-68.148666,-137.70793
4284000000,-68.873009,-137.91545
4285000000,-69.081009,-138.27704
4286000000,-69.12764,-138.51732
4287000000,-69.497658,-138.89407
4288000000,-69.773445,-139.1104
4289000000,-69.811386,-139.3221
4290000000,-70.13755,-139.75793
4291000000,-70.199051,-139.9093
4292000000,-70.64312,-140.22008
4293000000,-70.528313,-140.5723
4294000000,-70.810898,-140.71149
4295000000,-71.160385,-141.05252
4296000000,-71.311897,-141.46721
4297000000,-71.663841,-141.50923
4298000000,-71.592117,-141.67952
4299000000,-71.890778,-142.17719
4300000000,-72.257713,-142.39481
4301000000,-72.155251,-142.513
4302000000,-72.894211,-143.02086
4303000000,-72.817635,-143.12462
4304000000,-72.965538,-143.39586
4305000000,-73.066765,-143.61165
4306000000,-73.235771,-143.86597
4307000000,-73.662834,-144.48622
4308000000,-73.673187,-144.53885
4309000000,-73.789963,-144.80211
4310000000,-73.977303,-145.01469
4311000000,-74.368149,-145.49821
4312000000,-74.358749,-145.69543
4313000000,-74.608604,-145.82201
4314000000,-75.074234,-146.25385
4315000000,-75.046158,-146.41644
4316000000,-74.929604,-146.64819
4317000000,-75.460991,-147.03802
4318000000,-75.411507,-147.05235
4319000000,-75.394157,-147.63016
4320000000,-75.856438,-147.52672
4321000000,-76.120468,-147.9381
4322000000,-76.244728,-148.36861
4323000000,-76.38903,-148.52628
4324000000,-76.458916,-148.8132
4325000000,-76.377693,-149.22693
4326000000,-76.778954,-149.42145
4327000000,-77.024437,-149.82205
4328000000,-76.783981,-149.81985
4329000000,-76.758415,-150.17639
4330000000,-77.40741,-150.52104
4331000000,-77.478409,-150.75175
4332000000,-77.598969,-150.93468
4333000000,-77.396858,-151.28807
4334000000,-77.770592,-151.49118
4335000000,-77.813576,-151.71542
4336000000,-78.276123,-152.01236
4337000000,-78.627342,-152.35606
4338000000,-78.883057,-152.75613
4339000000,-78.661583,-152.98012
4340000000,-78.656303,-153.174
4341000000,-78.780045,-153.41306
4342000000,-79.018204,-153.85631
4343000000,-79.060852,-153.9016
4344000000,-79.283699,-154.17204
4345000000,-79.412041,-154.56807
4346000000,-79.682564,-154.64172
4347000000,-79.692802,-154.99969
4348000000,-79.759605,-155.19637
4349000000,-80.013527,-155.35619
4350000000,-80.150612,-155.66974
4351000000,-80.329292,-155.95891
4352000000,-80.308815,-156.20341
4353000000,-80.67205,-156.46681
4354000000,-81.097176,-156.69519
4355000000,-80.897659,-157.03757
4356000000,-80.821777,-157.40579
4357000000,-81.130875,-157.56291
4358000000,-81.03894,-157.98987
4359000000,-80.881676,-158.15646
4360000000,-81.293465,-158.34787
4361000000,-81.125259,-158.4924
4362000000,-81.55761,-158.73184
4363000000,-81.775009,-159.04933
4364000000,-81.649986,-159.40633
4365000000,-82.164597,-159.63484
4366000000,-82.041039,-160.15376
4367000000,-82.076538,-160.14819
4368000000,-82.051445,-160.46516
4369000000,-82.368591,-160.68578
4370000000,-82.232941,-160.90497
4371000000,-82.979591,-161.14195
4372000000,-83.059807,-161.44812
4373000000,-82.945557,-161.73138
4374000000,-82.936462,-161.96622
4375000000,-82.983711,-162.08028
4376000000,-83.389542,-162.54256
4377000000,-83.4944,-162.74889
4378000000,-83.184204,-163.03075
4379000000,-83.36129,-163.39058
4380000000,-83.720345,-163.55679
4381000000,-84.097992,-163.75871
4382000000,-84.124611,-164.11667
4383000000,-83.825661,-164.24001
4384000000,-84.065063,-164.49883
4385000000,-84.3713,-164.6646
4386000000,-83.991852,-165.05249
4387000000,-84.163895,-165.37955
4388000000,-84.560989,-165.57707
4389000000,-84.703369,-165.84782
4390000000,-84.606361,-165.98952
4391000000,-84.952744,-166.42155
4392000000,-85.120377,-166.52594
4393000000,-84.972153,-166.78798
4394000000,-85.055305,-167.22369
4395000000,-85.051239,-167.28323
4396000000,-85.553253,-167.74193
4397000000,-85.453751,-168.03677
4398000000,-85.475449,-168.03001
4399000000,-85.662888,-168.38145
4400000000,-85.927643,-168.56773
4401000000,-85.706963,-168.76025
4402000000,-85.861908,-169.14058
4403000000,-86.352936,-169.3299
4404000000,-85.65387,-169.56042
4405000000,-86.167618,-169.8824
4406000000,-86.511337,-170.08693
4407000000,-86.310715,-170.33745
4408000000,-86.489441,-170.74954
4409000000,-86.332558,-170.72432
4410000000,-86.664932,-170.98373
4411000000,-86.736511,-171.28078
4412000000,-86.814354,-171.43689
4413000000,-86.76931,-171.98158
4414000000,-87.022835,-172.16219
4415000000,-87.419685,-172.39619
4416000000,-86.941071,-172.58719
4417000000,-87.652954,-172.93869
4418000000,-87.679588,-173.13145
4419000000,-87.7798,-173.17668
4420000000,-87.910263,-173.59322
4421000000,-87.622757,-173.744
4422000000,-87.753334,-174.21646
4423000000,-87.883659,-174.41498
4424000000,-87.957298,-174.76563
4425000000,-88.498856,-174.95619
4426000000,-88.550194,-175.03117
4427000000,-88.719688,-175.26512
4428000000,-88.554482,-175.87816
4429000000,-88.986137,-176.04312
4430000000,-88.785965,-176.09518
4431000000,-88.524612,-176.38031
4432000000,-89.117393,-176.70949
4433000000,-89.310509,-176.84543
4434000000,-88.923149,-177.22015
4435000000,-89.12159,-177.5054
4436000000,-89.512543,-177.71338
4437000000,-89.389084,-177.75139
4438000000,-89.938766,-178.16063
4439000000,-89.468948,-178.32423
4440000000,-89.970428,-178.66348
4441000000,-89.602951,-178.87221
4442000000,-90.106316,-179.01997
4443000000,-89.915871,-179.40834
4444000000,-90.141556,-179.44504
4445000000,-90.576553,-179.85126
4446000000,-90.388031,179.77377
4447000000,-90.455238,179.7484
4448000000,-90.40818,179.39691
4449000000,-90.603844,179.19962
4450000000,-90.610748,178.94572
4451000000,-90.64518,178.56541
4452000000,-90.826653,178.49734
4453000000,-91.023972,178.17778
4454000000,-91.295746,177.94234
4455000000,-90.616295,177.66333
4456000000,-91.300766,177.34406
4457000000,-91.427956,177.23724
4458000000,-91.491966,177.01888
4459000000,-91.696655,176.77249
4460000000,-91.320023,176.51704
4461000000,-91.820587,176.22104
4462000000,-92.092598,175.95087
4463000000,-92.144585,175.76392
4464000000,-92.121521,175.59581
4465000000,-92.765648,175.36913
4466000000,-92.443718,175.16515
4467000000,-92.770782,174.71365
4468000000,-92.517776,174.51202
4469000000,-93.042206,174.38734
4470000000,-92.691368,174.26454
4471000000,-92.806007,173.76941
4472000000,-92.898575,173.53302
4473000000,-92.965233,173.55057
4474000000,-93.269127,173.25392
4475000000,-93.369041,172.81604
4476000000,-93.362106,172.61473
4477000000,-93.752739,172.47292
4478000000,-94.041809,172.11006
4479000000,-93.716454,171.86749
4480000000,-94.18264,171.79375
4481000000,-94.482376,171.4415
4482000000,-94.060219,171.19836
4483000000,-94.313232,170.95029
4484000000,-94.017166,170.75743
4485000000,-94.924644,170.64044
4486000000,-94.657463,170.21107
4487000000,-94.561508,169.87431
4488000000,-94.733597,169.85863
4489000000,-94.244698,169.43774
4490000000,-95.539932,169.47449
4491000000,-94.948784,169.04512
4492000000,-95.136368,168.89178
4493000000,-95.381584,168.45265
4494000000,-94.911423,168.23521
4495000000,-95.289963,168.16579
4496000000,-95.176575,167.73601
4497000000,-95.551178,167.63776
4498000000,-95.74955,167.28741
4499000000,-95.486336,167.12453
4500000000,-96.146446,166.87198
4501000000,-95.89209,166.71916
4502000000,-95.818115,166.43304
4503000000,-96.150078,166.34128
4504000000,-96.082878,166.08015
4505000000,-96.247032,165.80716
4506000000,-96.595749,165.47379
4507000000,-96.517448,165.2338
4508000000,-96.617012,165.1588
4509000000,-96.16069,164.94398
4510000000,-95.99588,164.69856
4511000000,-96.818764,164.44542
4512000000,-96.803825,164.2141
4513000000,-96.76664,163.87811
4514000000,-96.96698,163.67758
4515000000,-97.0438,163.38301
4516000000,-97.125183,163.25195
4517000000,-97.339722,162.94595
4518000000,-97.079918,162.49518
4519000000,-97.406021,162.57835
4520000000,-97.417831,162.13008
4521000000,-97.998566,162.00043
4522000000,-97.71685,161.61397
4523000000,-98.434303,161.46964
4524000000,-98.569099,161.42055
4525000000,-98.3405,161.25362
4526000000,-98.278404,160.84123
4527000000,-98.651787,160.63091
4528000000,-98.340172,160.49875
4529000000,-98.505333,160.05171
4530000000,-98.984962,159.80457
4531000000,-98.297173,159.70982
4532000000,-99.321205,159.43221
4533000000,-99.069145,159.11801
4534000000,-99.234726,158.92072
4535000000,-98.944611,158.64148
4536000000,-99.737907,158.60057
4537000000,-99.723564,158.19576
4538000000,-99.394051,157.93091
4539000000,-99.51075,157.80592
4540000000,-99.60585,157.61925
4541000000,-99.982521,157.42766
4542000000,-99.87323,156.9684
4543000000,-100.27789,156.92117
4544000000,-99.869476,156.65985
4545000000,-100.64058,156.32565
4546000000,-100.20502,156.25172
4547000000,-100.51707,155.87271
4548000000,-100.78062,155.61459
4549000000,-100.90149,155.44806
4550000000,-100.81525,155.39165
4551000000,-101.06995,154.9312
4552000000,-101.21376,154.87975
4553000000,-101.17883,154.51137
4554000000,-101.23648,154.26955
4555000000,-101.25858,154.049
4556000000,-101.45742,153.99086
4557000000,-101.61356,153.59792
4558000000,-101.52398,153.4119
4559000000,-101.39909,153.17738
4560000000,-101.58004,152.85655
4561000000,-101.82006,152.73438
4562000000,-102.10442,152.42406
4563000000,-102.41832,152.35493
4564000000,-101.82516,152.04846
4565000000,-102.1489,151.81166
4566000000,-102.55087,151.62051
4567000000,-102.4033,151.42551
4568000000,-102.99014,151.15344
4569000000,-103.24895,150.88162
4570000000,-102.42563,150.69472
4571000000,-102.81612,150.33972
4572000000,-102.58332,150.19441
4573000000,-103.50496,150.03871
4574000000,-103.40184,149.76627
4575000000,-103.75063,149.64952
4576000000,-103.92804,149.33521
4577000000,-103.63798,149.14336
4578000000,-104.0278,148.86522
4579000000,-103.84974,148.64372
4580000000,-103.99942,148.45798
4581000000,-103.52499,148.13373
4582000000,-103.99964,147.8454
4583000000,-103.67797,147.81985
4584000000,-104.45802,147.535
4585000000,-104.71183,147.35692
4586000000,-103.67838,147.12271
4587000000,-104.36281,146.81584
4588000000,-104.17566,146.70081
4589000000,-104.17725,146.39578
4590000000,-105.04601,146.16223
4591000000,-105.24508,145.92003
4592000000,-105.14075,145.82375
4593000000,-104.8982,145.50813
4594000000,-105.49956,145.21771
4595000000,-105.19174,145.14299
4596000000,-104.98792,144.69029
4597000000,-105.14108,144.52109
4598000000,-105.31902,144.30756
4599000000,-105.58184,144.06557
4600000000,-105.38499,143.88419
4601000000,-105.50726,143.84546
4602000000,-105.60622,143.40565
4603000000,-106.05518,143.21233
4604000000,-105.50906,143.1156
4605000000,-105.96201,142.93013
4606000000,-106.39632,142.64558
4607000000,-105.78028,142.36575
4608000000,-106.07928,142.10223
4609000000,-106.53908,141.95543
4610000000,-106.11633,141.60811
4611000000,-106.75025,141.52502
4612000000,-106.27353,141.1946
4613000000,-107.03994,140.96881
4614000000,-106.55652,140.79843
4615000000,-106.7427,140.4639
4616000000,-106.77236,140.28204
4617000000,-106.20905,140.01576
4618000000,-107.21902,139.7755
4619000000,-106.54599,139.53967
4620000000,-106.88397,139.50391
4621000000,-107.10432,139.15457
4622000000,-107.61868,139.04745
4623000000,-107.12253,138.7504
4624000000,-106.88877,138.6396
4625000000,-107.69658,138.37276
4626000000,-108.00081,138.04752
4627000000,-107.45876,138.0127
4628000000,-107.09655,137.52292
4629000000,-107.85953,137.46458
4630000000,-108.12145,137.22487
4631000000,-108.00507,136.9799
4632000000,-108.20609,136.80724
4633000000,-108.11824,136.44814
4634000000,-108.05722,136.35771
4635000000,-108.34216,136.10799
4636000000,-108.50639,135.87074
4637000000,-108.69245,135.64734
4638000000,-108.29344,135.37773
4639000000,-108.27877,135.23953
4640000000,-108.77599,135.02249
4641000000,-108.72055,134.97348
4642000000,-108.81374,134.5014
4643000000,-108.77052,134.24536
4644000000,-109.11509,134.16353
4645000000,-108.89104,133.88121
4646000000,-109.52065,133.55327
4647000000,-109.2095,133.42323
4648000000,-109.24464,133.12509
4649000000,-109.4771,132.88919
4650000000,-108.8568,132.6418
4651000000,-109.13953,132.38217
4652000000,-109.48701,132.24548
4653000000,-109.41309,132.17067
4654000000,-110.0356,131.77777
4655000000,-109.92191,131.53423
4656000000,-109.80104,131.48067
4657000000,-109.73077,131.25281
4658000000,-109.84139,131.07297
4659000000,-109.9743,130.78337
4660000000,-110.0981,130.4691
4661000000,-110.2539,130.37985
4662000000,-110.64385,130.07013
4663000000,-110.39625,129.81497
4664000000,-110.88548,129.66914
4665000000,-110.79693,129.47649
4666000000,-110.47433,129.14386
4667000000,-110.95958,129.02141
4668000000,-110.56524,128.75803
4669000000,-111.21848,128.59651
4670000000,-110.34065,128.43272
4671000000,-110.79138,128.05737
4672000000,-110.97519,128.00475
4673000000,-110.97102,127.57057
4674000000,-110.97414,127.54075
4675000000,-110.72073,127.29119
4676000000,-111.16443,127.0381
4677000000,-111.14622,126.74267
4678000000,-111.2424,126.57039
4679000000,-111.51881,126.44412
4680000000,-111.78241,126.17407
4681000000,-111.91055,125.85688
4682000000,-111.36809,125.67573
4683000000,-111.41382,125.47572
4684000000,-111.48779,125.24877
4685000000,-112.07114,125.09064
4686000000,-111.78436,124.75735
4687000000,-111.88384,124.50917
4688000000,-112.19939,124.43379
4689000000,-112.65715,124.17532
4690000000,-113.07726,123.9313
4691000000,-112.07005,123.74314
4692000000,-113.05718,123.64283
4693000000,-112.59058,123.22121
4694000000,-112.48464,123.07415
4695000000,-112.16369,122.79877
4696000000,-112.48533,122.52927
4697000000,-113.53923,122.54627
4698000000,-113.06158,122.16259
4699000000,-112.91869,121.91385
4700000000,-113.3152,121.73616
4701000000,-112.66489,121.54016
4702000000,-113.7713,121.3158
4703000000,-113.1899,121.1944
4704000000,-113.43893,120.87907
4705000000,-112.90514,120.69539
4706000000,-113.78919,120.51496
4707000000,-114.06319,120.20947
4708000000,-113.93844,119.9698
4709000000,-113.74444,119.69364
4710000000,-113.46394,119.33839
4711000000,-114.06645,119.34961
4712000000,-114.00883,119.07715
4713000000,-113.49377,118.8152
4714000000,-114.56498,118.60851
4715000000,-113.34282,118.34729
4716000000,-114.41045,118.20377
4717000000,-114.16552,117.99208
4718000000,-113.77325,117.7589
4719000000,-114.3884,117.41203
4720000000,-114.60758,117.47681
4721000000,-114.19764,117.07421
4722000000,-114.13118,116.85379
4723000000,-114.48228,116.72647
4724000000,-114.5061,116.48563
4725000000,-114.63627,116.27758
4726000000,-114.50899,115.87454
4727000000,-114.39661,115.90971
4728000000,-114.58813,115.65969
4729000000,-114.21755,115.46264
4730000000,-114.8906,115.07809
4731000000,-114.60841,115.01805
4732000000,-114.66851,114.94019
4733000000,-114.67083,114.43152
4734000000,-114.70648,114.39525
4735000000,-115.23492,114.19001
4736000000,-115.08391,113.92829
4737000000,-114.96609,113.66141
4738000000,-114.76295,113.38432
4739000000,-114.50796,113.3254
4740000000,-115.35999,113.07329
4741000000,-115.35563,112.76321
4742000000,-115.47824,112.69968
4743000000,-114.51673,112.27837
4744000000,-114.73126,112.04083
4745000000,-114.19881,111.93991
4746000000,-116.231,111.75799
4747000000,-115.46402,111.4118
4748000000,-115.83827,111.27546
4749000000,-115.4855,111.11926
4750000000,-115.14856,110.85372
4751000000,-115.76705,110.46397
4752000000,-116.45671,110.35881
4753000000,-116.43634,110.15678
4754000000,-115.87207,109.98924
4755000000,-116.24603,109.76859
4756000000,-116.04844,109.38875
4757000000,-116.44141,109.2138
4758000000,-115.87601,109.07405
4759000000,-115.78556,108.68285
4760000000,-116.00133,108.51171
4761000000,-116.5342,108.42083
4762000000,-116.40814,108.31631
4763000000,-115.54384,107.88426
4764000000,-115.62309,107.66204
4765000000,-116.47282,107.44035
4766000000,-116.37791,107.2762
4767000000,-115.83174,107.03998
4768000000,-116.38354,106.8965
4769000000,-116.74413,106.72986
4770000000,-115.662,106.47098
4771000000,-116.17809,106.26751
4772000000,-116.64257,106.1674
4773000000,-116.32348,105.78825
4774000000,-116.66844,105.57407
4775000000,-116.90598,105.45402
4776000000,-116.92306,105.16687
4777000000,-115.60112,104.84217
4778000000,-116.35229,104.62271
4779000000,-116.5782,104.5758
4780000000,-116.25818,104.19432
4781000000,-117.27963,103.93648
4782000000,-116.16145,103.69553
4783000000,-116.04322,103.51707
4784000000,-115.46996,103.33125
4785000000,-116.28539,103.18691
4786000000,-115.43037,102.8951
4787000000,-115.98801,102.86622
4788000000,-117.07388,102.6054
4789000000,-116.5908,102.31246
4790000000,-116.1274,101.90756
4791000000,-116.76046,101.92213
4792000000,-116.87752,101.52888
4793000000,-116.1947,101.47974
4794000000,-116.51938,101.02255
4795000000,-115.44237,100.97311
4796000000,-116.56095,100.78889
4797000000,-115.88111,100.64339
4798000000,-116.32327,100.42061
4799000000,-116.82159,100.23947
4800000000,-116.29388,99.947983
4801000000,-116.33087,99.736931
4802000000,-115.5605,99.42485
4803000000,-116.18447,99.213783
4804000000,-116.24604,99.037071
4805000000,-115.57911,98.872078
4806000000,-116.39957,98.646248
4807000000,-115.85494,98.402092
4808000000,-115.63393,98.165787
4809000000,-115.95223,98.054314
4810000000,-115.44193,97.719658
4811000000,-115.01327,97.394226
4812000000,-116.36871,97.292427
4813000000,-115.63572,97.046585
4814000000,-115.67794,96.96167
4815000000,-115.1442,96.680283
4816000000,-115.41751,96.63958
4817000000,-116.26775,96.196312
4818000000,-115.30151,95.995964
4819000000,-114.73621,95.871246
4820000000,-115.50541,95.430702
4821000000,-114.32568,95.391182
4822000000,-113.64553,95.042175
4823000000,-114.30511,95.090614
4824000000,-113.57717,94.549706
4825000000,-113.79605,94.578522
4826000000,-114.68945,94.32045
4827000000,-113.78336,94.048409
4828000000,-114.48859,93.89257
4829000000,-113.93888,93.666763
4830000000,-113.82576,93.434586
4831000000,-113.28196,93.131332
4832000000,-114.10571,93.025726
4833000000,-112.79757,92.712669
4834000000,-114.18885,92.460556
4835000000,-113.34375,92.291336
4836000000,-113.07088,92.356667
4837000000,-112.33897,91.983002
4838000000,-112.16376,91.606941
4839000000,-113.18337,91.45681
4840000000,-112.85259,91.390312
4841000000,-112.43504,91.05233
4842000000,-112.07046,90.771553
4843000000,-112.60648,90.665016
4844000000,-112.07392,90.509636
4845000000,-110.60965,90.239067
4846000000,-111.97433,89.739716
4847000000,-111.34225,89.792587
4848000000,-110.65356,89.502007
4849000000,-111.82191,89.42485
4850000000,-110.56744,89.084587
4851000000,-110.81223,88.952187
4852000000,-110.29254,88.597885
4853000000,-110.4921,88.554237
4854000000,-109.23051,88.289772
4855000000,-110.05934,88.154564
4856000000,-110.54546,88.043434
4857000000,-109.47767,87.560951
4858000000,-109.06031,87.352036
4859000000,-108.77142,87.10598
4860000000,-108.36568,87.0438
4861000000,-108.33351,86.654259
4862000000,-109.41625,86.395073
4863000000,-107.91547,86.216888
4864000000,-108.20827,86.031975
4865000000,-108.05271,85.812355
4866000000,-108.69788,85.662605
4867000000,-106.64373,85.309738
4868000000,-106.88765,85.359138
4869000000,-106.42483,85.07859
4870000000,-106.9707,84.806747
4871000000,-105.1028,84.612923
4872000000,-105.39743,84.236298
4873000000,-105.45033,84.114426
4874000000,-104.93441,83.852936
4875000000,-105.08229,83.722603
4876000000,-105.10345,83.657547
4877000000,-105.00068,83.413979
4878000000,-103.92598,83.004425
4879000000,-103.24369,82.806366
4880000000,-102.65666,82.694801
4881000000,-103.49667,82.441185
4882000000,-102.45714,82.404411
4883000000,-102.43015,82.038879
4884000000,-102.67623,81.79789
4885000000,-102.00286,81.510139
4886000000,-101.30666,81.352913
4887000000,-100.56587,81.20816
4888000000,-100.60324,81.093521
4889000000,-100.8027,80.723114
4890000000,-100.03518,80.352646
4891000000,-98.882248,80.353661
4892000000,-99.285568,79.990448
4893000000,-99.24337,79.805908
4894000000,-98.946945,79.646851
4895000000,-97.564079,79.448425
4896000000,-98.379829,79.113686
4897000000,-97.607971,78.981293
4898000000,-97.951385,78.814209
4899000000,-95.961052,78.552986
4900000000,-96.267159,78.295883
4901000000,-96.068764,78.257309
4902000000,-96.440628,78.073563
4903000000,-95.098579,77.850365
4904000000,-94.690598,77.755348
4905000000,-95.024689,77.437462
4906000000,-93.965096,77.076271
4907000000,-93.209076,76.94902
4908000000,-94.010475,76.793175
4909000000,-92.253006,76.541489
4910000000,-92.319405,76.386856
4911000000,-93.183022,76.101768
4912000000,-90.573601,75.811989
4913000000,-90.862106,75.658424
4914000000,-90.096695,75.551384
4915000000,-90.501534,75.189064
4916000000,-90.900894,75.013618
4917000000,-89.329071,74.925095
4918000000,-89.682739,74.682831
4919000000,-89.686958,74.321648
4920000000,-89.37085,74.037704
4921000000,-89.136795,74.061607
4922000000,-88.596786,73.661804
4923000000,-87.367035,73.524597
4924000000,-87.447548,73.264877
4925000000,-87.0345,73.026009
4926000000,-87.062645,72.857735
4927000000,-85.797897,72.505272
4928000000,-86.639526,72.373016
4929000000,-85.086014,72.240318
4930000000,-85.405807,72.114555
4931000000,-84.468552,71.780106
4932000000,-83.531868,71.553841
4933000000,-83.842422,71.398964
4934000000,-82.96994,71.118408
4935000000,-83.602722,71.085281
4936000000,-82.214905,70.743889
4937000000,-82.572411,70.517822
4938000000,-82.327164,70.263008
4939000000,-81.35141,70.259949
4940000000,-80.176849,69.93235
4941000000,-80.260788,69.685669
4942000000,-81.057388,69.469093
4943000000,-79.437996,69.353096
4944000000,-79.475792,69.081039
4945000000,-78.659821,68.933098
4946000000,-78.631889,68.609962
4947000000,-78.695694,68.418167
4948000000,-78.668228,68.213158
4949000000,-77.27002,68.051796
4950000000,-77.298119,67.710716
4951000000,-77.020767,67.73037
4952000000,-76.602455,67.464333
4953000000,-77.059113,67.139679
4954000000,-75.888397,66.949608
4955000000,-75.872383,66.711517
4956000000,-75.019577,66.643684
4957000000,-74.721809,66.479301
4958000000,-74.741623,66.142342
4959000000,-73.832314,65.966316
4960000000,-73.509842,65.728676
4961000000,-73.497498,65.573036
4962000000,-73.449577,65.342354
4963000000,-72.737297,65.162621
4964000000,-72.994659,64.951538
4965000000,-72.383057,64.824326
4966000000,-71.523354,64.542
4967000000,-71.832359,64.309525
4968000000,-71.440491,64.055389
4969000000,-71.739067,63.715332
4970000000,-71.553528,63.613686
4971000000,-70.664909,63.489479
4972000000,-70.349106,63.241718
4973000000,-70.452629,63.03904
4974000000,-69.287521,62.690208
4975000000,-69.763153,62.608799
4976000000,-68.886765,62.421974
4977000000,-69.690262,62.021088
4978000000,-68.88607,62.025993
4979000000,-67.963432,61.791485
4980000000,-68.333351,61.559944
4981000000,-68.31868,61.249081
4982000000,-67.925865,61.10236
4983000000,-67.449364,61.010544
4984000000,-68.309227,60.663944
4985000000,-67.846359,60.62038
4986000000,-67.401299,60.217789
4987000000,-66.629723,60.217476
4988000000,-67.28331,59.888935
4989000000,-66.411827,59.616405
4990000000,-66.770897,59.464851
4991000000,-66.150551,59.344967
4992000000,-65.661591,59.011284
4993000000,-65.510384,58.774517
4994000000,-65.679947,58.634369
4995000000,-65.969719,58.411915
4996000000,-65.716835,58.178986
4997000000,-64.658226,58.031166
4998000000,-64.89238,57.774487
4999000000,-64.979797,57.548946
5000000000,-64.968231,57.425808
END

