!CSV A.01.01
!Agilent Technologies,E8362C,MY49020225,A.09.42.22
!Agilent E8362C: A.09.42.22
!Date: Wednesday, March 02, 2016 16:55:56
!Source: Standard

BEGIN CH1_DATA
Freq(Hz),S11 Phase(°),S21 Phase(°)
1000000000,-157.47852,176.03056
1001000000,-157.80739,175.53564
1002000000,-157.8566,175.52817
1003000000,-157.70631,175.39015
1004000000,-157.76041,175.22148
1005000000,-157.76402,175.01158
1006000000,-157.98909,174.75298
1007000000,-157.78912,174.74727
1008000000,-157.91612,174.48036
1009000000,-157.94765,174.1843
1010000000,-157.86392,174.21913
1011000000,-158.12584,173.76935
1012000000,-158.3716,173.37869
1013000000,-158.19406,173.3699
1014000000,-158.30003,173.14299
1015000000,-158.46135,172.90376
1016000000,-158.20258,173.00673
1017000000,-158.36626,172.5038
1018000000,-158.30403,172.56885
1019000000,-158.43338,172.3289
1020000000,-158.49428,172.1382
1021000000,-158.82346,171.69505
1022000000,-158.67523,171.64644
1023000000,-158.82861,171.48112
1024000000,-158.72192,171.28099
1025000000,-158.82425,171.06065
1026000000,-159.06024,170.9724
1027000000,-159.14156,170.62022
1028000000,-159.2724,170.39491
1029000000,-159.05304,170.26212
1030000000,-159.12411,170.20665
1031000000,-159.26233,169.94278
1032000000,-159.49156,169.59242
1033000000,-159.41855,169.51089
1034000000,-159.41055,169.24284
1035000000,-159.74176,169.11809
1036000000,-159.63353,168.94696
1037000000,-159.42854,168.84262
1038000000,-159.91176,168.4926
1039000000,-160.00731,168.19624
1040000000,-160.06015,168.22951
1041000000,-159.92796,168.11554
1042000000,-159.96419,167.819
1043000000,-160.17548,167.5265
1044000000,-160.07692,167.50026
1045000000,-160.55153,167.0724
1046000000,-160.39703,166.93515
1047000000,-160.57794,166.72224
1048000000,-160.95728,166.39116
1049000000,-160.57297,166.49944
1050000000,-160.86,166.01505
1051000000,-160.98421,165.85744
1052000000,-160.92416,165.89983
1053000000,-160.99075,165.61295
1054000000,-161.09293,165.35945
1055000000,-161.36682,165.08841
1056000000,-161.55156,164.79814
1057000000,-161.22536,164.95618
1058000000,-161.62086,164.38791
1059000000,-161.66496,164.33484
1060000000,-161.68451,164.33286
1061000000,-161.72295,164.03902
1062000000,-162.06059,163.62755
1063000000,-162.02609,163.60898
1064000000,-162.34801,163.3757
1065000000,-162.35094,163.19957
1066000000,-162.71065,162.88435
1067000000,-162.51146,162.71979
1068000000,-162.65141,162.68025
1069000000,-162.64505,162.42987
1070000000,-162.7491,162.25978
1071000000,-163.10146,161.99911
1072000000,-162.85558,161.82687
1073000000,-163.21674,161.58519
1074000000,-163.33731,161.38741
1075000000,-163.22087,161.33209
1076000000,-163.57027,160.87497
1077000000,-163.46725,160.90761
1078000000,-163.9487,160.51561
1079000000,-163.87315,160.23621
1080000000,-163.64607,160.05435
1081000000,-164.14091,160.04631
1082000000,-164.23938,159.68512
1083000000,-164.59851,159.29176
1084000000,-164.39348,159.47447
1085000000,-164.78471,159.05786
1086000000,-164.69983,159.13942
1087000000,-164.80675,158.81013
1088000000,-164.84167,158.84869
1089000000,-164.77895,158.49982
1090000000,-164.83052,158.23601
1091000000,-165.4292,158.00333
1092000000,-165.48744,157.75955
1093000000,-165.51799,157.71643
1094000000,-165.5854,157.32896
1095000000,-165.80164,157.28432
1096000000,-165.72566,157.12285
1097000000,-165.9346,156.79442
1098000000,-166.02298,156.5865
1099000000,-166.41776,156.44069
1100000000,-166.4678,156.24406
1101000000,-166.4588,156.07602
1102000000,-166.44435,156.07376
1103000000,-166.56277,155.78522
1104000000,-166.95015,155.45467
1105000000,-167.18719,155.24104
1106000000,-167.27298,154.84006
1107000000,-167.25551,154.83817
1108000000,-167.6368,154.64992
1109000000,-167.55357,154.36517
1110000000,-167.94846,154.18388
1111000000,-167.73236,154.08762
1112000000,-168.05968,153.91417
1113000000,-168.20709,153.71968
1114000000,-167.98279,153.64622
1115000000,-168.42099,153.33672
1116000000,-168.37582,153.16728
1117000000,-168.77307,152.87286
1118000000,-168.69792,152.68694
1119000000,-168.86211,152.45222
1120000000,-169.00291,152.27675
1121000000,-169.31224,152.11566
1122000000,-169.43686,151.85306
1123000000,-169.48283,151.64153
1124000000,-169.7178,151.46263
1125000000,-169.64659,151.06944
1126000000,-169.62572,151.17122
1127000000,-170.13251,150.7531
1128000000,-170.4883,150.67775
1129000000,-170.6041,150.37697
1130000000,-170.80437,150.06531
1131000000,-170.69289,150.00276
1132000000,-170.91132,149.90225
1133000000,-170.81262,149.84541
1134000000,-171.12326,149.51498
1135000000,-171.24524,149.29173
1136000000,-171.29269,148.9158
1137000000,-171.67012,148.7955
1138000000,-171.9287,148.64648
1139000000,-171.86832,148.43977
1140000000,-171.89963,148.43147
1141000000,-172.24367,148.06708
1142000000,-172.63033,147.76308
1143000000,-172.66588,147.54251
1144000000,-172.8243,147.42657
1145000000,-172.59126,147.35353
1146000000,-173.12361,146.93912
1147000000,-173.19057,146.76112
1148000000,-173.56819,146.53085
1149000000,-173.57199,146.48566
1150000000,-173.5872,146.23367
1151000000,-173.57225,146.01678
1152000000,-174.03416,145.78906
1153000000,-173.87668,145.79588
1154000000,-174.24562,145.57117
1155000000,-174.34048,145.20595
1156000000,-174.60153,145.02686
1157000000,-174.83113,144.86877
1158000000,-175.06831,144.45956
1159000000,-174.91272,144.42943
1160000000,-175.0777,144.26033
1161000000,-175.36411,143.99066
1162000000,-175.41945,143.7934
1163000000,-175.98262,143.62947
1164000000,-175.78651,143.41542
1165000000,-175.99063,143.22189
1166000000,-176.08878,143.07788
1167000000,-176.63441,142.68985
1168000000,-176.97609,142.63879
1169000000,-176.9064,142.34615
1170000000,-176.80879,142.25336
1171000000,-176.91927,142.03387
1172000000,-177.63429,141.55841
1173000000,-177.54919,141.54539
1174000000,-177.57333,141.5097
1175000000,-178.15686,141.06958
1176000000,-177.81767,141.01622
1177000000,-178.08965,140.82922
1178000000,-178.16066,140.60663
1179000000,-178.38322,140.47861
1180000000,-178.61775,140.19472
1181000000,-178.91542,139.97054
1182000000,-179.2226,139.69281
1183000000,-179.30434,139.64647
1184000000,-179.71115,139.37512
1185000000,-179.96675,139.20891
1186000000,-179.97662,139.12065
1187000000,179.92952,138.64868
1188000000,179.67793,138.66673
1189000000,179.44096,138.43117
1190000000,178.97301,138.02563
1191000000,179.03596,137.91158
1192000000,178.72453,137.70622
1193000000,178.85266,137.51768
1194000000,178.32382,137.23705
1195000000,178.36656,137.11958
1196000000,178.01527,136.78563
1197000000,177.69759,136.74367
1198000000,177.66142,136.46245
1199000000,177.41144,136.23274
1200000000,177.28203,136.16278
1201000000,176.86049,135.8423
1202000000,176.52277,135.6481
1203000000,176.43385,135.54509
1204000000,176.47362,135.30588
1205000000,176.11462,134.96915
1206000000,175.90765,134.87294
1207000000,175.96152,134.74857
1208000000,175.43643,134.73482
1209000000,175.13599,134.26555
1210000000,175.24806,134.22527
1211000000,174.58211,133.6916
1212000000,174.52376,133.53583
1213000000,174.39424,133.35698
1214000000,174.14005,133.19977
1215000000,173.98103,133.10234
1216000000,173.56113,132.56348
1217000000,173.72894,132.63173
1218000000,173.47041,132.4408
1219000000,173.24326,132.01456
1220000000,172.51718,132.01598
1221000000,172.65482,131.72627
1222000000,172.58488,131.72124
1223000000,172.46648,131.41887
1224000000,171.81639,131.21036
1225000000,171.56264,130.88164
1226000000,171.63622,130.67323
1227000000,171.18785,130.45116
1228000000,171.23323,130.44432
1229000000,170.64722,130.0842
1230000000,170.37271,129.98131
1231000000,170.24403,129.6855
1232000000,169.78537,129.30907
1233000000,170.19446,129.3213
1234000000,169.97551,129.12448
1235000000,169.20345,128.83664
1236000000,169.12561,128.74529
1237000000,168.7428,128.56831
1238000000,168.3914,128.08757
1239000000,168.45741,128.07562
1240000000,168.14323,127.81808
1241000000,167.91661,127.51813
1242000000,167.58038,127.37262
1243000000,167.26843,127.15225
1244000000,167.1528,127.0166
1245000000,166.47955,126.48848
1246000000,166.48779,126.61302
1247000000,166.28236,126.39098
1248000000,166.04128,126.01049
1249000000,165.79433,125.85536
1250000000,165.74599,125.78046
1251000000,165.47411,125.60203
1252000000,164.93979,125.13396
1253000000,164.79945,124.84601
1254000000,164.35599,124.70197
1255000000,164.10963,124.6234
1256000000,163.76569,124.40097
1257000000,163.58179,124.24715
1258000000,163.56511,124.07791
1259000000,163.59219,123.90311
1260000000,163.06477,123.64436
1261000000,162.91737,123.5553
1262000000,162.39551,123.0811
1263000000,162.14705,123.1674
1264000000,161.78815,122.72387
1265000000,161.59315,122.50476
1266000000,160.98433,122.24001
1267000000,160.93208,122.12614
1268000000,160.64346,121.90388
1269000000,160.44427,121.75448
1270000000,160.06816,121.3828
1271000000,159.89864,121.23758
1272000000,159.61717,121.04782
1273000000,159.29393,120.81176
1274000000,159.16022,120.61408
1275000000,158.8044,120.42536
1276000000,158.39293,120.16191
1277000000,158.26399,120.18034
1278000000,157.72685,119.82036
1279000000,157.15134,119.40823
1280000000,157.52567,119.56371
1281000000,156.85898,119.07042
1282000000,156.53783,118.90337
1283000000,156.06779,118.59663
1284000000,155.95627,118.6403
1285000000,155.42484,118.38716
1286000000,155.32527,117.84148
1287000000,155.09602,117.80708
1288000000,154.36194,117.59374
1289000000,154.2802,117.48738
1290000000,153.62837,117.11252
1291000000,153.74997,117.021
1292000000,152.72122,116.72329
1293000000,153.00647,116.56849
1294000000,152.4045,116.07037
1295000000,152.14014,116.05148
1296000000,151.76341,116.05155
1297000000,151.99503,115.77758
1298000000,151.19543,115.44408
1299000000,150.92599,115.11762
1300000000,150.38022,114.96849
1301000000,150.21931,114.98568
1302000000,149.48265,114.7653
1303000000,149.91553,114.50294
1304000000,149.10965,114.08261
1305000000,148.93387,113.99974
1306000000,148.43527,113.78073
1307000000,148.2874,113.52618
1308000000,147.97461,113.47163
1309000000,146.93997,113.0798
1310000000,146.78714,112.84681
1311000000,146.45412,112.729
1312000000,146.00278,112.25703
1313000000,145.43671,112.27386
1314000000,145.75726,112.08398
1315000000,145.32336,111.77231
1316000000,144.69713,111.51852
1317000000,144.06517,111.44192
1318000000,144.08501,111.08309
1319000000,143.31006,110.78483
1320000000,143.1243,110.55306
1321000000,142.90703,110.38818
1322000000,142.15128,110.07735
1323000000,142.18292,110.02571
1324000000,141.23586,109.60283
1325000000,141.1691,109.64872
1326000000,140.62134,109.33716
1327000000,140.29059,109.23746
1328000000,140.00908,108.94904
1329000000,139.5097,108.82265
1330000000,139.09877,108.3784
1331000000,138.69798,108.3291
1332000000,138.35155,107.86629
1333000000,137.96782,107.82575
1334000000,137.23952,107.44125
1335000000,137.18724,107.37716
1336000000,136.00525,107.1214
1337000000,136.46089,106.96487
1338000000,135.48666,106.76651
1339000000,135.0907,106.48256
1340000000,134.75903,106.19395
1341000000,134.18646,105.94765
1342000000,133.8338,105.73853
1343000000,132.96126,105.48039
1344000000,133.30644,105.40063
1345000000,132.08813,105.13924
1346000000,131.63451,105.04784
1347000000,131.07607,104.74914
1348000000,130.82339,104.44157
1349000000,130.25673,104.3091
1350000000,129.52687,104.01944
1351000000,129.00771,103.76348
1352000000,128.78397,103.4366
1353000000,128.37952,103.28031
1354000000,128.35608,103.04841
1355000000,126.69293,102.8844
1356000000,126.12823,102.65778
1357000000,126.33878,102.63241
1358000000,125.1582,102.23292
1359000000,124.9361,101.92085
1360000000,124.09866,101.74569
1361000000,123.35287,101.50877
1362000000,123.14554,101.32814
1363000000,122.16884,100.94272
1364000000,121.85761,100.67257
1365000000,121.11326,100.53245
1366000000,120.71813,100.17359
1367000000,120.45876,100.08223
1368000000,119.4692,99.828018
1369000000,118.97218,99.757301
1370000000,117.92382,99.367302
1371000000,117.58056,99.197952
1372000000,117.34327,99.136055
1373000000,116.06989,98.762856
1374000000,115.86428,98.450729
1375000000,115.21827,98.321281
1376000000,114.4839,98.394081
1377000000,113.66585,97.966461
1378000000,113.35793,97.581932
1379000000,112.39993,97.22361
1380000000,111.51962,97.090157
1381000000,110.7936,96.778084
1382000000,110.6375,96.607559
1383000000,109.51572,96.255692
1384000000,109.17393,96.290741
1385000000,108.53312,96.051819
1386000000,107.48324,95.673042
1387000000,106.71062,95.544693
1388000000,106.04681,95.261719
1389000000,105.13349,95.164116
1390000000,104.24752,94.793747
1391000000,103.55703,94.513878
1392000000,103.10683,94.352516
1393000000,101.67146,94.068169
1394000000,101.51379,94.002541
1395000000,100.21362,93.644318
1396000000,99.327065,93.345207
1397000000,98.691452,93.149315
1398000000,97.911369,92.954323
1399000000,97.331894,92.684486
1400000000,95.800819,92.315559
1401000000,95.607796,92.102211
1402000000,94.514915,91.972664
1403000000,93.5737,91.675407
1404000000,93.153931,91.521118
1405000000,91.833931,91.284424
1406000000,90.492607,91.073586
1407000000,90.289436,90.769798
1408000000,88.525063,90.580925
1409000000,88.09137,90.255531
1410000000,86.837212,90.222115
1411000000,85.731964,89.844673
1412000000,84.859825,89.574165
1413000000,84.426407,89.20562
1414000000,83.631111,89.217987
1415000000,82.380836,88.764793
1416000000,80.675781,88.738853
1417000000,80.638527,88.360168
1418000000,79.041817,88.23793
1419000000,77.980141,87.835266
1420000000,76.913414,87.678207
1421000000,76.177338,87.303131
1422000000,74.614403,86.964508
1423000000,73.693565,86.918976
1424000000,73.419281,86.753021
1425000000,71.769791,86.47287
1426000000,70.653152,86.192856
1427000000,69.871864,85.977821
1428000000,68.294601,85.818573
1429000000,67.389648,85.591698
1430000000,66.649605,85.340317
1431000000,65.392761,84.829208
1432000000,64.288918,84.831245
1433000000,63.465908,84.510544
1434000000,61.469524,84.33931
1435000000,61.048683,84.018097
1436000000,59.249714,83.722496
1437000000,58.481174,83.515282
1438000000,58.088917,83.441238
1439000000,56.835007,83.075104
1440000000,55.247238,82.549568
1441000000,54.461796,82.477242
1442000000,53.869587,82.31813
1443000000,52.033138,82.135208
1444000000,51.111034,81.707901
1445000000,50.18531,81.564804
1446000000,48.806198,81.241623
1447000000,48.335144,81.129318
1448000000,47.010056,80.738113
1449000000,45.419106,80.555946
1450000000,44.779724,80.328194
1451000000,43.940594,80.061066
1452000000,42.937595,79.75032
1453000000,41.063629,79.536591
1454000000,40.911041,79.490044
1455000000,39.396984,79.130989
1456000000,38.415401,78.752701
1457000000,37.577408,78.622025
1458000000,36.890854,78.231964
1459000000,35.146835,77.982117
1460000000,34.20015,77.808182
1461000000,33.397072,77.530807
1462000000,32.327251,77.253929
1463000000,31.351118,77.076752
1464000000,30.653282,76.692421
1465000000,29.662798,76.478539
1466000000,28.58626,76.203735
1467000000,28.19709,76.030869
1468000000,26.322826,75.823441
1469000000,25.784269,75.528671
1470000000,24.969536,75.319977
1471000000,23.737793,74.838867
1472000000,22.760391,74.708931
1473000000,21.961325,74.55555
1474000000,20.998724,74.276566
1475000000,20.526167,73.986931
1476000000,19.474216,73.780525
1477000000,19.184116,73.544983
1478000000,17.674639,73.343597
1479000000,16.557196,72.989662
1480000000,16.382233,72.565804
1481000000,14.860731,72.391823
1482000000,14.293661,72.098213
1483000000,13.647167,71.943085
1484000000,12.803117,71.63475
1485000000,12.404273,71.498642
1486000000,11.01843,71.139259
1487000000,9.9410095,71.011528
1488000000,9.6063051,70.742744
1489000000,8.6619825,70.420639
1490000000,8.0769606,70.222099
1491000000,7.2969446,69.75956
1492000000,6.1737795,69.591797
1493000000,5.8184547,69.358665
1494000000,4.7546344,69.098663
1495000000,4.5200167,68.819984
1496000000,3.5337179,68.659767
1497000000,2.7670798,68.237144
1498000000,2.2113359,68.197006
1499000000,1.4257241,67.827042
1500000000,1.0474522,67.392906
1501000000,0.027926035,67.298805
1502000000,-0.35580236,67.174347
1503000000,-1.4368393,66.613457
1504000000,-1.78792,66.561066
1505000000,-2.4938409,66.174767
1506000000,-3.2694979,66.033066
1507000000,-4.020442,65.649078
1508000000,-4.6710153,65.51133
1509000000,-5.1543846,65.279854
1510000000,-6.0902987,64.80249
1511000000,-6.3781338,64.722565
1512000000,-6.9627657,64.41098
1513000000,-7.908205,64.0429
1514000000,-8.3754597,63.788414
1515000000,-8.8040352,63.504887
1516000000,-9.4254379,63.208477
1517000000,-10.117332,63.002758
1518000000,-10.739167,62.69865
1519000000,-11.482895,62.414978
1520000000,-11.895385,62.330204
1521000000,-12.473576,61.979912
1522000000,-12.897831,61.835068
1523000000,-13.536519,61.343781
1524000000,-14.172393,61.112408
1525000000,-14.662045,60.947754
1526000000,-15.180468,60.628395
1527000000,-15.641152,60.273899
1528000000,-16.228765,60.168129
1529000000,-16.929905,59.666916
1530000000,-17.632008,59.651703
1531000000,-18.123121,59.262711
1532000000,-18.386187,59.06435
1533000000,-18.877306,58.758862
1534000000,-19.368332,58.521889
1535000000,-20.155907,58.223373
1536000000,-20.414268,57.943222
1537000000,-20.975647,57.697819
1538000000,-21.503418,57.433437
1539000000,-22.354506,57.097881
1540000000,-22.736414,56.913326
1541000000,-23.119066,56.574898
1542000000,-23.481693,56.432079
1543000000,-23.897041,56.06926
1544000000,-24.603987,55.827682
1545000000,-24.947487,55.405544
1546000000,-25.705177,55.318031
1547000000,-26.148256,54.85445
1548000000,-26.56636,54.745064
1549000000,-26.916464,54.590023
1550000000,-27.596096,54.088909
1551000000,-28.030416,53.751621
1552000000,-28.296774,53.669479
1553000000,-28.818371,53.310009
1554000000,-29.288555,53.237503
1555000000,-29.845892,52.736996
1556000000,-30.40695,52.576908
1557000000,-30.751493,52.237896
1558000000,-31.146572,52.032177
1559000000,-31.785234,51.584461
1560000000,-31.908705,51.452904
1561000000,-32.594276,51.201054
1562000000,-32.946606,50.999088
1563000000,-33.266445,50.693741
1564000000,-33.858879,50.2743
1565000000,-34.310707,50.12505
1566000000,-34.739048,49.781143
1567000000,-35.253868,49.501637
1568000000,-35.670036,49.136806
1569000000,-35.903713,49.019451
1570000000,-36.595661,48.650597
1571000000,-36.685661,48.542824
1572000000,-37.485271,47.989105
1573000000,-37.891685,47.850838
1574000000,-38.273449,47.607342
1575000000,-38.64259,47.303638
1576000000,-39.075909,47.147972
1577000000,-39.523762,46.739193
1578000000,-39.785397,46.538906
1579000000,-40.32048,46.259323
1580000000,-40.846268,46.015907
1581000000,-41.00473,45.710297
1582000000,-41.478642,45.556038
1583000000,-42.021549,45.133884
1584000000,-42.329651,45.003654
1585000000,-42.787392,44.57547
1586000000,-43.216187,44.338028
1587000000,-43.584538,43.958832
1588000000,-44.040554,43.810928
1589000000,-44.50013,43.33596
1590000000,-44.768143,43.320148
1591000000,-45.451466,42.951748
1592000000,-45.573784,42.706829
1593000000,-45.969784,42.31599
1594000000,-46.335857,42.076958
1595000000,-46.920723,41.811794
1596000000,-47.068291,41.535774
1597000000,-47.673119,41.181545
1598000000,-47.971703,40.907013
1599000000,-48.223576,40.742378
1600000000,-48.479786,40.533302
1601000000,-49.038422,40.19268
1602000000,-49.538193,39.743202
1603000000,-49.850872,39.574436
1604000000,-50.199081,39.277199
1605000000,-50.721413,38.936356
1606000000,-51.145348,38.739357
1607000000,-51.40118,38.390251
1608000000,-51.806721,38.055256
1609000000,-52.344219,37.709743
1610000000,-52.621738,37.575363
1611000000,-53.092693,37.10181
1612000000,-53.297348,37.138695
1613000000,-53.737923,36.687656
1614000000,-54.116646,36.45229
1615000000,-54.534584,36.167645
1616000000,-54.701504,36.021801
1617000000,-55.100349,35.810947
1618000000,-55.610191,35.256882
1619000000,-55.798084,35.161964
1620000000,-56.244732,34.790131
1621000000,-56.652668,34.54641
1622000000,-56.95816,34.272671
1623000000,-57.138378,34.266121
1624000000,-57.83749,33.60741
1625000000,-58.036385,33.269463
1626000000,-58.511597,33.051376
1627000000,-58.541164,32.940006
1628000000,-59.260532,32.506207
1629000000,-59.491165,32.339581
1630000000,-59.993057,31.996592
1631000000,-60.20895,31.828112
1632000000,-60.788109,31.51088
1633000000,-60.784531,31.24243
1634000000,-61.266075,30.875593
1635000000,-61.520081,30.708565
1636000000,-62.077686,30.353962
1637000000,-62.448879,30.023781
1638000000,-62.794521,29.767853
1639000000,-62.998367,29.519682
1640000000,-63.484062,29.351795
1641000000,-63.638279,29.08077
1642000000,-64.366264,28.600805
1643000000,-64.448174,28.483362
1644000000,-64.751869,28.167933
1645000000,-65.066406,27.902487
1646000000,-65.417984,27.6618
1647000000,-65.957191,27.272093
1648000000,-66.167397,26.965048
1649000000,-66.410049,26.648949
1650000000,-66.860321,26.469149
1651000000,-67.218643,26.094608
1652000000,-67.594231,25.707254
1653000000,-67.885803,25.707739
1654000000,-68.387199,25.358055
1655000000,-68.545044,25.205715
1656000000,-69.006317,24.536409
1657000000,-69.331604,24.414415
1658000000,-69.484818,24.274261
1659000000,-69.945427,23.921669
1660000000,-70.213905,23.778461
1661000000,-70.593346,23.30933
1662000000,-71.014,23.064291
1663000000,-71.135712,22.995583
1664000000,-71.499146,22.56041
1665000000,-71.9879,22.258471
1666000000,-72.057961,22.231848
1667000000,-72.519661,21.661425
1668000000,-72.692513,21.640909
1669000000,-73.147118,21.224672
1670000000,-73.491066,21.034996
1671000000,-73.834526,20.660698
1672000000,-74.000923,20.416647
1673000000,-74.396996,20.314953
1674000000,-74.946953,19.70793
1675000000,-75.06636,19.534435
1676000000,-75.538948,19.312954
1677000000,-75.886414,18.896084
1678000000,-76.21801,18.781345
1679000000,-76.52742,18.356447
1680000000,-76.802002,18.189379
1681000000,-76.992493,18.088209
1682000000,-77.485382,17.553583
1683000000,-77.667374,17.484177
1684000000,-78.20089,17.011427
1685000000,-78.416779,16.807804
1686000000,-78.76416,16.576246
1687000000,-79.165001,16.253851
1688000000,-79.131012,16.14057
1689000000,-79.670921,15.740807
1690000000,-79.967949,15.485214
1691000000,-80.119209,15.341674
1692000000,-80.584656,15.021543
1693000000,-80.869553,14.714393
1694000000,-81.316864,14.380853
1695000000,-81.582428,14.114552
1696000000,-81.929733,13.782215
1697000000,-82.130379,13.530361
1698000000,-82.50061,13.221374
1699000000,-82.842529,13.022202
1700000000,-83.09111,12.674431
1701000000,-83.360321,12.567617
1702000000,-83.610832,12.314205
1703000000,-84.07814,11.91716
1704000000,-84.455261,11.58166
1705000000,-84.62175,11.458004
1706000000,-84.905754,11.094919
1707000000,-85.404785,10.878227
1708000000,-85.541557,10.773115
1709000000,-85.930534,10.361157
1710000000,-86.313484,9.981884
1711000000,-86.531334,9.7497301
1712000000,-86.822166,9.5739975
1713000000,-87.235275,9.3154583
1714000000,-87.423653,8.9718924
1715000000,-87.569252,8.9535427
1716000000,-87.994904,8.5305433
1717000000,-88.279671,8.073472
1718000000,-88.375008,8.2707939
1719000000,-88.84259,7.7786713
1720000000,-89.271439,7.4091654
1721000000,-89.578743,6.9569516
1722000000,-89.78038,6.9453406
1723000000,-90.110229,6.5971141
1724000000,-90.478065,6.254683
1725000000,-90.694801,6.1742864
1726000000,-90.978905,5.7716913
1727000000,-91.281555,5.6330357
1728000000,-91.576538,5.3260655
1729000000,-91.880173,4.9274673
1730000000,-92.274086,4.7246761
1731000000,-92.521759,4.545568
1732000000,-92.805077,4.2974606
1733000000,-93.102249,4.051373
1734000000,-93.251717,3.8621194
1735000000,-93.556381,3.5742993
1736000000,-93.931618,3.2430477
1737000000,-94.424759,2.7606587
1738000000,-94.676102,2.6193144
1739000000,-94.91288,2.4513819
1740000000,-95.112495,2.1815248
1741000000,-95.475479,1.8817424
1742000000,-95.652374,1.8129971
1743000000,-96.024391,1.4085846
1744000000,-96.361076,1.0046252
1745000000,-96.485077,1.0231292
1746000000,-96.786865,0.6972515
1747000000,-97.163651,0.35347795
1748000000,-97.257523,0.2795327
1749000000,-97.847992,-0.3342416
1750000000,-98.076172,-0.25194734
1751000000,-98.247116,-0.45909196
1752000000,-98.556343,-0.90486443
1753000000,-98.876053,-1.0962871
1754000000,-99.121078,-1.3901305
1755000000,-99.445107,-1.5278537
1756000000,-99.824852,-2.019793
1757000000,-99.995819,-2.095032
1758000000,-100.27399,-2.4187217
1759000000,-100.46612,-2.525466
1760000000,-100.96131,-3.0735376
1761000000,-101.31654,-3.3570845
1762000000,-101.50268,-3.4343374
1763000000,-101.6591,-3.6047139
1764000000,-102.10554,-4.1975846
1765000000,-102.22854,-4.2001796
1766000000,-102.54816,-4.3291497
1767000000,-102.74435,-4.5432057
1768000000,-102.88019,-4.8818178
1769000000,-103.46811,-5.2120638
1770000000,-103.4177,-5.3698473
1771000000,-104.02605,-5.7610421
1772000000,-104.12259,-5.8593321
1773000000,-104.3661,-6.0414939
1774000000,-104.64102,-6.3882403
1775000000,-104.91058,-6.740778
1776000000,-105.07774,-6.9654365
1777000000,-105.51873,-7.0274725
1778000000,-105.79363,-7.4484215
1779000000,-105.94108,-7.4750299
1780000000,-106.18835,-7.9678912
1781000000,-106.38499,-8.0441561
1782000000,-106.91283,-8.3217449
1783000000,-107.2198,-8.685791
1784000000,-107.15295,-8.7476673
1785000000,-107.61255,-9.1527929
1786000000,-107.93916,-9.4814157
1787000000,-108.0995,-9.4718428
1788000000,-108.23048,-9.6554003
1789000000,-108.80066,-10.069263
1790000000,-109.00297,-10.418703
1791000000,-109.21349,-10.434262
1792000000,-109.37945,-10.756732
1793000000,-109.87037,-10.993155
1794000000,-110.07308,-11.282186
1795000000,-110.54206,-11.683998
1796000000,-110.52253,-11.592183
1797000000,-110.77077,-11.890131
1798000000,-110.91003,-11.99782
1799000000,-111.12332,-12.331431
1800000000,-111.57748,-12.622195
1801000000,-111.86935,-12.89794
1802000000,-112.26405,-13.306635
1803000000,-112.32047,-13.418183
1804000000,-112.68543,-13.791213
1805000000,-113.13177,-14.00221
1806000000,-113.18064,-14.03815
1807000000,-113.62273,-14.540035
1808000000,-113.85092,-14.906687
1809000000,-113.8526,-14.752624
1810000000,-114.15096,-15.194381
1811000000,-114.48356,-15.313115
1812000000,-114.72884,-15.532707
1813000000,-114.93379,-15.83959
1814000000,-115.04501,-15.948948
1815000000,-115.54555,-16.359556
1816000000,-115.54251,-16.280439
1817000000,-115.73775,-16.717546
1818000000,-116.1413,-17.004351
1819000000,-116.47903,-17.206224
1820000000,-116.72763,-17.47406
1821000000,-116.94989,-17.700638
1822000000,-117.32966,-18.140207
1823000000,-117.19534,-17.881254
1824000000,-117.67545,-18.322014
1825000000,-118.00354,-18.708616
1826000000,-118.22208,-18.917871
1827000000,-118.38699,-19.045832
1828000000,-118.79911,-19.304213
1829000000,-119.01112,-19.483828
1830000000,-119.06716,-19.539003
1831000000,-119.49192,-19.876635
1832000000,-119.8194,-20.222982
1833000000,-119.79603,-20.161589
1834000000,-120.19765,-20.639336
1835000000,-120.44954,-20.894707
1836000000,-120.67734,-20.966854
1837000000,-120.78318,-21.05904
1838000000,-121.06953,-21.479029
1839000000,-121.36494,-21.724239
1840000000,-121.55769,-22.060156
1841000000,-121.87041,-22.181284
1842000000,-122.09393,-22.451868
1843000000,-122.48558,-22.886211
1844000000,-122.43042,-22.625565
1845000000,-122.87878,-22.967663
1846000000,-123.0573,-23.319433
1847000000,-123.36341,-23.676775
1848000000,-123.54403,-23.846483
1849000000,-123.81204,-24.000023
1850000000,-123.7137,-23.970102
1851000000,-124.27076,-24.506401
1852000000,-124.50281,-24.66851
1853000000,-124.75793,-24.98638
1854000000,-124.9119,-25.071211
1855000000,-125.42327,-25.565619
1856000000,-125.48605,-25.513824
1857000000,-125.64792,-25.652527
1858000000,-125.8251,-25.771925
1859000000,-126.19242,-26.141758
1860000000,-126.40552,-26.310547
1861000000,-126.71731,-26.608976
1862000000,-126.81073,-26.861174
1863000000,-127.08871,-27.119688
1864000000,-127.21333,-27.097042
1865000000,-127.65337,-27.505888
1866000000,-127.80115,-27.602825
1867000000,-128.01625,-27.754211
1868000000,-128.14249,-28.020037
1869000000,-128.44232,-28.252119
1870000000,-128.73021,-28.567726
1871000000,-129.14041,-28.757515
1872000000,-129.2305,-29.033222
1873000000,-129.16347,-29.04236
1874000000,-129.474,-29.282404
1875000000,-129.6615,-29.512882
1876000000,-130.08487,-29.832041
1877000000,-130.21657,-29.918125
1878000000,-130.53397,-30.243126
1879000000,-130.83595,-30.402971
1880000000,-130.98894,-30.660566
1881000000,-131.26366,-30.889042
1882000000,-131.49013,-31.20153
1883000000,-131.51176,-31.226082
1884000000,-131.86613,-31.434523
1885000000,-132.21988,-31.802185
1886000000,-132.20059,-31.838779
1887000000,-132.33313,-31.9231
1888000000,-132.94556,-32.296856
1889000000,-132.9847,-32.519783
1890000000,-133.02487,-32.597088
1891000000,-133.5472,-32.971321
1892000000,-133.81215,-33.182655
1893000000,-133.68079,-33.214977
1894000000,-133.93538,-33.285549
1895000000,-134.34009,-33.756054
1896000000,-134.54716,-33.928131
1897000000,-134.81924,-34.182201
1898000000,-134.95955,-34.302933
1899000000,-135.1272,-34.595425
1900000000,-135.59271,-34.75425
1901000000,-135.47327,-34.786579
1902000000,-135.60223,-35.031738
1903000000,-135.80757,-35.212444
1904000000,-136.38495,-35.556713
1905000000,-136.42107,-35.64674
1906000000,-136.74985,-36.13773
1907000000,-136.79132,-35.984608
1908000000,-136.91226,-36.254581
1909000000,-137.52989,-36.649441
1910000000,-137.56906,-36.784004
1911000000,-137.84377,-36.970184
1912000000,-138.0199,-36.966934
1913000000,-137.93037,-37.2523
1914000000,-138.21878,-37.353607
1915000000,-138.44254,-37.589554
1916000000,-138.62225,-37.791275
1917000000,-138.82455,-37.99699
1918000000,-139.04266,-38.297703
1919000000,-139.597,-38.603329
1920000000,-139.60844,-38.694233
1921000000,-139.87721,-38.907234
1922000000,-140.19351,-39.187424
1923000000,-140.20064,-39.117638
1924000000,-140.68044,-39.647301
1925000000,-140.67932,-39.614429
1926000000,-140.74644,-39.815128
1927000000,-141.21286,-40.056168
1928000000,-141.48245,-40.258617
1929000000,-141.64874,-40.60973
1930000000,-141.75281,-40.689606
1931000000,-142.00002,-40.899353
1932000000,-141.9379,-40.904911
1933000000,-142.3493,-41.323174
1934000000,-142.71568,-41.572922
1935000000,-142.73743,-41.558414
1936000000,-143.14503,-41.897705
1937000000,-143.11929,-41.9823
1938000000,-143.32977,-42.198612
1939000000,-143.4986,-42.437267
1940000000,-143.53633,-42.373615
1941000000,-144.01459,-42.8046
1942000000,-144.15503,-42.895561
1943000000,-144.39554,-43.079628
1944000000,-144.66547,-43.469753
1945000000,-144.73509,-43.585094
1946000000,-144.92279,-43.637222
1947000000,-145.14238,-43.974945
1948000000,-145.51563,-44.066639
1949000000,-145.5712,-44.265381
1950000000,-145.70593,-44.398796
1951000000,-146.00226,-44.678516
1952000000,-146.27441,-44.837517
1953000000,-146.38945,-44.993229
1954000000,-146.53062,-45.108948
1955000000,-146.72514,-45.331779
1956000000,-147.07523,-45.537693
1957000000,-147.14171,-45.777313
1958000000,-147.54106,-46.014507
1959000000,-147.3087,-46.047844
1960000000,-147.73213,-46.167942
1961000000,-147.61565,-46.151077
1962000000,-148.12253,-46.577957
1963000000,-148.18968,-46.735924
1964000000,-148.62183,-47.033127
1965000000,-148.71985,-46.991543
1966000000,-148.94414,-47.293892
1967000000,-149.16792,-47.588696
1968000000,-149.23903,-47.553635
1969000000,-149.63905,-48.022659
1970000000,-150.07744,-48.282352
1971000000,-149.86415,-48.243454
1972000000,-150.06194,-48.394585
1973000000,-150.43471,-48.568871
1974000000,-150.65547,-48.925529
1975000000,-150.73393,-49.027027
1976000000,-150.83864,-49.233273
1977000000,-151.33426,-49.533436
1978000000,-151.36684,-49.61808
1979000000,-151.34927,-49.489304
1980000000,-151.67435,-49.980671
1981000000,-151.9021,-50.054371
1982000000,-152.21432,-50.295685
1983000000,-152.3244,-50.503159
1984000000,-152.55151,-50.704765
1985000000,-152.65639,-50.816196
1986000000,-152.8782,-51.061394
1987000000,-153.18665,-51.155567
1988000000,-153.33455,-51.290855
1989000000,-153.43797,-51.489292
1990000000,-153.79454,-51.724087
1991000000,-153.75723,-51.883335
1992000000,-154.14864,-52.086006
1993000000,-154.06883,-52.029812
1994000000,-154.29514,-52.26458
1995000000,-154.51385,-52.460396
1996000000,-154.82626,-52.740181
1997000000,-155.0154,-53.181152
1998000000,-155.4173,-53.175812
1999000000,-155.34215,-53.291416
2000000000,-155.46666,-53.492008
2001000000,-155.65761,-53.56213
2002000000,-155.93256,-53.879482
2003000000,-156.38283,-54.297508
2004000000,-156.51927,-54.225704
2005000000,-156.48692,-54.340851
2006000000,-156.65298,-54.490356
2007000000,-156.61652,-54.602139
2008000000,-157.25085,-55.082962
2009000000,-157.19948,-54.922504
2010000000,-157.43706,-55.274792
2011000000,-157.92302,-55.58609
2012000000,-157.7663,-55.44315
2013000000,-158.20064,-55.779041
2014000000,-158.08836,-55.856194
2015000000,-158.35112,-56.059982
2016000000,-158.63609,-56.288074
2017000000,-158.71127,-56.383202
2018000000,-158.99199,-56.460083
2019000000,-159.23303,-56.82806
2020000000,-159.4863,-57.113888
2021000000,-159.34244,-56.987385
2022000000,-159.82494,-57.456802
2023000000,-159.86986,-57.509148
2024000000,-159.93613,-57.520317
2025000000,-160.4953,-57.762241
2026000000,-160.39824,-58.017643
2027000000,-160.65862,-58.09177
2028000000,-160.72215,-58.410435
2029000000,-160.81923,-58.346367
2030000000,-161.00911,-58.713276
2031000000,-161.33092,-58.811787
2032000000,-161.43196,-58.831268
2033000000,-161.62541,-59.065025
2034000000,-161.89632,-59.318569
2035000000,-162.04114,-59.272968
2036000000,-162.12706,-59.702911
2037000000,-162.50055,-59.899784
2038000000,-162.70923,-60.029804
2039000000,-162.77206,-60.123245
2040000000,-162.87943,-60.369057
2041000000,-163.11555,-60.453869
2042000000,-163.30249,-60.713394
2043000000,-163.69533,-61.063133
2044000000,-163.86098,-61.010513
2045000000,-163.94838,-61.304882
2046000000,-164.25215,-61.413681
2047000000,-164.41823,-61.646629
2048000000,-164.41444,-61.411537
2049000000,-164.42448,-61.758217
2050000000,-164.86176,-62.108803
2051000000,-165.07181,-62.315758
2052000000,-165.11995,-62.184681
2053000000,-165.50269,-62.775421
2054000000,-165.54218,-62.659958
2055000000,-165.73761,-62.821999
2056000000,-166.07256,-63.156662
2057000000,-166.15492,-63.155392
2058000000,-166.55511,-63.410629
2059000000,-166.49121,-63.571079
2060000000,-166.62236,-63.548649
2061000000,-166.93246,-63.887882
2062000000,-167.08496,-64.102341
2063000000,-167.28297,-64.283173
2064000000,-167.29428,-64.345657
2065000000,-167.41505,-64.531898
2066000000,-167.75371,-64.662834
2067000000,-167.99719,-64.92083
2068000000,-167.77467,-64.757889
2069000000,-168.51659,-65.278969
2070000000,-168.49617,-65.40966
2071000000,-168.60106,-65.603119
2072000000,-168.92479,-65.805191
2073000000,-168.7963,-65.750511
2074000000,-169.12779,-65.99559
2075000000,-169.45628,-66.284157
2076000000,-169.67009,-66.501099
2077000000,-169.73087,-66.500877
2078000000,-169.95229,-66.785912
2079000000,-170.0486,-66.889709
2080000000,-170.26488,-66.994614
2081000000,-170.49883,-67.175461
2082000000,-170.71855,-67.355019
2083000000,-170.8535,-67.494278
2084000000,-171.07191,-67.768471
2085000000,-171.2646,-67.985474
2086000000,-171.21092,-67.857117
2087000000,-171.75403,-68.453827
2088000000,-171.78664,-68.376518
2089000000,-171.75449,-68.234726
2090000000,-172.23546,-68.802269
2091000000,-172.32791,-68.772354
2092000000,-172.27507,-68.864937
2093000000,-172.50826,-69.178047
2094000000,-172.52011,-69.049904
2095000000,-173.01747,-69.472473
2096000000,-173.14957,-69.900452
2097000000,-173.31447,-69.933571
2098000000,-173.38441,-69.928703
2099000000,-173.74747,-70.341202
2100000000,-173.73587,-70.069183
2101000000,-174.15897,-70.760559
2102000000,-174.255,-70.465057
2103000000,-174.31816,-70.868752
2104000000,-174.58302,-71.015251
2105000000,-174.92493,-71.037483
2106000000,-174.8597,-71.494476
2107000000,-175.26553,-71.509491
2108000000,-175.15785,-71.271309
2109000000,-175.49182,-71.74823
2110000000,-175.55278,-71.752724
2111000000,-175.6385,-71.817062
2112000000,-176.07706,-72.273727
2113000000,-176.32596,-72.435516
2114000000,-176.50818,-72.613068
2115000000,-176.56566,-72.674095
2116000000,-176.7426,-72.698051
2117000000,-176.90401,-72.934708
2118000000,-177.14395,-73.143959
2119000000,-177.36343,-73.277298
2120000000,-177.50977,-73.490112
2121000000,-177.65112,-73.604927
2122000000,-177.62022,-73.614471
2123000000,-178.08542,-74.091515
2124000000,-178.24165,-74.067192
2125000000,-178.54062,-74.405602
2126000000,-178.48604,-74.449783
2127000000,-178.71284,-74.578072
2128000000,-178.86049,-74.747025
2129000000,-179.06189,-75.062981
2130000000,-179.15338,-75.097122
2131000000,-179.3687,-75.113022
2132000000,-179.67892,-75.365829
2133000000,-179.90207,-75.889946
2134000000,179.98387,-75.856339
2135000000,179.71722,-76.146622
2136000000,179.35516,-76.46933
2137000000,179.17407,-76.367287
2138000000,179.12642,-76.462486
2139000000,179.11575,-76.518814
2140000000,178.86435,-76.728004
2141000000,178.53181,-77.210915
2142000000,178.38008,-77.237175
2143000000,178.39856,-77.162064
2144000000,178.16676,-77.315132
2145000000,177.79869,-77.764214
2146000000,177.74785,-77.80761
2147000000,177.45131,-77.967751
2148000000,177.50815,-78.170258
2149000000,177.30153,-78.257713
2150000000,177.19006,-78.389671
2151000000,176.71907,-78.539474
2152000000,176.88409,-78.533401
2153000000,176.6297,-78.723938
2154000000,176.31313,-79.042473
2155000000,176.19864,-79.31675
2156000000,175.94447,-79.440514
2157000000,175.74777,-79.339127
2158000000,175.32343,-79.935875
2159000000,175.38414,-79.96859
2160000000,175.33325,-79.804573
2161000000,174.78764,-80.302887
2162000000,174.80193,-80.298477
2163000000,174.85362,-80.379471
2164000000,174.28477,-80.7761
2165000000,174.31512,-80.791985
2166000000,174.1734,-80.972809
2167000000,173.76218,-81.180992
2168000000,173.69856,-81.397499
2169000000,173.2361,-81.872116
2170000000,173.258,-81.595879
2171000000,172.87402,-81.951607
2172000000,172.7377,-82.171135
2173000000,172.8098,-82.136703
2174000000,172.57567,-82.415405
2175000000,172.25533,-82.74765
2176000000,172.09775,-82.931999
2177000000,171.86911,-82.991562
2178000000,171.51665,-83.256409
2179000000,171.22314,-83.494164
2180000000,171.19922,-83.43605
2181000000,171.02061,-83.670364
2182000000,170.94872,-83.783775
2183000000,170.51964,-83.927742
2184000000,170.41628,-84.1343
2185000000,170.36087,-84.312859
2186000000,169.90509,-84.679115
2187000000,170.09091,-84.532715
2188000000,169.60573,-84.922447
2189000000,169.51202,-84.90638
2190000000,169.34943,-85.271652
2191000000,169.12607,-85.386505
2192000000,168.855,-85.400047
2193000000,168.75426,-85.690819
2194000000,168.25113,-85.997345
2195000000,168.43829,-85.870789
2196000000,167.94577,-86.574532
2197000000,167.98854,-86.240219
2198000000,167.51118,-86.750252
2199000000,167.55067,-86.885246
2200000000,167.20329,-87.043831
2201000000,166.93851,-87.158958
2202000000,166.62956,-87.532562
2203000000,166.64415,-87.492401
2204000000,166.23784,-87.72628
2205000000,166.21074,-87.71981
2206000000,165.93112,-87.990623
2207000000,165.70383,-88.422058
2208000000,165.72592,-88.29026
2209000000,165.28944,-88.621948
2210000000,165.27884,-88.744484
2211000000,164.98738,-89.075012
2212000000,164.59631,-89.379105
2213000000,164.50702,-89.319077
2214000000,164.04652,-89.533882
2215000000,164.32675,-89.469711
2216000000,163.87466,-89.682899
2217000000,163.78113,-90.041122
2218000000,163.34958,-90.419266
2219000000,163.23112,-90.35894
2220000000,162.92978,-90.530052
2221000000,162.87001,-90.625862
2222000000,162.5531,-91.008705
2223000000,162.49516,-91.188698
2224000000,162.12149,-91.261101
2225000000,161.9149,-91.424576
2226000000,161.61023,-91.726929
2227000000,161.47548,-91.702408
2228000000,161.3266,-92.179672
2229000000,161.06395,-92.221466
2230000000,160.78557,-92.622643
2231000000,160.67175,-92.556496
2232000000,160.29042,-92.921753
2233000000,160.01964,-93.341927
2234000000,160.06055,-93.144981
2235000000,159.64348,-93.386475
2236000000,159.39056,-93.642593
2237000000,159.07234,-93.873817
2238000000,158.80888,-94.000969
2239000000,158.76891,-94.158768
2240000000,158.20895,-94.621445
2241000000,158.08113,-94.720009
2242000000,157.81458,-95.033562
2243000000,157.59203,-95.244247
2244000000,157.4664,-95.101021
2245000000,157.14769,-95.66806
2246000000,156.99318,-95.772766
2247000000,156.69623,-95.905472
2248000000,156.45749,-96.08744
2249000000,156.33449,-96.367493
2250000000,155.69728,-96.651207
2251000000,155.59749,-96.930397
2252000000,155.45943,-96.909607
2253000000,155.10098,-97.338684
2254000000,155.01506,-97.105736
2255000000,154.53986,-97.693939
2256000000,154.43448,-97.927147
2257000000,154.17093,-97.960854
2258000000,153.71872,-98.486809
2259000000,153.62813,-98.355347
2260000000,153.33658,-98.825272
2261000000,153.10489,-98.909241
2262000000,152.63005,-99.253616
2263000000,152.34639,-99.626289
2264000000,152.24374,-99.68792
2265000000,151.77916,-100.1205
2266000000,151.85886,-99.795441
2267000000,151.35907,-100.17257
2268000000,151.17717,-100.38821
2269000000,150.77144,-100.85119
2270000000,150.78941,-100.93779
2271000000,150.30734,-101.0556
2272000000,150.03224,-101.45493
2273000000,149.63922,-101.69366
2274000000,149.44817,-101.98736
2275000000,148.9747,-102.16402
2276000000,148.84911,-102.31384
2277000000,148.31169,-102.76048
2278000000,148.02493,-103.20887
2279000000,147.80147,-103.1845
2280000000,147.5293,-103.67242
2281000000,147.26976,-103.65815
2282000000,146.8978,-104.05383
2283000000,146.5554,-104.21133
2284000000,146.48917,-104.35484
2285000000,145.95425,-104.8094
2286000000,145.83644,-105.00698
2287000000,145.34886,-105.32371
2288000000,145.14014,-105.22826
2289000000,144.57193,-106.03845
2290000000,144.44324,-106.08334
2291000000,144.09993,-106.14982
2292000000,143.65756,-106.84814
2293000000,143.13518,-106.99245
2294000000,142.86839,-107.14294
2295000000,142.61722,-107.55833
2296000000,142.12949,-107.91992
2297000000,142.06668,-107.78438
2298000000,141.57968,-108.15195
2299000000,141.35837,-108.27104
2300000000,140.73204,-108.91501
2301000000,140.43625,-109.20779
2302000000,139.85129,-109.69899
2303000000,139.64757,-109.76472
2304000000,139.28542,-110.19006
2305000000,138.98596,-110.32079
2306000000,138.75476,-110.55057
2307000000,138.30344,-110.94402
2308000000,137.86192,-111.13236
2309000000,137.26604,-111.79186
2310000000,137.10841,-111.65851
2311000000,136.72151,-111.94453
2312000000,136.24924,-112.46457
2313000000,135.69716,-112.8066
2314000000,135.50443,-113.10446
2315000000,134.96579,-113.4602
2316000000,134.58429,-113.60143
2317000000,134.07861,-114.08717
2318000000,133.54645,-114.58926
2319000000,133.24223,-114.84847
2320000000,132.66965,-115.14391
2321000000,132.18581,-115.54484
2322000000,131.69458,-115.74702
2323000000,131.25656,-116.3174
2324000000,130.94112,-116.57141
2325000000,130.36618,-116.83894
2326000000,129.90877,-117.24223
2327000000,129.61736,-117.653
2328000000,128.76865,-118.41869
2329000000,128.41049,-118.32732
2330000000,127.8231,-118.89805
2331000000,127.23093,-119.36369
2332000000,126.70088,-119.89693
2333000000,126.34232,-119.91755
2334000000,125.87083,-120.27139
2335000000,124.9987,-120.91555
2336000000,124.65101,-121.16203
2337000000,123.84356,-121.70198
2338000000,123.50558,-122.29218
2339000000,122.8392,-122.63953
2340000000,122.08933,-122.96823
2341000000,121.64302,-123.45203
2342000000,120.96748,-123.85481
2343000000,120.50693,-124.29115
2344000000,119.66735,-124.84737
2345000000,119.21152,-125.25682
2346000000,118.52255,-125.60102
2347000000,117.83825,-126.06949
2348000000,117.26632,-126.57034
2349000000,116.53621,-127.05904
2350000000,115.94662,-127.50376
2351000000,115.19834,-128.11244
2352000000,114.45737,-128.51414
2353000000,113.72857,-129.18582
2354000000,112.88982,-129.86998
2355000000,112.29916,-130.11559
2356000000,111.31311,-130.62416
2357000000,110.68745,-131.31921
2358000000,109.81664,-131.93781
2359000000,108.99816,-132.37776
2360000000,108.25728,-132.84698
2361000000,107.48555,-133.48543
2362000000,106.69706,-134.07458
2363000000,105.75372,-134.57748
2364000000,104.77702,-135.18883
2365000000,103.91559,-135.94067
2366000000,102.8598,-136.51558
2367000000,101.95492,-137.17812
2368000000,101.15646,-137.55063
2369000000,100.05307,-138.37611
2370000000,98.895477,-139.02841
2371000000,98.064613,-139.55507
2372000000,96.989548,-140.29427
2373000000,96.024712,-140.96103
2374000000,94.973846,-141.41113
2375000000,93.658157,-142.30286
2376000000,92.972893,-142.69702
2377000000,91.281975,-143.89316
2378000000,90.103775,-144.44148
2379000000,88.98716,-145.15245
2380000000,87.644676,-146.00351
2381000000,86.393768,-146.45332
2382000000,85.106148,-147.35231
2383000000,83.701981,-148.03177
2384000000,82.331421,-148.86848
2385000000,80.586952,-149.74971
2386000000,79.266617,-150.40952
2387000000,77.668121,-151.25967
2388000000,76.15551,-152.07524
2389000000,74.643852,-152.69853
2390000000,72.749634,-153.85358
2391000000,71.084557,-154.69412
2392000000,69.16349,-155.25186
2393000000,67.465614,-156.46082
2394000000,65.402184,-157.25769
2395000000,63.57185,-158.1692
2396000000,61.41832,-158.98442
2397000000,59.26614,-159.78917
2398000000,57.048824,-160.54657
2399000000,54.675369,-161.62852
2400000000,52.403137,-162.45761
2401000000,50.01424,-163.07733
2402000000,47.444603,-164.18442
2403000000,44.403954,-165.15726
2404000000,41.714451,-166.06702
2405000000,38.60321,-167.4306
2406000000,35.497807,-168.31473
2407000000,32.404575,-169.08356
2408000000,29.086924,-169.98645
2409000000,25.503736,-170.96417
2410000000,21.943897,-172.11476
2411000000,18.044321,-172.94052
2412000000,14.270783,-174.10507
2413000000,10.139164,-174.9044
2414000000,5.8815632,-176.19244
2415000000,1.7950655,-177.03818
2416000000,-2.6735907,-178.08156
2417000000,-7.1110029,-179.14201
2418000000,-11.547414,-179.80882
2419000000,-15.972324,178.79483
2420000000,-20.559439,177.76294
2421000000,-24.864656,176.81898
2422000000,-29.166817,175.88455
2423000000,-33.774471,174.75752
2424000000,-37.803661,174.06026
2425000000,-42.034367,172.68185
2426000000,-45.990517,171.91254
2427000000,-49.977528,170.76289
2428000000,-53.3354,169.80331
2429000000,-57.146408,168.90302
2430000000,-60.479965,168.03816
2431000000,-63.635918,166.94554
2432000000,-66.667999,165.83604
2433000000,-69.948792,164.92519
2434000000,-72.76635,163.92825
2435000000,-75.608368,162.99167
2436000000,-78.12973,162.06473
2437000000,-80.69912,161.1333
2438000000,-83.352539,160.15385
2439000000,-85.685455,158.96976
2440000000,-88.015587,158.26236
2441000000,-90.121941,157.05708
2442000000,-92.129486,156.47588
2443000000,-94.315758,155.65785
2444000000,-96.347534,154.82492
2445000000,-98.195625,153.76599
2446000000,-100.2588,152.68288
2447000000,-101.73078,152.18626
2448000000,-103.7483,150.93842
2449000000,-105.33083,150.16541
2450000000,-107.04335,149.39034
2451000000,-108.34064,148.69791
2452000000,-109.98558,148.01271
2453000000,-111.59084,147.04689
2454000000,-112.80726,146.24104
2455000000,-114.14803,145.37086
2456000000,-115.8477,144.67297
2457000000,-117.41611,143.38048
2458000000,-118.47316,143.04855
2459000000,-119.69348,142.28505
2460000000,-120.95977,141.51181
2461000000,-122.35727,140.72203
2462000000,-123.39126,139.91287
2463000000,-124.59711,139.39223
2464000000,-125.73699,138.59351
2465000000,-126.85732,137.86705
2466000000,-127.75127,137.25287
2467000000,-128.88911,136.57413
2468000000,-129.90469,135.78752
2469000000,-130.90674,135.22714
2470000000,-131.80949,134.73769
2471000000,-133.065,133.8869
2472000000,-134.08696,133.11772
2473000000,-134.85504,132.6888
2474000000,-135.69469,132.16554
2475000000,-136.50253,131.46773
2476000000,-137.39291,130.8279
2477000000,-138.20091,130.42929
2478000000,-139.26389,129.78976
2479000000,-140.27385,128.95247
2480000000,-140.78218,128.64674
2481000000,-141.36577,128.42477
2482000000,-142.51695,127.48672
2483000000,-143.22969,126.88325
2484000000,-144.18936,126.33109
2485000000,-144.87321,125.79851
2486000000,-145.56172,125.14822
2487000000,-146.14592,124.9265
2488000000,-146.86247,124.2854
2489000000,-147.68546,123.87856
2490000000,-148.36617,123.28822
2491000000,-148.93402,122.76936
2492000000,-149.80487,122.17157
2493000000,-150.39244,121.93429
2494000000,-150.8829,121.50612
2495000000,-151.69359,120.93294
2496000000,-152.33707,120.61445
2497000000,-152.6945,120.33765
2498000000,-153.26234,119.83218
2499000000,-153.95464,119.1524
2500000000,-154.61128,118.83765
2501000000,-155.26244,118.40637
2502000000,-155.61847,118.04329
2503000000,-156.02469,117.63903
2504000000,-157.13344,116.96835
2505000000,-157.67964,116.28947
2506000000,-158.33977,116.04405
2507000000,-158.31898,115.91586
2508000000,-159.04359,115.34203
2509000000,-159.61646,115.13986
2510000000,-159.89232,114.77879
2511000000,-160.77376,114.31328
2512000000,-161.23875,113.81508
2513000000,-161.54582,113.64544
2514000000,-162.09349,113.29511
2515000000,-162.59013,112.79155
2516000000,-162.79491,112.36112
2517000000,-163.15257,112.38658
2518000000,-163.92221,111.8492
2519000000,-164.41251,111.51814
2520000000,-164.71858,111.05862
2521000000,-165.12186,110.79587
2522000000,-165.60599,110.50877
2523000000,-166.1181,110.16961
2524000000,-166.42564,109.88184
2525000000,-166.80469,109.69483
2526000000,-167.55107,109.06236
2527000000,-167.71452,108.86084
2528000000,-168.26811,108.34516
2529000000,-168.51405,108.34388
2530000000,-168.85037,108.06345
2531000000,-169.21152,107.63594
2532000000,-169.7675,107.43427
2533000000,-169.95985,107.0817
2534000000,-170.46484,106.56496
2535000000,-170.71886,106.69321
2536000000,-171.26863,106.30574
2537000000,-171.6866,105.98325
2538000000,-172.19069,105.43268
2539000000,-172.53448,105.05825
2540000000,-172.58757,105.38252
2541000000,-173.06245,104.78908
2542000000,-173.39233,104.57691
2543000000,-173.7988,104.25684
2544000000,-174.0629,103.87138
2545000000,-174.51888,103.90292
2546000000,-174.57788,103.59088
2547000000,-175.0629,103.31139
2548000000,-175.3911,102.98425
2549000000,-175.74365,102.60747
2550000000,-176.11804,102.40717
2551000000,-176.24457,102.27177
2552000000,-176.67831,101.85612
2553000000,-176.98985,101.8192
2554000000,-177.0995,101.49827
2555000000,-177.72627,101.3525
2556000000,-177.94049,101.01282
2557000000,-178.15851,100.74069
2558000000,-178.38927,100.86381
2559000000,-178.73979,100.41455
2560000000,-179.14119,100.12207
2561000000,-179.40768,99.936752
2562000000,-179.56834,99.734177
2563000000,179.98827,99.51886
2564000000,179.84479,99.397728
2565000000,179.63914,99.161942
2566000000,179.38524,98.868256
2567000000,178.89342,98.604324
2568000000,178.46429,98.033508
2569000000,178.51459,98.279198
2570000000,178.02412,97.937073
2571000000,177.81314,97.856789
2572000000,177.73567,97.807091
2573000000,177.33156,97.236824
2574000000,177.01619,97.12886
2575000000,176.9444,97.205597
2576000000,176.5316,96.717751
2577000000,176.24571,96.46788
2578000000,176.13503,96.401245
2579000000,175.56183,95.985153
2580000000,175.54276,95.990608
2581000000,175.05328,95.466202
2582000000,175.13094,95.594315
2583000000,174.70999,95.289597
2584000000,174.54721,95.259651
2585000000,174.33192,95.376083
2586000000,173.97502,94.7658
2587000000,173.91512,94.75605
2588000000,173.71309,94.571846
2589000000,173.53897,94.460083
2590000000,173.14435,94.075508
2591000000,172.88617,94.014618
2592000000,172.64218,93.68708
2593000000,172.25659,93.441757
2594000000,172.11011,93.310097
2595000000,171.8423,93.135696
2596000000,171.8326,93.385513
2597000000,171.46634,93.078796
2598000000,171.30057,92.991646
2599000000,171.28661,92.617882
2600000000,170.91846,92.521049
2601000000,170.7197,92.39193
2602000000,170.38931,92.05661
2603000000,170.20319,91.885597
2604000000,169.88911,91.942245
2605000000,170.18663,91.878784
2606000000,169.33559,91.232353
2607000000,169.23904,91.156975
2608000000,169.19008,91.305809
2609000000,168.86241,90.961304
2610000000,168.78563,90.803284
2611000000,168.38295,90.721352
2612000000,168.1196,90.318863
2613000000,168.17873,90.241371
2614000000,167.84657,89.913307
2615000000,167.67372,89.834053
2616000000,167.04079,89.302574
2617000000,167.24785,89.689926
2618000000,167.18716,89.546051
2619000000,166.91391,89.516235
2620000000,166.51727,88.99987
2621000000,166.39548,88.923332
2622000000,166.08969,88.828438
2623000000,165.99312,88.702629
2624000000,165.64621,88.542961
2625000000,165.54585,88.397659
2626000000,165.70979,88.509354
2627000000,165.11884,88.183769
2628000000,165.27335,88.074829
2629000000,164.92024,88.161415
2630000000,164.645,87.814354
2631000000,164.44647,87.675591
2632000000,164.36185,87.457787
2633000000,164.21245,87.43544
2634000000,164.00351,87.075768
2635000000,163.8689,87.318237
2636000000,163.58075,86.976799
2637000000,163.46861,86.81076
2638000000,163.19963,86.615273
2639000000,163.07806,86.72596
2640000000,162.82463,85.966576
2641000000,162.76918,86.355995
2642000000,162.30176,86.070496
2643000000,162.58388,86.371239
2644000000,162.10147,85.67466
2645000000,162.13469,86.078766
2646000000,161.77484,85.689987
2647000000,161.59175,85.341675
2648000000,161.47269,84.893471
2649000000,161.37827,85.359581
2650000000,161.1765,85.238815
2651000000,160.93443,84.757294
2652000000,160.56529,84.537254
2653000000,160.55194,84.523964
2654000000,160.48946,84.323677
2655000000,160.41403,84.688202
2656000000,159.96286,83.969383
2657000000,159.7886,83.910507
2658000000,159.82799,83.930092
2659000000,159.59154,84.416573
2660000000,159.36052,83.94902
2661000000,159.38029,83.923592
2662000000,158.75006,83.641792
2663000000,158.60889,83.526825
2664000000,158.80667,83.537476
2665000000,158.60318,83.677628
2666000000,158.45607,83.823776
2667000000,158.12941,82.945206
2668000000,157.81259,83.70092
2669000000,157.85135,82.862198
2670000000,157.63254,82.788673
2671000000,157.42154,82.583496
2672000000,157.51006,82.839798
2673000000,157.34903,82.862022
2674000000,157.11147,83.064911
2675000000,156.85838,82.735229
2676000000,156.78326,82.540947
2677000000,156.65817,82.378479
2678000000,156.43513,82.035355
2679000000,156.44937,82.568657
2680000000,156.20906,81.985176
2681000000,156.10809,82.074997
2682000000,155.98637,82.447647
2683000000,155.77208,82.303284
2684000000,155.61426,81.60585
2685000000,155.27138,82.184151
2686000000,155.15337,81.803467
2687000000,155.02858,81.261642
2688000000,154.90102,81.552986
2689000000,154.60547,82.019295
2690000000,154.57303,81.223976
2691000000,154.53291,81.635635
2692000000,154.04808,80.941139
2693000000,153.90895,80.947029
2694000000,154.15808,81.187851
2695000000,153.81935,80.986687
2696000000,153.46819,81.17411
2697000000,153.38806,81.079758
2698000000,153.68346,80.940155
2699000000,153.48328,80.401176
2700000000,152.81483,81.382195
2701000000,153.11568,79.869156
2702000000,152.84862,81.093857
2703000000,152.62602,81.000717
2704000000,152.55734,81.10994
2705000000,152.27991,80.362663
2706000000,152.26598,80.47998
2707000000,152.03647,81.402763
2708000000,151.90244,80.63633
2709000000,151.79449,81.862091
2710000000,151.57709,81.191017
2711000000,151.35936,80.042809
2712000000,151.60127,80.732903
2713000000,151.16621,80.638191
2714000000,151.21114,80.312607
2715000000,150.93214,80.061302
2716000000,150.7823,80.780998
2717000000,150.84685,80.657051
2718000000,150.45815,80.244217
2719000000,150.35855,81.242035
2720000000,150.1114,80.35746
2721000000,149.98206,80.568024
2722000000,149.95351,81.619095
2723000000,149.73994,81.211708
2724000000,149.65527,81.935997
2725000000,149.62425,81.278053
2726000000,149.27185,80.534546
2727000000,149.06049,81.262024
2728000000,149.00406,80.297089
2729000000,148.93958,81.912376
2730000000,148.73637,81.095467
2731000000,148.38129,83.433533
2732000000,148.49068,81.560104
2733000000,148.45404,82.822487
2734000000,148.12041,82.105614
2735000000,148.12067,82.89949
2736000000,147.95218,83.801979
2737000000,147.9122,82.191628
2738000000,147.71672,83.061287
2739000000,147.74995,83.188072
2740000000,147.33344,82.465034
2741000000,147.18005,82.855728
2742000000,147.25137,83.854507
2743000000,147.22485,84.453941
2744000000,146.72687,82.655731
2745000000,146.56822,83.491989
2746000000,146.49245,85.158386
2747000000,146.56696,82.575783
2748000000,146.35889,85.465912
2749000000,146.22386,87.291702
2750000000,145.94885,84.811623
2751000000,145.85997,86.059174
2752000000,145.92949,84.798042
2753000000,145.75642,85.478752
2754000000,145.45247,87.051697
2755000000,145.58534,88.694252
2756000000,145.26106,87.851143
2757000000,145.25003,88.501259
2758000000,144.93376,88.583786
2759000000,144.91283,89.734497
2760000000,144.80414,90.261482
2761000000,144.67151,90.181381
2762000000,144.50742,91.525467
2763000000,144.32629,92.016525
2764000000,144.35559,92.087982
2765000000,143.98994,93.480118
2766000000,144.12442,95.37516
2767000000,143.80421,93.715698
2768000000,143.68474,97.102524
2769000000,143.72858,97.514183
2770000000,143.53833,98.210182
2771000000,143.24435,98.321022
2772000000,143.28767,99.111244
2773000000,142.92139,98.999207
2774000000,143.17491,101.92146
2775000000,142.84348,102.62724
2776000000,142.60701,105.87183
2777000000,142.56519,105.34468
2778000000,142.4585,106.50191
2779000000,142.2529,107.82192
2780000000,142.0789,106.38074
2781000000,142.04495,110.50745
2782000000,142.12436,114.03901
2783000000,141.91389,113.98422
2784000000,141.61089,112.75983
2785000000,141.41449,115.42292
2786000000,141.27466,115.70081
2787000000,141.0598,118.22957
2788000000,140.86108,119.53812
2789000000,141.02293,122.1946
2790000000,140.96332,123.39263
2791000000,140.94566,122.8107
2792000000,140.57841,124.27911
2793000000,140.55705,124.01778
2794000000,140.34412,125.82932
2795000000,139.94226,124.83472
2796000000,140.18988,125.87576
2797000000,140.26781,126.17713
2798000000,139.89931,126.00073
2799000000,139.83121,128.14581
2800000000,139.98978,130.14484
2801000000,139.51639,129.75937
2802000000,139.48531,130.64159
2803000000,139.46489,132.06956
2804000000,139.30933,131.85681
2805000000,139.09506,131.94873
2806000000,138.86685,132.37668
2807000000,138.64539,134.27805
2808000000,138.67122,133.0936
2809000000,138.48991,137.09225
2810000000,138.51018,133.67778
2811000000,138.38805,134.71379
2812000000,138.24236,139.395
2813000000,138.28941,138.07422
2814000000,137.76343,135.91003
2815000000,137.86687,134.86832
2816000000,137.61421,133.86244
2817000000,137.56786,136.22079
2818000000,137.38242,135.88448
2819000000,137.24365,135.56172
2820000000,137.04649,134.10831
2821000000,137.10017,133.11479
2822000000,136.88959,134.3826
2823000000,136.96776,133.9628
2824000000,136.53311,132.04631
2825000000,136.71936,130.7252
2826000000,136.34929,131.40872
2827000000,136.14729,129.19356
2828000000,136.14764,128.55074
2829000000,136.15822,127.48389
2830000000,135.95407,127.0776
2831000000,135.97908,124.54459
2832000000,135.79358,123.49677
2833000000,135.68335,123.74226
2834000000,135.5553,119.87519
2835000000,135.30598,118.31003
2836000000,135.43939,118.01928
2837000000,135.04234,114.65507
2838000000,135.04788,112.62419
2839000000,134.88742,112.12689
2840000000,134.84581,109.59141
2841000000,134.6087,108.08594
2842000000,134.52707,103.77051
2843000000,134.56595,103.7667
2844000000,134.27266,99.740608
2845000000,134.15463,99.729065
2846000000,134.1947,96.980324
2847000000,133.82275,95.275009
2848000000,133.88982,91.618576
2849000000,133.59883,88.717415
2850000000,133.66422,87.398895
2851000000,133.30482,86.390739
2852000000,133.49144,84.435814
2853000000,133.47276,80.508575
2854000000,132.99477,77.155975
2855000000,132.97807,76.025078
2856000000,132.89014,71.442139
2857000000,132.79887,72.766129
2858000000,132.3633,66.315407
2859000000,132.39723,65.350769
2860000000,132.37532,65.34996
2861000000,132.48804,63.646988
2862000000,132.05943,60.382847
2863000000,132.05136,58.187248
2864000000,131.88406,56.88792
2865000000,131.78944,53.949112
2866000000,131.58151,50.196316
2867000000,131.39868,50.910133
2868000000,131.4529,45.104618
2869000000,131.39308,43.489349
2870000000,131.3082,41.699284
2871000000,130.9902,38.689423
2872000000,131.15627,35.039787
2873000000,131.00259,31.255455
2874000000,130.89366,31.64798
2875000000,130.422,29.205841
2876000000,130.52101,26.96357
2877000000,130.39249,22.890844
2878000000,130.30498,24.056458
2879000000,129.91504,17.48461
2880000000,130.08009,17.313204
2881000000,130.0775,15.526993
2882000000,129.89555,15.88784
2883000000,129.67809,12.509772
2884000000,129.56976,10.781952
2885000000,129.55489,6.1840873
2886000000,129.65833,4.8851261
2887000000,129.17926,2.6183193
2888000000,129.19559,0.56409919
2889000000,129.16106,-1.6317487
2890000000,128.9382,3.7636998
2891000000,128.92546,-0.57940125
2892000000,128.6593,-2.2284396
2893000000,128.56645,-5.3812852
2894000000,128.58441,-13.94529
2895000000,128.2975,-12.83651
2896000000,128.09625,-9.8055601
2897000000,127.85524,-17.84285
2898000000,127.90643,-13.494697
2899000000,127.71647,-9.3492699
2900000000,127.82847,-22.763241
2901000000,127.44425,-22.293879
2902000000,127.43173,-23.660568
2903000000,127.2229,-22.416128
2904000000,127.35242,-22.287786
2905000000,127.02222,-27.993647
2906000000,126.85708,-27.856943
2907000000,126.7321,-31.189041
2908000000,126.7655,-30.305126
2909000000,126.54333,-34.353279
2910000000,126.43329,-36.395943
2911000000,126.46109,-34.782112
2912000000,126.21584,-40.88353
2913000000,126.15601,-38.794117
2914000000,126.04391,-41.870403
2915000000,125.88464,-44.173134
2916000000,125.74577,-43.603069
2917000000,125.70398,-45.966785
2918000000,125.39624,-43.04052
2919000000,125.34492,-44.432335
2920000000,125.42991,-46.595955
2921000000,125.43327,-49.711224
2922000000,125.36787,-48.511703
2923000000,124.87068,-49.412548
2924000000,124.85967,-53.212147
2925000000,124.90723,-54.893768
2926000000,124.20708,-52.224693
2927000000,124.57891,-54.887211
2928000000,124.34249,-52.955864
2929000000,124.18407,-58.90237
2930000000,124.04241,-56.656151
2931000000,124.16698,-56.294643
2932000000,123.76173,-60.24789
2933000000,123.62655,-56.87767
2934000000,123.75633,-59.355881
2935000000,123.4732,-61.693233
2936000000,123.42597,-59.75684
2937000000,123.43238,-58.017029
2938000000,123.18309,-63.35585
2939000000,123.22182,-59.358379
2940000000,122.81772,-62.379395
2941000000,122.83519,-61.848694
2942000000,122.84806,-61.959248
2943000000,122.68611,-70.19706
2944000000,122.51202,-58.220989
2945000000,122.37542,-65.152664
2946000000,122.27856,-68.065552
2947000000,122.0869,-69.496056
2948000000,122.03777,-63.299988
2949000000,121.65605,-68.617325
2950000000,121.7653,-67.671852
2951000000,121.55774,-68.749001
2952000000,121.55289,-69.188408
2953000000,121.56994,-70.388908
2954000000,121.26239,-72.789482
2955000000,121.12619,-73.992722
2956000000,121.04218,-75.171387
2957000000,120.9756,-71.715004
2958000000,120.89578,-74.175102
2959000000,120.74428,-71.009552
2960000000,120.88947,-74.382011
2961000000,120.62516,-75.347145
2962000000,120.51025,-76.911049
2963000000,120.46098,-75.589272
2964000000,120.16344,-73.741409
2965000000,120.19817,-77.235275
2966000000,119.91544,-80.345398
2967000000,119.80588,-79.910172
2968000000,119.64159,-77.47065
2969000000,119.67157,-80.40126
2970000000,119.43553,-77.138969
2971000000,119.47559,-81.041183
2972000000,119.32872,-75.711586
2973000000,119.06173,-79.003944
2974000000,119.05449,-81.112465
2975000000,118.87999,-78.292244
2976000000,118.90738,-78.517899
2977000000,118.78453,-79.901764
2978000000,118.50653,-82.778816
2979000000,118.54125,-79.148819
2980000000,118.19556,-81.858688
2981000000,118.23574,-81.566994
2982000000,118.07069,-77.240494
2983000000,117.95515,-85.151939
2984000000,117.86597,-84.954315
2985000000,117.65479,-86.823433
2986000000,117.75499,-80.132248
2987000000,117.4733,-80.580452
2988000000,117.44994,-81.961182
2989000000,117.23302,-88.100105
2990000000,117.13093,-83.327499
2991000000,117.03487,-86.274162
2992000000,116.89928,-86.652176
2993000000,116.88499,-86.274658
2994000000,116.66761,-90.143089
2995000000,116.28426,-85.418831
2996000000,116.52214,-82.364006
2997000000,116.24876,-87.351028
2998000000,116.07958,-88.505577
2999000000,116.02914,-88.264114
3000000000,115.93205,-87.653854
3001000000,115.9432,-86.03701
3002000000,115.71497,-87.939369
3003000000,115.66994,-88.898582
3004000000,115.5699,-89.253494
3005000000,115.30576,-87.134659
3006000000,115.3519,-86.676552
3007000000,115.24554,-91.501747
3008000000,115.02573,-92.355087
3009000000,114.87317,-94.752411
3010000000,114.62541,-95.622574
3011000000,114.75199,-93.356369
3012000000,114.58318,-90.101883
3013000000,114.62052,-92.836731
3014000000,114.28491,-92.388245
3015000000,114.06945,-91.990494
3016000000,114.04567,-93.620842
3017000000,113.97467,-98.226227
3018000000,113.81283,-98.354141
3019000000,113.7332,-102.63972
3020000000,113.63855,-104.49076
3021000000,113.23193,-101.91273
3022000000,113.40527,-99.014488
3023000000,113.17253,-108.55448
3024000000,113.16938,-104.74347
3025000000,112.99498,-105.02271
3026000000,112.68126,-104.91835
3027000000,112.91169,-100.44104
3028000000,112.71973,-102.08012
3029000000,112.43804,-98.71888
3030000000,112.34821,-102.62836
3031000000,112.07294,-103.92864
3032000000,111.95541,-100.5638
3033000000,111.86037,-98.218376
3034000000,111.78328,-99.732948
3035000000,111.65298,-109.4086
3036000000,111.43717,-104.5218
3037000000,111.69559,-104.70039
3038000000,111.19931,-106.57832
3039000000,111.29823,-108.1955
3040000000,111.19251,-108.06371
3041000000,111.08437,-112.73208
3042000000,111.00945,-111.28
3043000000,110.84798,-112.67762
3044000000,110.56214,-114.45174
3045000000,110.56908,-118.05803
3046000000,110.33486,-115.85155
3047000000,110.44505,-110.58302
3048000000,110.11851,-112.58505
3049000000,110.04906,-111.74366
3050000000,110.04089,-120.5063
3051000000,109.77767,-122.5101
3052000000,109.68476,-119.90569
3053000000,109.39117,-125.71815
3054000000,109.45704,-120.04517
3055000000,109.54518,-116.25263
3056000000,109.28442,-125.21694
3057000000,109.03904,-125.45127
3058000000,108.78848,-118.37424
3059000000,108.68692,-132.05675
3060000000,108.55071,-126.98054
3061000000,108.49453,-118.71739
3062000000,108.47371,-126.84922
3063000000,108.40463,-126.56033
3064000000,108.17133,-123.99953
3065000000,108.18033,-127.39875
3066000000,107.77488,-128.47743
3067000000,107.78771,-135.46086
3068000000,107.56695,-132.3119
3069000000,107.50953,-133.49583
3070000000,107.29288,-135.04482
3071000000,107.22582,-138.34523
3072000000,107.14584,-141.62727
3073000000,107.07483,-133.78221
3074000000,107.18793,-137.7309
3075000000,106.95331,-137.03821
3076000000,106.79416,-143.7278
3077000000,106.59248,-146.89595
3078000000,106.40945,-146.44179
3079000000,106.25629,-149.10396
3080000000,106.19684,-146.61845
3081000000,106.14592,-150.3774
3082000000,105.98228,-147.55392
3083000000,105.61736,-150.46771
3084000000,105.66476,-151.3566
3085000000,105.4635,-155.27864
3086000000,105.54371,-152.18857
3087000000,105.52264,-156.51324
3088000000,105.30729,-153.77522
3089000000,105.1289,-156.39642
3090000000,104.98972,-157.17686
3091000000,104.85262,-157.78122
3092000000,104.81387,-153.99989
3093000000,104.55575,-158.4521
3094000000,104.36673,-159.4872
3095000000,104.35229,-161.45665
3096000000,104.35287,-163.95705
3097000000,103.89655,-161.01495
3098000000,103.80728,-164.0639
3099000000,103.89915,-159.2803
3100000000,103.73493,-165.60117
3101000000,103.66286,-166.69957
3102000000,103.3274,-167.67073
3103000000,103.34292,-166.43962
3104000000,103.03581,-164.19978
3105000000,102.9146,-167.88446
3106000000,102.93044,-169.88739
3107000000,102.91982,-163.9621
3108000000,102.63245,-170.55782
3109000000,102.48413,-170.35362
3110000000,102.34557,-173.40999
3111000000,102.13149,-170.3958
3112000000,102.06808,-174.54636
3113000000,102.00304,-174.2735
3114000000,102.03685,-177.08917
3115000000,101.68084,-173.36069
3116000000,101.59945,-176.27815
3117000000,101.36176,-178.46014
3118000000,101.0127,-178.8416
3119000000,101.05056,-178.2122
3120000000,100.99748,-178.52559
3121000000,100.98663,-179.68156
3122000000,100.77766,-178.95361
3123000000,100.52094,-178.18933
3124000000,100.55892,-179.04654
3125000000,100.08413,-179.97751
3126000000,100.19326,177.55136
3127000000,99.957901,178.93225
3128000000,100.07053,176.00168
3129000000,99.978149,175.08028
3130000000,99.754509,177.45554
3131000000,99.408165,175.51834
3132000000,99.389992,177.96921
3133000000,99.304657,175.45094
3134000000,99.189972,174.42055
3135000000,99.088013,175.77003
3136000000,98.950287,174.58171
3137000000,98.710541,175.69914
3138000000,98.478394,172.86478
3139000000,98.307472,173.91052
3140000000,98.353218,174.41098
3141000000,98.172928,173.27487
3142000000,98.165802,173.00537
3143000000,97.808449,173.08356
3144000000,97.811607,172.95226
3145000000,97.632576,173.54178
3146000000,97.615074,171.76245
3147000000,97.339226,171.81778
3148000000,97.127899,173.73854
3149000000,97.23188,171.85426
3150000000,96.789474,172.02908
3151000000,96.72747,173.4684
3152000000,96.534668,170.57408
3153000000,96.370377,170.00642
3154000000,96.261391,169.61917
3155000000,96.259895,170.04057
3156000000,96.180511,170.49202
3157000000,95.920303,168.95193
3158000000,95.619019,168.13718
3159000000,95.769554,168.18687
3160000000,95.797348,168.78894
3161000000,95.184822,168.2099
3162000000,95.251068,167.09642
3163000000,95.159416,167.58891
3164000000,95.008316,165.93803
3165000000,94.954872,168.28375
3166000000,94.743935,166.43417
3167000000,94.483467,166.68324
3168000000,94.274353,166.27504
3169000000,94.194221,165.95616
3170000000,94.135262,164.85564
3171000000,94.000359,165.77151
3172000000,93.836975,165.6693
3173000000,93.794075,165.10594
3174000000,93.540962,164.4846
3175000000,93.341621,165.23459
3176000000,93.069626,164.21094
3177000000,92.952652,164.69156
3178000000,93.083717,162.93767
3179000000,92.727936,164.09344
3180000000,92.346092,163.63426
3181000000,92.457054,163.82768
3182000000,92.195045,163.19203
3183000000,92.120346,163.23497
3184000000,92.031517,163.43678
3185000000,91.983528,162.7901
3186000000,91.761726,162.67233
3187000000,91.632439,163.01825
3188000000,91.41909,161.95534
3189000000,91.269981,162.63843
3190000000,91.29113,162.84903
3191000000,90.961975,162.51859
3192000000,90.68161,161.56171
3193000000,90.51767,161.77568
3194000000,90.442986,161.84808
3195000000,90.4198,161.12384
3196000000,90.193062,161.18272
3197000000,90.056808,160.58699
3198000000,89.953812,160.1064
3199000000,89.8321,161.20679
3200000000,89.689354,160.26462
3201000000,89.544456,159.93608
3202000000,89.419121,160.13312
3203000000,88.991203,160.04288
3204000000,88.909164,159.2617
3205000000,88.805466,159.46799
3206000000,88.584641,158.72263
3207000000,88.367966,159.16623
3208000000,88.178741,158.99979
3209000000,88.202499,158.75839
3210000000,87.983574,158.74643
3211000000,87.893311,157.912
3212000000,87.717735,158.59988
3213000000,87.458443,158.03995
3214000000,87.452339,158.56635
3215000000,87.45417,158.34286
3216000000,87.106499,158.76433
3217000000,86.924812,158.5365
3218000000,86.684578,158.30188
3219000000,86.682755,156.89185
3220000000,86.430557,157.29308
3221000000,86.280853,157.95752
3222000000,86.199478,157.49454
3223000000,86.029716,157.50018
3224000000,85.797943,156.35497
3225000000,85.635727,157.31346
3226000000,85.651726,157.34093
3227000000,85.406342,156.95488
3228000000,85.086029,156.91872
3229000000,85.230194,157.41273
3230000000,84.848991,157.01691
3231000000,84.718529,156.03203
3232000000,84.48539,155.96922
3233000000,84.278664,155.86609
3234000000,84.101196,155.84395
3235000000,83.873482,156.47871
3236000000,83.917465,155.90784
3237000000,83.757874,156.36992
3238000000,83.566208,155.8112
3239000000,83.392181,155.6153
3240000000,83.384941,155.63789
3241000000,83.103287,155.04758
3242000000,83.159943,155.24492
3243000000,82.822144,155.10876
3244000000,82.488762,154.85309
3245000000,82.426537,154.24815
3246000000,82.029533,154.74219
3247000000,82.074257,154.41127
3248000000,82.016251,154.35147
3249000000,81.598175,154.43039
3250000000,81.403397,154.46832
3251000000,81.385536,154.17009
3252000000,81.136223,153.94284
3253000000,81.023628,154.05812
3254000000,80.986717,154.12727
3255000000,80.690285,153.48506
3256000000,80.488235,153.39372
3257000000,80.24073,152.97543
3258000000,80.11142,153.20116
3259000000,79.882668,153.26193
3260000000,79.56617,152.89229
3261000000,79.50325,152.72081
3262000000,79.340874,153.03818
3263000000,78.957939,152.82834
3264000000,78.938225,152.36067
3265000000,78.894188,152.53136
3266000000,78.713776,152.47578
3267000000,78.437881,152.21298
3268000000,78.458786,152.30603
3269000000,77.981667,151.91647
3270000000,77.957054,152.14674
3271000000,77.74633,152.13197
3272000000,77.511368,151.55859
3273000000,77.267235,151.72594
3274000000,77.141853,151.56973
3275000000,76.90197,151.51732
3276000000,76.692635,151.23512
3277000000,76.448311,151.38564
3278000000,76.118629,151.18547
3279000000,76.33075,151.12004
3280000000,75.885666,150.65442
3281000000,75.910973,150.61462
3282000000,75.633667,150.49812
3283000000,75.577957,150.5267
3284000000,75.129974,150.19296
3285000000,75.211357,150.34828
3286000000,74.619522,149.88347
3287000000,74.627983,150.17754
3288000000,74.360329,149.80563
3289000000,74.097923,149.45313
3290000000,73.964546,149.24973
3291000000,73.826744,148.9223
3292000000,73.392479,148.71205
3293000000,73.271927,148.95468
3294000000,73.298637,148.58923
3295000000,72.974182,149.04048
3296000000,72.780464,148.6539
3297000000,72.745583,148.40691
3298000000,72.415733,147.76924
3299000000,72.130882,148.07562
3300000000,71.927155,148.06894
3301000000,71.838539,147.90367
3302000000,71.604866,147.56645
3303000000,71.382416,147.74704
3304000000,71.089195,147.25716
3305000000,70.839256,146.92589
3306000000,70.544167,146.8988
3307000000,70.503204,146.87813
3308000000,70.510506,146.88307
3309000000,70.125931,146.86423
3310000000,69.807625,146.64355
3311000000,69.728203,146.92892
3312000000,69.538536,146.19606
3313000000,69.051506,146.0896
3314000000,68.97641,145.54782
3315000000,68.613625,145.78571
3316000000,68.569,145.48393
3317000000,68.289841,145.64621
3318000000,68.115257,145.34148
3319000000,67.841385,145.25056
3320000000,67.731384,144.82793
3321000000,67.516617,145.08487
3322000000,67.421761,144.70978
3323000000,66.915855,144.586
3324000000,66.701584,144.5804
3325000000,66.689629,144.44884
3326000000,66.272186,144.19273
3327000000,66.084183,144.00597
3328000000,66.037743,143.54903
3329000000,65.697075,143.69926
3330000000,65.371849,143.53004
3331000000,65.290558,143.12054
3332000000,64.654793,142.94501
3333000000,64.961945,143.0513
3334000000,64.504959,142.58958
3335000000,64.287704,142.68173
3336000000,63.793365,142.42696
3337000000,63.650997,142.24243
3338000000,63.646393,142.22859
3339000000,63.132294,142.18633
3340000000,62.88401,141.84525
3341000000,62.717747,141.50658
3342000000,62.329659,141.16406
3343000000,62.175438,141.23801
3344000000,61.974213,141.0289
3345000000,61.688911,140.72554
3346000000,61.600861,140.78615
3347000000,61.255432,140.45602
3348000000,61.16362,140.50636
3349000000,60.671547,140.25101
3350000000,60.536118,140.0481
3351000000,60.251537,139.72522
3352000000,59.960072,139.51494
3353000000,59.670563,139.32683
3354000000,59.316135,139.00113
3355000000,59.078823,138.88422
3356000000,58.798203,138.88132
3357000000,58.660213,138.57843
3358000000,58.217686,138.51527
3359000000,58.081455,138.15562
3360000000,57.672062,137.99776
3361000000,57.508507,137.67387
3362000000,57.331398,137.57544
3363000000,56.996067,137.37582
3364000000,57.003189,137.18306
3365000000,56.510067,137.09766
3366000000,56.545021,136.95618
3367000000,55.723366,136.25749
3368000000,55.647366,136.5045
3369000000,55.304619,136.2411
3370000000,54.935829,136.03081
3371000000,54.78241,135.76204
3372000000,54.548519,135.51326
3373000000,54.170647,135.28955
3374000000,53.987415,135.2048
3375000000,53.845741,135.13036
3376000000,53.103218,134.36905
3377000000,52.73735,134.23317
3378000000,52.642578,133.92033
3379000000,52.464058,133.88551
3380000000,51.819405,133.66516
3381000000,51.833942,133.55846
3382000000,51.408928,133.24655
3383000000,50.986034,133.00157
3384000000,50.927361,132.78751
3385000000,50.443153,132.3327
3386000000,50.207207,132.17029
3387000000,49.921307,132.14717
3388000000,49.607128,131.84053
3389000000,49.279026,131.40942
3390000000,48.705055,131.16388
3391000000,48.534714,130.9606
3392000000,48.217834,130.86824
3393000000,48.050762,130.62115
3394000000,47.561363,130.24628
3395000000,47.128712,129.97839
3396000000,46.94389,129.8187
3397000000,46.662514,129.61461
3398000000,46.163647,129.17146
3399000000,45.946823,129.06
3400000000,45.650234,128.57718
3401000000,45.162193,128.2048
3402000000,44.727974,127.97826
3403000000,44.475121,127.91593
3404000000,44.131428,127.57754
3405000000,43.875519,127.2079
3406000000,43.492153,126.79993
3407000000,43.02808,126.8098
3408000000,42.842838,126.23561
3409000000,42.480225,126.33427
3410000000,41.837685,125.83169
3411000000,41.827961,125.68843
3412000000,41.172699,125.29385
3413000000,40.826309,124.98235
3414000000,40.434093,124.74471
3415000000,40.089127,124.34583
3416000000,39.792282,124.17641
3417000000,39.232868,123.83295
3418000000,38.964928,123.28885
3419000000,38.444435,123.10282
3420000000,37.976631,122.78466
3421000000,37.686829,122.51852
3422000000,37.271465,122.31533
3423000000,36.992584,122.04105
3424000000,36.733067,121.56274
3425000000,36.068817,121.05371
3426000000,35.699417,120.81217
3427000000,35.283062,120.50134
3428000000,34.889046,120.13281
3429000000,34.481899,119.93153
3430000000,34.053265,119.65453
3431000000,33.576355,119.1981
3432000000,33.345558,119.12206
3433000000,32.743137,118.46559
3434000000,32.305084,118.1545
3435000000,31.85989,117.76311
3436000000,31.519217,117.48959
3437000000,30.870823,116.88461
3438000000,30.413174,116.42986
3439000000,30.156881,116.2509
3440000000,29.453251,115.83862
3441000000,29.148724,115.52238
3442000000,28.730682,115.16235
3443000000,28.070787,114.60883
3444000000,27.929871,114.38441
3445000000,27.339069,114.02785
3446000000,26.826525,113.41011
3447000000,26.379292,112.9361
3448000000,25.733412,112.51286
3449000000,25.254349,112.28642
3450000000,24.837521,111.96704
3451000000,24.478327,111.44289
3452000000,23.676516,110.81216
3453000000,23.220425,110.4808
3454000000,22.887661,110.32174
3455000000,22.494375,109.99675
3456000000,21.673967,109.28952
3457000000,21.302465,108.94181
3458000000,20.556194,108.34852
3459000000,20.181492,107.83045
3460000000,19.64435,107.63675
3461000000,19.145334,107.05641
3462000000,18.201279,106.53217
3463000000,18.111506,106.32034
3464000000,17.581821,105.98428
3465000000,16.774506,105.22159
3466000000,16.562218,104.95725
3467000000,15.486029,104.19453
3468000000,14.921672,103.74365
3469000000,14.758215,103.42561
3470000000,13.879029,102.96642
3471000000,13.191609,102.46699
3472000000,12.828068,101.87726
3473000000,12.076539,101.4979
3474000000,11.624165,101.15444
3475000000,11.101176,100.61694
3476000000,10.355639,100.20423
3477000000,9.8523235,99.750061
3478000000,9.0326166,98.995323
3479000000,8.2849092,98.703362
3480000000,7.6966877,98.058701
3481000000,7.1815076,97.522194
3482000000,6.3724146,97.088387
3483000000,5.4343967,96.434837
3484000000,5.2500515,96.165947
3485000000,4.3683109,95.316757
3486000000,3.9355247,94.828522
3487000000,3.267226,94.344841
3488000000,2.2850645,93.908875
3489000000,1.5137063,93.16436
3490000000,1.1513821,92.755852
3491000000,0.46173942,92.338272
3492000000,-0.54655457,91.314537
3493000000,-1.3276275,90.820961
3494000000,-2.0100307,90.39743
3495000000,-2.6500423,89.795723
3496000000,-3.8698781,89.133522
3497000000,-4.4210324,88.696785
3498000000,-5.0649786,87.993874
3499000000,-6.1944871,87.385452
3500000000,-6.9991636,86.790817
3501000000,-7.6312218,86.274673
3502000000,-8.2625504,85.963753
3503000000,-9.1543531,85.213997
3504000000,-10.157586,84.6903
3505000000,-11.347185,84.04454
3506000000,-12.15838,83.372025
3507000000,-13.041857,82.839851
3508000000,-13.800523,82.360077
3509000000,-14.921964,81.519043
3510000000,-16.289003,80.902702
3511000000,-16.761173,80.165016
3512000000,-18.065075,79.723732
3513000000,-18.963581,79.131287
3514000000,-19.9741,78.688164
3515000000,-21.266232,78.126274
3516000000,-22.863901,77.212776
3517000000,-23.899618,76.679672
3518000000,-25.469398,76.1577
3519000000,-26.390741,75.308731
3520000000,-28.111393,74.503288
3521000000,-29.829954,74.23793
3522000000,-31.115385,73.577255
3523000000,-32.78614,72.965767
3524000000,-34.615845,72.257111
3525000000,-36.334625,71.593033
3526000000,-38.622242,70.907318
3527000000,-40.991821,70.338303
3528000000,-43.017494,69.748741
3529000000,-46.432232,69.263176
3530000000,-49.851433,68.452484
3531000000,-52.430382,67.629349
3532000000,-57.548779,66.840027
3533000000,-62.131062,66.565094
3534000000,-68.754883,65.606667
3535000000,-75.26873,65.202255
3536000000,-83.848732,64.395119
3537000000,-91.787506,63.867104
3538000000,-103.24397,63.181141
3539000000,-114.10778,62.480434
3540000000,-125.82607,61.946011
3541000000,-135.29503,61.209526
3542000000,-145.35123,60.578903
3543000000,-153.21355,59.96381
3544000000,-160.8535,59.253422
3545000000,-167.34987,58.792656
3546000000,-173.11688,57.986919
3547000000,-177.04382,57.5648
3548000000,179.7139,56.829212
3549000000,175.99115,56.147114
3550000000,173.25856,55.207657
3551000000,170.66359,54.855286
3552000000,167.811,54.030891
3553000000,166.1347,53.537479
3554000000,163.9005,52.771427
3555000000,162.13786,52.402462
3556000000,160.73083,51.5327
3557000000,158.99817,51.059956
3558000000,157.41113,50.287991
3559000000,156.15703,49.862579
3560000000,154.62027,48.998917
3561000000,153.40556,48.476463
3562000000,152.20139,47.696438
3563000000,150.90463,47.18763
3564000000,149.74603,46.697903
3565000000,148.46292,45.805843
3566000000,147.32779,45.488758
3567000000,146.36098,44.985245
3568000000,145.4794,44.221439
3569000000,144.41754,43.581123
3570000000,143.43195,43.202595
3571000000,142.58067,42.625343
3572000000,141.5739,41.949451
3573000000,140.67461,41.218349
3574000000,139.88474,40.709095
3575000000,138.92682,39.941147
3576000000,138.06802,39.496937
3577000000,137.27759,38.810402
3578000000,136.31627,38.389442
3579000000,135.51405,37.613922
3580000000,134.71902,37.141293
3581000000,133.84055,36.318478
3582000000,132.93068,36.038433
3583000000,132.26675,35.352665
3584000000,131.53186,34.707531
3585000000,130.69749,34.256405
3586000000,129.85718,33.836895
3587000000,129.10773,33.212055
3588000000,128.49512,32.68829
3589000000,127.78889,32.147903
3590000000,126.88385,31.509466
3591000000,126.21627,30.897625
3592000000,125.57759,30.60001
3593000000,124.82252,29.961712
3594000000,124.29321,29.311693
3595000000,123.60088,28.890984
3596000000,122.65493,28.146578
3597000000,122.46368,28.029671
3598000000,121.63018,27.237829
3599000000,121.00434,26.785526
3600000000,120.41017,26.319452
3601000000,119.80444,25.767445
3602000000,119.0515,25.141146
3603000000,118.25838,24.468302
3604000000,117.76356,24.212696
3605000000,117.25062,23.694267
3606000000,116.46854,23.40975
3607000000,116.11617,22.73345
3608000000,115.42773,22.125082
3609000000,114.96165,21.770237
3610000000,114.16405,21.254908
3611000000,113.79968,20.717621
3612000000,113.17576,20.313696
3613000000,112.41667,19.878887
3614000000,111.81384,19.202969
3615000000,111.27575,18.802774
3616000000,110.99004,18.43154
3617000000,110.20038,17.857788
3618000000,109.73283,17.852211
3619000000,109.15257,17.054075
3620000000,108.47956,16.616793
3621000000,107.96809,15.873794
3622000000,107.40051,15.555505
3623000000,106.68613,15.128858
3624000000,106.31005,14.662621
3625000000,105.76072,14.140914
3626000000,105.29137,13.882956
3627000000,104.68127,13.420001
3628000000,104.08162,13.014355
3629000000,103.68958,12.550482
3630000000,103.0923,12.042919
3631000000,102.66968,11.646027
3632000000,102.01431,10.955192
3633000000,101.65617,10.772141
3634000000,100.97807,10.165565
3635000000,100.37909,10.04668
3636000000,100.03492,9.677846
3637000000,99.513702,9.1290855
3638000000,98.987244,8.7997131
3639000000,98.655495,8.2428331
3640000000,98.257713,7.9206939
3641000000,97.799515,7.6067476
3642000000,97.027222,7.1089501
3643000000,96.748878,6.8131728
3644000000,96.39447,6.240664
3645000000,95.737846,5.8507295
3646000000,95.477989,5.520762
3647000000,94.943253,5.1016355
3648000000,94.322861,4.6592464
3649000000,93.7976,4.2625837
3650000000,93.377785,3.9406955
3651000000,92.99646,3.7489953
3652000000,92.469933,3.2069876
3653000000,92.348045,2.8527539
3654000000,91.521965,2.4386461
3655000000,90.968292,2.0031893
3656000000,90.8293,1.7605665
3657000000,90.063103,1.1289171
3658000000,89.640213,0.91215813
3659000000,89.528137,0.5166626
3660000000,89.107185,0.20457366
3661000000,88.221016,-0.3342362
3662000000,88.074707,-0.38575044
3663000000,87.561783,-1.0210927
3664000000,87.21756,-1.329904
3665000000,86.58551,-1.6176935
3666000000,86.279556,-2.2022796
3667000000,85.992195,-2.3035908
3668000000,85.368439,-2.8273056
3669000000,84.904686,-2.9641514
3670000000,84.670998,-3.6168182
3671000000,84.387062,-3.8003061
3672000000,83.96463,-4.0788221
3673000000,83.534424,-4.6127968
3674000000,83.038681,-4.8450055
3675000000,82.471329,-5.4022317
3676000000,82.231842,-5.4318871
3677000000,81.760994,-5.7710919
3678000000,81.526421,-6.1092787
3679000000,80.97226,-6.7261882
3680000000,80.655602,-6.9762201
3681000000,80.070374,-7.3706298
3682000000,79.6045,-7.878819
3683000000,79.248146,-7.9035473
3684000000,78.877258,-8.3580379
3685000000,78.445267,-8.6686745
3686000000,78.224609,-8.9363174
3687000000,77.710144,-9.2969389
3688000000,77.393089,-9.5615177
3689000000,77.083267,-9.8334618
3690000000,76.439377,-10.271987
3691000000,76.207657,-10.678389
3692000000,75.603928,-11.054129
3693000000,75.664444,-11.13267
3694000000,74.882713,-11.717046
3695000000,74.698906,-11.797617
3696000000,73.865807,-12.571631
3697000000,73.813957,-12.550529
3698000000,73.274864,-12.74265
3699000000,73.103119,-13.170023
3700000000,72.717812,-13.514684
3701000000,72.233727,-13.780931
3702000000,72.093887,-13.930573
3703000000,71.575592,-14.40902
3704000000,71.231674,-14.72153
3705000000,70.98584,-15.011169
3706000000,70.375069,-15.478106
3707000000,70.138268,-15.731568
3708000000,69.888405,-15.972988
3709000000,69.569649,-16.026917
3710000000,69.015862,-16.616705
3711000000,68.507858,-17.072933
3712000000,68.158882,-17.271702
3713000000,67.803055,-17.481501
3714000000,67.44429,-17.922911
3715000000,67.167603,-18.129915
3716000000,67.075844,-18.157099
3717000000,66.243538,-18.825201
3718000000,66.071663,-18.86241
3719000000,65.489838,-19.460499
3720000000,65.429138,-19.485172
3721000000,64.900841,-20.007948
3722000000,64.318321,-20.23793
3723000000,64.290825,-20.61762
3724000000,63.820721,-20.78974
3725000000,63.287777,-21.103811
3726000000,63.204876,-21.30542
3727000000,62.58889,-21.747335
3728000000,62.287746,-22.179811
3729000000,61.924675,-22.382998
3730000000,61.654064,-22.633892
3731000000,61.338631,-22.938456
3732000000,61.044449,-23.206549
3733000000,60.653973,-23.470781
3734000000,60.288597,-23.834536
3735000000,59.804222,-24.138458
3736000000,59.727859,-24.059084
3737000000,59.077927,-24.601059
3738000000,58.694283,-24.982676
3739000000,58.567081,-25.073027
3740000000,58.120327,-25.543171
3741000000,57.670254,-25.763222
3742000000,57.336884,-26.06209
3743000000,56.948463,-26.346397
3744000000,56.687794,-26.659378
3745000000,56.341671,-26.857843
3746000000,55.688736,-27.337234
3747000000,55.558044,-27.531889
3748000000,55.151966,-27.796833
3749000000,54.975811,-28.035818
3750000000,54.247925,-28.469143
3751000000,54.377586,-28.539745
3752000000,53.834518,-28.900785
3753000000,53.493507,-29.246399
3754000000,53.254581,-29.645319
3755000000,52.760159,-29.909607
3756000000,52.499332,-30.040573
3757000000,51.937763,-30.396866
3758000000,51.755436,-30.4575
3759000000,51.463955,-30.867708
3760000000,50.802132,-31.347195
3761000000,50.675591,-31.493874
3762000000,50.384281,-31.697115
3763000000,49.939495,-31.788366
3764000000,49.729477,-32.310669
3765000000,49.278038,-32.356056
3766000000,48.889561,-32.955517
3767000000,48.541744,-33.128368
3768000000,47.908695,-33.550053
3769000000,47.661289,-33.746433
3770000000,47.289791,-34.075413
3771000000,46.81765,-34.362591
3772000000,46.737907,-34.499935
3773000000,46.27779,-34.863144
3774000000,45.943825,-35.169044
3775000000,45.576893,-35.360184
3776000000,45.053726,-35.866779
3777000000,44.776501,-36.056068
3778000000,44.61927,-36.106304
3779000000,44.357437,-36.367767
3780000000,44.071609,-36.801899
3781000000,43.415867,-37.179939
3782000000,43.35421,-37.325111
3783000000,42.923077,-37.494804
3784000000,42.342613,-38.042664
3785000000,42.097034,-38.178658
3786000000,41.831924,-38.290268
3787000000,41.39904,-38.616829
3788000000,41.100861,-39.101685
3789000000,40.840012,-39.14967
3790000000,40.299797,-39.778095
3791000000,40.016937,-39.897568
3792000000,39.586292,-40.049957
3793000000,39.351337,-40.326199
3794000000,38.831936,-40.804981
3795000000,38.408188,-41.106205
3796000000,38.109966,-41.32288
3797000000,37.73732,-41.51664
3798000000,37.345139,-41.822041
3799000000,37.16732,-42.008541
3800000000,36.575573,-42.452156
3801000000,36.313278,-42.600204
3802000000,36.260342,-42.695122
3803000000,35.732006,-43.00745
3804000000,35.414227,-43.379032
3805000000,35.274784,-43.513744
3806000000,34.619518,-43.912251
3807000000,34.086414,-44.352253
3808000000,33.809475,-44.51355
3809000000,33.582111,-44.881252
3810000000,33.04163,-45.15844
3811000000,32.872166,-45.287525
3812000000,32.249752,-45.859642
3813000000,32.260704,-45.945446
3814000000,31.388933,-46.348942
3815000000,31.40144,-46.391491
3816000000,31.050461,-46.819054
3817000000,30.75238,-46.819572
3818000000,30.246843,-47.244434
3819000000,29.817734,-47.616154
3820000000,29.546675,-47.789333
3821000000,29.061407,-48.11198
3822000000,28.661343,-48.280304
3823000000,28.377037,-48.681107
3824000000,28.035992,-48.904881
3825000000,27.621977,-49.419468
3826000000,27.189445,-49.476936
3827000000,26.980301,-49.73724
3828000000,26.627325,-50.017616
3829000000,26.236942,-50.367962
3830000000,25.996778,-50.750824
3831000000,25.499157,-50.93924
3832000000,25.03586,-51.242672
3833000000,24.560822,-51.490612
3834000000,24.171652,-51.735168
3835000000,23.878857,-52.163872
3836000000,23.452892,-52.40416
3837000000,23.28079,-52.630745
3838000000,22.776768,-52.867336
3839000000,22.314928,-53.283051
3840000000,22.000608,-53.444008
3841000000,21.533796,-53.644974
3842000000,21.280979,-54.077465
3843000000,20.835817,-54.483906
3844000000,20.498514,-54.493782
3845000000,19.991533,-54.986568
3846000000,19.981756,-55.034233
3847000000,19.304495,-55.374538
3848000000,19.03879,-55.699242
3849000000,18.805185,-55.908279
3850000000,18.19689,-56.280018
3851000000,17.824694,-56.726727
3852000000,17.450531,-56.855095
3853000000,17.305723,-56.973064
3854000000,16.77096,-57.433716
3855000000,16.431648,-57.530254
3856000000,16.261108,-57.65976
3857000000,15.428715,-58.337597
3858000000,15.189699,-58.417538
3859000000,14.615507,-58.885727
3860000000,14.511222,-58.987446
3861000000,14.255528,-59.211567
3862000000,13.490431,-59.923294
3863000000,13.220844,-59.968544
3864000000,12.86874,-60.225746
3865000000,12.652864,-60.375874
3866000000,12.394288,-60.454086
3867000000,11.511348,-61.161362
3868000000,11.460144,-61.212185
3869000000,10.711447,-61.553223
3870000000,10.866717,-61.906849
3871000000,10.152287,-62.139881
3872000000,9.9503689,-62.277042
3873000000,9.4148378,-62.686958
3874000000,8.9398546,-63.050583
3875000000,8.2871008,-63.510174
3876000000,8.0849257,-63.578598
3877000000,7.7349339,-63.770527
3878000000,7.0609608,-64.227455
3879000000,6.865684,-64.296356
3880000000,6.6310654,-64.6008
3881000000,6.0482616,-64.929161
3882000000,5.625648,-65.27919
3883000000,5.4659147,-65.452484
3884000000,4.8089828,-66.004784
3885000000,4.6420617,-66.015549
3886000000,4.0345874,-66.508636
3887000000,3.6190188,-66.728165
3888000000,3.2807784,-67.076813
3889000000,2.5698049,-67.337563
3890000000,2.5448177,-67.538437
3891000000,1.8617979,-67.929985
3892000000,1.6030676,-68.150566
3893000000,1.0775335,-68.472328
3894000000,0.69203132,-68.7621
3895000000,0.19517995,-69.021896
3896000000,0.014932735,-69.257378
3897000000,-0.34662524,-69.559532
3898000000,-1.0375843,-69.848305
3899000000,-1.158446,-70.123192
3900000000,-1.5708555,-70.367622
3901000000,-2.2777495,-70.781609
3902000000,-2.5181372,-71.199203
3903000000,-3.0239842,-71.415352
3904000000,-3.4622955,-71.573799
3905000000,-3.8818052,-72.071098
3906000000,-4.3760743,-72.354118
3907000000,-4.9282589,-72.596626
3908000000,-5.2278051,-72.643326
3909000000,-5.4050717,-72.993103
3910000000,-5.8888044,-73.473412
3911000000,-6.6194024,-73.735756
3912000000,-6.6379008,-73.828232
3913000000,-7.1839485,-74.293388
3914000000,-7.6235909,-74.5812
3915000000,-8.2243099,-74.783623
3916000000,-8.4398489,-75.121986
3917000000,-8.8597517,-75.212326
3918000000,-9.470521,-75.686516
3919000000,-10.108996,-76.189079
3920000000,-10.216374,-76.195518
3921000000,-10.402297,-76.370193
3922000000,-11.468299,-76.951813
3923000000,-11.857574,-77.123383
3924000000,-12.053607,-77.381981
3925000000,-12.790667,-77.939346
3926000000,-13.0198,-78.151749
3927000000,-13.437221,-78.31736
3928000000,-14.073618,-78.712563
3929000000,-14.717676,-78.984604
3930000000,-14.752275,-79.250435
3931000000,-15.559838,-79.748329
3932000000,-15.742234,-79.886566
3933000000,-16.312243,-80.148666
3934000000,-16.666441,-80.442093
3935000000,-16.99896,-80.631767
3936000000,-17.649092,-81.076904
3937000000,-18.103384,-81.384949
3938000000,-18.532606,-81.540039
3939000000,-19.034962,-82.037407
3940000000,-20.051077,-82.520355
3941000000,-19.796312,-82.375053
3942000000,-20.48646,-82.913788
3943000000,-21.024151,-83.075302
3944000000,-21.538885,-83.560699
3945000000,-21.711763,-83.627922
3946000000,-22.206463,-84.000481
3947000000,-22.641399,-84.229156
3948000000,-23.321615,-84.606331
3949000000,-23.709148,-84.840134
3950000000,-24.31286,-85.2397
3951000000,-24.678782,-85.446823
3952000000,-25.228579,-85.881111
3953000000,-25.580076,-85.998009
3954000000,-26.131031,-86.370384
3955000000,-26.524677,-86.66317
3956000000,-26.800711,-86.770454
3957000000,-27.703033,-87.33065
3958000000,-28.42606,-87.618217
3959000000,-28.509081,-87.855347
3960000000,-29.082766,-88.205971
3961000000,-29.320257,-88.381081
3962000000,-30.06271,-88.852242
3963000000,-30.512051,-88.768799
3964000000,-31.095655,-89.357674
3965000000,-31.525677,-89.580353
3966000000,-32.184917,-89.933716
3967000000,-32.51479,-90.173897
3968000000,-33.471756,-90.783539
3969000000,-33.815723,-90.912598
3970000000,-34.238556,-91.21904
3971000000,-34.543049,-91.41024
3972000000,-35.008789,-91.648323
3973000000,-35.578743,-91.98455
3974000000,-36.284302,-92.242393
3975000000,-36.830811,-92.687973
3976000000,-37.209209,-92.789719
3977000000,-37.343895,-92.939659
3978000000,-38.166538,-93.637314
3979000000,-38.492554,-93.758102
3980000000,-39.435108,-94.231606
3981000000,-39.91637,-94.286514
3982000000,-40.148834,-94.691757
3983000000,-41.314831,-95.331848
3984000000,-41.340458,-95.334061
3985000000,-41.863338,-95.491386
3986000000,-42.494991,-95.762215
3987000000,-43.406712,-96.48748
3988000000,-43.725872,-96.564209
3989000000,-44.26516,-96.913269
3990000000,-44.937843,-97.309799
3991000000,-45.458973,-97.439606
3992000000,-46.046581,-97.963387
3993000000,-45.975163,-97.86911
3994000000,-46.85915,-98.322403
3995000000,-47.364799,-98.648155
3996000000,-47.604874,-98.748741
3997000000,-48.325951,-99.330223
3998000000,-48.928215,-99.352425
3999000000,-49.847446,-99.911491
4000000000,-50.244892,-100.20721
4001000000,-50.747459,-100.52162
4002000000,-51.559654,-100.77982
4003000000,-51.937824,-100.93479
4004000000,-52.351742,-101.35653
4005000000,-52.934467,-101.66516
4006000000,-53.635681,-101.93735
4007000000,-54.080208,-102.26336
4008000000,-55.053543,-102.61247
4009000000,-55.271076,-102.706
4010000000,-55.973076,-103.25646
4011000000,-56.515175,-103.38062
4012000000,-57.187866,-103.73222
4013000000,-57.910339,-104.19324
4014000000,-58.063549,-104.19396
4015000000,-58.981518,-104.56836
4016000000,-59.408726,-104.98071
4017000000,-60.124611,-105.24055
4018000000,-60.477001,-105.42942
4019000000,-61.223568,-105.89475
4020000000,-61.762661,-106.06469
4021000000,-62.799805,-106.58646
4022000000,-63.011742,-106.79396
4023000000,-63.653492,-107.12782
4024000000,-63.892056,-107.31251
4025000000,-64.747566,-107.55824
4026000000,-65.354561,-107.94245
4027000000,-65.987343,-108.25399
4028000000,-66.454117,-108.45728
4029000000,-67.518929,-108.92425
4030000000,-67.644279,-109.13425
4031000000,-68.501312,-109.59467
4032000000,-69.301895,-109.60104
4033000000,-69.624687,-110.10291
4034000000,-69.905327,-110.35401
4035000000,-70.983887,-110.57319
4036000000,-71.455544,-110.90621
4037000000,-72.42263,-111.20863
4038000000,-72.638565,-111.53438
4039000000,-73.250755,-111.80058
4040000000,-74.085075,-112.25606
4041000000,-74.795639,-112.34022
4042000000,-74.98954,-112.55409
4043000000,-75.718147,-112.81797
4044000000,-76.379707,-113.25768
4045000000,-76.986229,-113.48663
4046000000,-77.655937,-113.7619
4047000000,-78.402306,-114.20504
4048000000,-79.250259,-114.40581
4049000000,-79.497177,-114.73013
4050000000,-80.240486,-114.92942
4051000000,-80.857376,-115.29089
4052000000,-81.496773,-115.41212
4053000000,-82.192039,-115.98066
4054000000,-82.98024,-116.2279
4055000000,-83.305359,-116.51448
4056000000,-83.913033,-116.77669
4057000000,-84.766388,-117.05849
4058000000,-85.226753,-117.42609
4059000000,-85.98381,-117.5779
4060000000,-86.807671,-118.1112
4061000000,-87.546509,-118.2185
4062000000,-88.064148,-118.47974
4063000000,-88.78437,-118.97045
4064000000,-89.201736,-119.05002
4065000000,-89.873497,-119.36402
4066000000,-90.610077,-119.78693
4067000000,-91.174217,-120.03896
4068000000,-91.85009,-120.01064
4069000000,-92.389549,-120.48498
4070000000,-93.106491,-120.8603
4071000000,-93.941887,-121.10334
4072000000,-94.448975,-121.48291
4073000000,-95.125694,-121.62806
4074000000,-96.005348,-121.98482
4075000000,-96.573944,-122.43311
4076000000,-97.384773,-122.56466
4077000000,-97.777649,-123.11134
4078000000,-98.514587,-123.17397
4079000000,-98.975624,-123.23875
4080000000,-99.759575,-123.81136
4081000000,-100.68224,-124.12973
4082000000,-101.17498,-124.39567
4083000000,-101.95404,-124.67921
4084000000,-102.17577,-124.84165
4085000000,-103.31795,-125.34184
4086000000,-103.91273,-125.4249
4087000000,-104.40977,-125.74973
4088000000,-105.1023,-126.11459
4089000000,-105.8833,-126.1082
4090000000,-106.70522,-126.56132
4091000000,-106.86363,-126.87801
4092000000,-107.64185,-127.04852
4093000000,-108.50448,-127.31606
4094000000,-109.17718,-127.84401
4095000000,-109.46914,-127.91465
4096000000,-110.33413,-128.20355
4097000000,-111.2561,-128.6088
4098000000,-111.95499,-128.91075
4099000000,-112.58994,-129.2742
4100000000,-113.09872,-129.50031
4101000000,-113.85564,-129.77846
4102000000,-114.61664,-129.99521
4103000000,-115.05965,-130.28532
4104000000,-115.83075,-130.53439
4105000000,-116.3732,-131.00867
4106000000,-117.09885,-130.99905
4107000000,-117.68851,-131.43141
4108000000,-118.45649,-131.62625
4109000000,-119.07842,-131.77362
4110000000,-119.66799,-132.08449
4111000000,-120.29288,-132.51013
4112000000,-121.19361,-132.91138
4113000000,-121.82048,-133.10413
4114000000,-122.18662,-133.30852
4115000000,-122.88274,-133.57611
4116000000,-123.661,-133.96111
4117000000,-124.20696,-134.28801
4118000000,-124.80792,-134.52058
4119000000,-125.56933,-134.72758
4120000000,-126.04536,-135.05482
4121000000,-126.97198,-135.34309
4122000000,-127.73064,-135.59019
4123000000,-128.19215,-135.97601
4124000000,-128.89206,-136.17438
4125000000,-129.45279,-136.48567
4126000000,-130.48149,-136.87035
4127000000,-130.86061,-137.09785
4128000000,-131.49052,-137.36617
4129000000,-131.92038,-137.52681
4130000000,-132.67395,-138.00371
4131000000,-133.31221,-138.3551
4132000000,-133.69627,-138.40103
4133000000,-134.78204,-138.45824
4134000000,-135.08115,-139.09343
4135000000,-135.89519,-139.41046
4136000000,-136.52628,-139.44768
4137000000,-137.18219,-139.63808
4138000000,-137.81982,-140.14932
4139000000,-138.55342,-140.28513
4140000000,-138.96661,-140.54509
4141000000,-139.94972,-140.81044
4142000000,-140.21368,-141.15741
4143000000,-140.87358,-141.4019
4144000000,-141.39014,-141.52567
4145000000,-142.24207,-141.90826
4146000000,-142.87329,-142.22211
4147000000,-143.40729,-142.54651
4148000000,-143.95155,-142.84947
4149000000,-144.56822,-142.8364
4150000000,-145.27754,-143.46411
4151000000,-145.8028,-143.52431
4152000000,-146.30371,-143.81328
4153000000,-147.02565,-144.13029
4154000000,-147.58269,-144.39624
4155000000,-148.05324,-144.606
4156000000,-148.83032,-145.05167
4157000000,-149.53073,-145.17981
4158000000,-150.01701,-145.27432
4159000000,-150.38518,-145.88033
4160000000,-151.19249,-145.94562
4161000000,-151.90236,-146.38791
4162000000,-152.36232,-146.45981
4163000000,-152.87718,-146.83116
4164000000,-153.40558,-147.08282
4165000000,-154.12766,-147.40257
4166000000,-154.68903,-147.52948
4167000000,-155.25378,-147.88167
4168000000,-155.7619,-148.14388
4169000000,-156.31982,-148.23901
4170000000,-156.75784,-148.65051
4171000000,-157.44318,-148.90369
4172000000,-157.93785,-149.17789
4173000000,-158.51814,-149.45375
4174000000,-158.88103,-149.50908
4175000000,-159.57162,-149.9558
4176000000,-160.21901,-150.27071
4177000000,-160.73596,-150.61574
4178000000,-161.24843,-150.7941
4179000000,-161.70583,-151.1218
4180000000,-162.23148,-151.35173
4181000000,-162.94864,-151.64233
4182000000,-163.29138,-151.84015
4183000000,-163.92693,-152.01289
4184000000,-164.40855,-152.41388
4185000000,-164.79872,-152.5237
4186000000,-165.45865,-152.8239
4187000000,-166.02643,-153.11002
4188000000,-166.526,-153.4787
4189000000,-167.04576,-153.67018
4190000000,-167.56732,-153.8737
4191000000,-168.01305,-154.10959
4192000000,-168.66023,-154.39766
4193000000,-169.0267,-154.6846
4194000000,-169.2706,-154.94792
4195000000,-169.95659,-155.33087
4196000000,-170.62357,-155.37659
4197000000,-171.00113,-155.73872
4198000000,-171.52472,-155.91148
4199000000,-171.94658,-156.04491
4200000000,-172.44951,-156.23224
4201000000,-173.01842,-156.70967
4202000000,-173.43344,-156.89125
4203000000,-173.9487,-157.28375
4204000000,-174.08681,-157.46829
4205000000,-174.92693,-157.86032
4206000000,-175.28682,-157.96735
4207000000,-175.81212,-158.18202
4208000000,-176.28088,-158.42567
4209000000,-176.85124,-158.65424
4210000000,-177.13747,-158.98727
4211000000,-177.63995,-159.14803
4212000000,-178.17462,-159.57599
4213000000,-178.60149,-159.65005
4214000000,-179.1496,-160.03641
4215000000,-179.6779,-160.14499
4216000000,179.83398,-160.56215
4217000000,179.34236,-161.00464
4218000000,178.96536,-161.0981
4219000000,178.40741,-161.33382
4220000000,178.10596,-161.62126
4221000000,177.54199,-161.91147
4222000000,177.22177,-161.98193
4223000000,176.74669,-162.39816
4224000000,176.293,-162.62445
4225000000,175.9776,-162.76987
4226000000,175.60286,-163.03322
4227000000,175.05986,-163.24899
4228000000,174.5437,-163.58955
4229000000,174.21875,-163.70926
4230000000,173.64757,-164.10695
4231000000,173.32388,-164.09987
4232000000,172.71489,-164.48878
4233000000,172.42177,-164.84741
4234000000,172.04082,-164.9669
4235000000,171.55237,-165.24651
4236000000,171.14259,-165.61122
4237000000,170.72028,-165.92339
4238000000,170.56474,-165.95354
4239000000,169.94464,-166.40929
4240000000,169.74168,-166.43646
4241000000,169.26413,-166.77472
4242000000,168.71498,-166.96097
4243000000,168.47737,-167.1877
4244000000,167.8224,-167.4519
4245000000,167.69949,-167.74352
4246000000,167.18665,-168.05051
4247000000,166.85191,-168.12914
4248000000,166.2413,-168.71581
4249000000,166.00386,-168.78995
4250000000,165.37796,-169.17734
4251000000,165.02939,-169.1813
4252000000,164.65732,-169.52133
4253000000,164.65152,-169.55891
4254000000,163.86102,-169.78822
4255000000,163.6897,-170.14766
4256000000,163.24789,-170.53928
4257000000,162.80684,-170.79643
4258000000,162.35052,-171.02917
4259000000,162.00772,-171.18388
4260000000,161.72314,-171.45309
4261000000,161.28177,-171.61137
4262000000,161.04404,-171.92891
4263000000,160.62387,-172.11217
4264000000,160.34976,-172.15051
4265000000,160.0327,-172.59251
4266000000,159.57822,-172.69658
4267000000,159.11362,-173.12045
4268000000,158.73456,-173.34718
4269000000,158.65001,-173.4102
4270000000,158.20979,-173.78542
4271000000,157.63429,-174.06845
4272000000,157.27122,-174.30113
4273000000,156.99745,-174.5018
4274000000,156.75456,-174.82689
4275000000,156.30371,-174.92485
4276000000,156.08658,-175.2515
4277000000,155.69043,-175.56207
4278000000,155.61868,-175.66861
4279000000,155.01768,-175.77869
4280000000,154.44403,-176.18317
4281000000,154.24045,-176.4588
4282000000,153.95958,-176.80559
4283000000,153.42044,-177.02562
4284000000,153.18526,-177.04489
4285000000,152.91473,-177.30354
4286000000,152.75673,-177.69577
4287000000,152.55023,-177.5612
4288000000,151.94279,-177.95992
4289000000,151.6991,-178.33012
4290000000,151.33316,-178.42155
4291000000,150.8076,-178.76602
4292000000,150.46581,-179.13342
4293000000,150.2966,-179.40443
4294000000,149.91864,-179.3564
4295000000,149.55603,-179.64804
4296000000,149.45192,-179.93875
4297000000,149.01759,179.85361
4298000000,148.61172,179.64607
4299000000,148.16864,179.33936
4300000000,148.08521,179.12563
4301000000,147.62163,178.8165
4302000000,147.30931,178.88893
4303000000,147.17406,178.51625
4304000000,146.71155,178.13458
4305000000,146.37233,177.94843
4306000000,146.14905,177.78181
4307000000,145.87048,177.54324
4308000000,145.56107,177.41328
4309000000,145.12289,176.95305
4310000000,144.89325,176.79706
4311000000,144.60219,176.5712
4312000000,144.3644,176.37506
4313000000,144.03941,175.94229
4314000000,143.83572,175.89394
4315000000,143.39381,175.58331
4316000000,143.18208,175.41626
4317000000,142.91327,175.07462
4318000000,142.71016,174.88916
4319000000,142.25742,174.63986
4320000000,142.2084,174.45526
4321000000,141.85687,174.24367
4322000000,141.51746,173.90898
4323000000,141.36816,173.7576
4324000000,141.01649,173.48117
4325000000,140.6945,173.30475
4326000000,140.57585,173.09032
4327000000,140.12227,172.85069
4328000000,139.9415,172.61893
4329000000,139.39697,172.31104
4330000000,139.23584,172.31377
4331000000,138.83125,172.12781
4332000000,138.6046,171.58981
4333000000,138.46776,171.56143
4334000000,138.13426,171.28175
4335000000,137.65176,170.97835
4336000000,137.63692,170.77219
4337000000,137.54494,170.73877
4338000000,136.96687,170.40443
4339000000,136.48244,170.29398
4340000000,136.45821,169.84297
4341000000,136.10413,169.8094
4342000000,135.72084,169.54369
4343000000,135.71687,169.3064
4344000000,135.61725,169.04166
4345000000,135.36952,168.9798
4346000000,134.8064,168.53996
4347000000,134.59306,168.37914
4348000000,134.39075,168.09303
4349000000,134.09523,167.86591
4350000000,134.00238,167.91649
4351000000,133.57603,167.45584
4352000000,133.53268,167.34427
4353000000,133.25238,166.93715
4354000000,132.87335,166.71268
4355000000,132.4866,166.36977
4356000000,132.31439,166.26765
4357000000,132.12524,166.19043
4358000000,131.63063,165.85709
4359000000,131.54683,165.73593
4360000000,131.23322,165.39973
4361000000,130.89778,165.1955
4362000000,130.99031,165.11992
4363000000,130.71663,164.99554
4364000000,130.2227,164.59865
4365000000,130.19553,164.3996
4366000000,129.73323,163.94133
4367000000,129.65027,163.88559
4368000000,129.11743,163.57491
4369000000,129.07443,163.48427
4370000000,128.45824,163.13593
4371000000,128.41185,162.9787
4372000000,128.37077,162.77785
4373000000,128.21144,162.64798
4374000000,127.77859,162.1174
4375000000,127.53374,162.19659
4376000000,127.42797,161.96295
4377000000,126.99284,161.63245
4378000000,126.75017,161.35243
4379000000,126.66444,161.16805
4380000000,126.48557,161.23172
4381000000,126.45168,160.92657
4382000000,125.893,160.64003
4383000000,125.54698,160.13876
4384000000,125.65314,160.12025
4385000000,125.33701,159.9325
4386000000,125.14488,159.60249
4387000000,124.77824,159.37643
4388000000,124.69772,159.29729
4389000000,124.28044,158.99947
4390000000,123.88642,158.72246
4391000000,124.05679,158.69839
4392000000,123.49017,158.20625
4393000000,123.38455,158.08888
4394000000,123.09966,157.97391
4395000000,123.06655,157.6913
4396000000,122.81504,157.40315
4397000000,122.51387,157.33813
4398000000,122.09354,156.7303
4399000000,121.75889,156.81076
4400000000,121.72927,156.58104
4401000000,121.61555,156.22723
4402000000,121.62857,156.10432
4403000000,121.16203,155.90671
4404000000,121.09579,155.72473
4405000000,120.73058,155.47449
4406000000,120.76887,155.2782
4407000000,120.70943,155.08655
4408000000,120.30305,154.76923
4409000000,119.80151,154.53667
4410000000,119.56782,154.34512
4411000000,119.73676,154.25101
4412000000,119.16799,153.86507
4413000000,119.07243,153.6004
4414000000,118.5459,153.34599
4415000000,118.67323,153.28619
4416000000,118.36201,153.0705
4417000000,117.98467,152.68132
4418000000,117.93272,152.67807
4419000000,117.90226,152.383
4420000000,117.48885,152.27414
4421000000,117.3595,151.80289
4422000000,117.06602,151.75064
4423000000,117.00758,151.43163
4424000000,116.75076,151.36813
4425000000,116.3968,151.17128
4426000000,116.39796,150.86316
4427000000,116.16408,150.67891
4428000000,115.90965,150.4465
4429000000,115.75253,150.13451
4430000000,115.65278,149.91211
4431000000,115.45135,149.77943
4432000000,114.80722,149.48479
4433000000,115.14942,149.43439
4434000000,114.69453,148.98955
4435000000,114.51809,148.85901
4436000000,114.41344,148.73186
4437000000,114.05148,148.5929
4438000000,113.90136,148.26198
4439000000,113.69397,147.99355
4440000000,113.20826,147.70831
4441000000,113.22717,147.60173
4442000000,113.22906,147.42041
4443000000,112.73357,147.20717
4444000000,112.72801,147.00787
4445000000,112.54026,146.66899
4446000000,112.30496,146.45535
4447000000,112.37536,146.26387
4448000000,112.03227,146.14006
4449000000,111.97009,145.91763
4450000000,111.56291,145.65352
4451000000,111.42924,145.50403
4452000000,111.28404,145.2121
4453000000,111.21492,145.18822
4454000000,110.8642,144.82616
4455000000,110.82824,144.71729
4456000000,110.48182,144.38489
4457000000,110.42168,144.23943
4458000000,110.20783,144.09128
4459000000,109.80148,143.68663
4460000000,109.98289,143.55598
4461000000,109.71089,143.37694
4462000000,109.59941,143.24744
4463000000,109.0649,142.97513
4464000000,109.0104,142.6201
4465000000,108.85545,142.37357
4466000000,108.68449,142.09607
4467000000,108.48103,141.87485
4468000000,108.133,141.77829
4469000000,108.24804,141.66092
4470000000,107.86038,141.23462
4471000000,107.77369,141.25531
4472000000,107.70719,140.97026
4473000000,107.53444,140.71054
4474000000,107.24187,140.39355
4475000000,107.12479,140.1082
4476000000,106.82519,139.9128
4477000000,106.56014,139.85725
4478000000,106.69797,139.56584
4479000000,106.42747,139.5231
4480000000,106.07002,139.12502
4481000000,106.37851,138.98288
4482000000,105.87765,138.64125
4483000000,105.7182,138.69559
4484000000,105.62776,138.21835
4485000000,105.23293,138.07011
4486000000,105.18446,137.85007
4487000000,104.73154,137.50548
4488000000,104.94243,137.52557
4489000000,104.8629,137.25189
4490000000,105.07119,137.14053
4491000000,104.24346,136.80664
4492000000,104.5892,136.65891
4493000000,104.06065,136.31479
4494000000,103.94088,136.13181
4495000000,103.47095,135.76617
4496000000,103.52376,135.60544
4497000000,103.46321,135.59683
4498000000,103.0944,135.12865
4499000000,103.02994,135.0527
4500000000,103.10709,134.9079
4501000000,102.56675,134.58147
4502000000,102.56529,134.3488
4503000000,102.37418,134.16196
4504000000,102.25734,134.02284
4505000000,102.01206,133.74007
4506000000,101.93762,133.55322
4507000000,102.01595,133.44301
4508000000,101.83501,133.18619
4509000000,101.37553,132.90033
4510000000,101.4365,132.7244
4511000000,101.13229,132.65579
4512000000,100.89296,132.31479
4513000000,100.72208,132.1472
4514000000,100.51362,131.76343
4515000000,100.66544,131.70068
4516000000,100.33096,131.48329
4517000000,100.24124,131.11209
4518000000,100.30044,131.07242
4519000000,99.912025,130.74144
4520000000,99.829269,130.45065
4521000000,99.520233,130.34952
4522000000,99.465981,130.08459
4523000000,99.455528,130.0309
4524000000,99.090118,129.64861
4525000000,98.955833,129.39148
4526000000,99.022888,129.42593
4527000000,98.970764,129.06218
4528000000,98.788216,128.79987
4529000000,98.526062,128.73407
4530000000,98.319817,128.32332
4531000000,98.273468,128.25354
4532000000,98.084404,127.99533
4533000000,97.725616,127.74943
4534000000,97.643394,127.59986
4535000000,97.621513,127.36209
4536000000,97.657158,127.23473
4537000000,97.190231,126.97469
4538000000,97.202797,126.68982
4539000000,96.87056,126.34988
4540000000,96.668541,126.34708
4541000000,96.64753,125.9713
4542000000,96.669243,125.90804
4543000000,96.100632,125.66454
4544000000,96.10041,125.57438
4545000000,96.015472,125.18528
4546000000,95.788918,125.01959
4547000000,95.922363,124.71281
4548000000,95.740204,124.44246
4549000000,95.933617,124.47099
4550000000,95.158295,124.1138
4551000000,95.387436,124.00249
4552000000,95.196182,123.64516
4553000000,95.213173,123.61086
4554000000,94.886559,123.40546
4555000000,94.753242,123.15475
4556000000,94.644211,122.86039
4557000000,93.981079,122.63218
4558000000,94.256035,122.33447
4559000000,93.933159,122.30021
4560000000,94.168686,122.06705
4561000000,93.687126,121.58241
4562000000,93.730011,121.55492
4563000000,93.505775,121.26806
4564000000,93.490173,121.31942
4565000000,93.480331,120.91584
4566000000,93.072945,120.58528
4567000000,93.407974,120.59546
4568000000,92.771233,120.29578
4569000000,92.744705,120.14896
4570000000,92.832184,119.84471
4571000000,92.464088,119.65698
4572000000,92.192093,119.28323
4573000000,92.180626,119.17915
4574000000,92.230255,118.93107
4575000000,91.787857,118.93501
4576000000,91.755562,118.53133
4577000000,91.89901,118.39435
4578000000,91.832687,118.10992
4579000000,92.007187,118.10986
4580000000,91.644508,117.86156
4581000000,91.123955,117.49731
4582000000,90.961769,117.28802
4583000000,91.245247,117.24983
4584000000,90.741989,116.87003
4585000000,90.79158,116.87883
4586000000,90.58551,116.63817
4587000000,90.586685,116.35493
4588000000,90.092186,116.0817
4589000000,90.54847,115.71425
4590000000,90.320831,115.78625
4591000000,90.187164,115.56172
4592000000,89.801834,115.33839
4593000000,89.810249,114.99476
4594000000,89.499542,114.85075
4595000000,89.166756,114.61776
4596000000,89.426697,114.45982
4597000000,89.109047,114.16655
4598000000,89.220604,113.93606
4599000000,88.942154,113.6683
4600000000,89.165672,113.7134
4601000000,88.28656,113.28657
4602000000,88.692787,113.17284
4603000000,88.468849,112.8584
4604000000,88.51638,112.83633
4605000000,88.619392,112.54899
4606000000,87.945847,112.08585
4607000000,87.970375,111.98897
4608000000,88.182182,111.84127
4609000000,87.783501,111.57199
4610000000,87.647346,111.38761
4611000000,87.422424,111.30706
4612000000,87.821327,110.99988
4613000000,87.336555,110.95351
4614000000,87.305771,110.70631
4615000000,87.043289,110.25665
4616000000,86.919754,110.13277
4617000000,86.647949,109.99601
4618000000,86.28241,109.44855
4619000000,86.501266,109.53613
4620000000,86.471825,109.33248
4621000000,85.912369,108.98652
4622000000,85.952522,108.84368
4623000000,85.998505,108.61461
4624000000,85.690102,108.41251
4625000000,85.90004,108.36021
4626000000,85.835396,108.02274
4627000000,85.516815,107.88915
4628000000,85.552597,107.608
4629000000,85.355171,107.4062
4630000000,84.953918,107.19395
4631000000,85.171074,107.04705
4632000000,84.908913,106.75691
4633000000,84.716431,106.65045
4634000000,84.899338,106.3089
4635000000,84.512741,106.06046
4636000000,84.33374,105.91606
4637000000,84.054413,105.56079
4638000000,84.260941,105.70277
4639000000,84.15126,105.18744
4640000000,84.035927,105.06335
4641000000,84.025955,104.87807
4642000000,83.672829,104.69235
4643000000,83.812653,104.4327
4644000000,83.508102,104.26768
4645000000,83.741516,104.16745
4646000000,83.204987,103.96094
4647000000,83.353294,103.59985
4648000000,83.091248,103.27254
4649000000,82.732063,103.17459
4650000000,82.77964,102.90039
4651000000,82.829025,102.87601
4652000000,82.505417,102.54203
4653000000,81.973183,102.27441
4654000000,82.263161,102.20131
4655000000,82.273811,101.89323
4656000000,81.884079,101.59498
4657000000,81.822868,101.57582
4658000000,81.15509,101.24533
4659000000,81.669724,101.17642
4660000000,81.493683,100.80481
4661000000,81.54097,100.94493
4662000000,81.303513,100.3882
4663000000,81.304962,100.25146
4664000000,81.104095,100.13546
4665000000,81.096069,99.852455
4666000000,80.350685,99.563637
4667000000,80.628563,99.512573
4668000000,80.217133,99.177498
4669000000,80.052246,98.966934
4670000000,80.478081,98.905113
4671000000,80.097206,98.678596
4672000000,79.973526,98.285355
4673000000,79.545174,98.099892
4674000000,79.82782,97.946518
4675000000,79.644279,97.743652
4676000000,79.758629,97.596764
4677000000,79.434624,97.328018
4678000000,79.380859,97.235016
4679000000,79.120003,96.912888
4680000000,79.367615,96.980347
4681000000,79.119247,96.512108
4682000000,79.085968,96.267303
4683000000,78.822166,96.287575
4684000000,78.975525,95.953156
4685000000,78.600334,95.803566
4686000000,78.759247,95.528976
4687000000,78.511101,95.265244
4688000000,78.433586,95.218872
4689000000,78.139076,94.88636
4690000000,78.192734,94.652367
4691000000,78.165092,94.328659
4692000000,77.759369,94.166588
4693000000,77.452881,93.885567
4694000000,77.374405,93.791176
4695000000,77.565926,93.604576
4696000000,77.207397,93.179604
4697000000,77.439697,93.24044
4698000000,77.120071,93.035736
4699000000,77.185593,92.97998
4700000000,76.578949,92.508881
4701000000,76.655205,92.338425
4702000000,76.717865,92.197357
4703000000,76.469696,91.974792
4704000000,76.742867,91.839409
4705000000,76.371284,91.533859
4706000000,76.340607,91.510437
4707000000,76.034073,91.322983
4708000000,75.591133,90.891121
4709000000,75.64949,90.834518
4710000000,75.685631,90.671616
4711000000,75.796127,90.308212
4712000000,75.23175,90.248299
4713000000,75.341835,89.960258
4714000000,75.11161,89.708275
4715000000,75.146347,89.745529
4716000000,75.006645,89.415024
4717000000,74.655525,89.098251
4718000000,74.927628,89.136307
4719000000,74.712547,88.647362
4720000000,74.511246,88.547989
4721000000,74.233742,88.393661
4722000000,74.008713,87.9916
4723000000,74.103546,87.738579
4724000000,73.947556,87.62677
4725000000,73.621292,87.331421
4726000000,73.699547,87.226196
4727000000,73.915367,86.95182
4728000000,73.586403,86.807167
4729000000,73.533531,86.652756
4730000000,73.511459,86.282341
4731000000,73.363899,86.271553
4732000000,73.23423,86.061714
4733000000,73.042526,85.792152
4734000000,73.027382,85.684082
4735000000,72.874275,85.401588
4736000000,72.548958,85.15728
4737000000,73.197662,85.036003
4738000000,73.175873,84.915428
4739000000,72.457771,84.70285
4740000000,71.82917,84.365875
4741000000,72.256233,84.260574
4742000000,72.278847,84.022049
4743000000,72.029907,83.837387
4744000000,71.837822,83.639565
4745000000,72.262108,83.547211
4746000000,71.916328,83.192322
4747000000,71.714218,82.828026
4748000000,71.349396,82.877098
4749000000,70.968147,82.469337
4750000000,71.434929,82.482277
4751000000,71.354424,82.051384
4752000000,71.288307,82.032295
4753000000,71.279091,81.908653
4754000000,70.716576,81.610344
4755000000,70.784149,81.411827
4756000000,71.074631,81.19413
4757000000,70.600296,80.968033
4758000000,70.240128,80.634811
4759000000,70.300751,80.530922
4760000000,70.358566,80.295135
4761000000,70.3573,79.973938
4762000000,70.07695,79.861343
4763000000,69.904839,79.818878
4764000000,69.706421,79.470657
4765000000,69.98568,79.388992
4766000000,69.461258,79.204292
4767000000,69.91671,79.077553
4768000000,69.543495,78.78492
4769000000,68.829567,78.319984
4770000000,69.070572,78.164696
4771000000,69.118889,78.112251
4772000000,69.490334,77.941872
4773000000,68.77343,77.714943
4774000000,68.264343,77.36924
4775000000,68.279732,77.275467
4776000000,68.309402,77.042137
4777000000,68.459877,76.854599
4778000000,67.875107,76.601173
4779000000,68.094803,76.41272
4780000000,67.947563,76.26889
4781000000,67.969589,76.00486
4782000000,67.664566,75.810135
4783000000,67.692429,75.733032
4784000000,67.656593,75.560707
4785000000,67.184784,75.247208
4786000000,67.126007,75.00518
4787000000,67.031113,74.783966
4788000000,67.227715,74.583984
4789000000,66.673798,74.356628
4790000000,66.841507,74.198387
4791000000,66.591545,74.10936
4792000000,66.500679,73.891846
4793000000,66.500114,73.446381
4794000000,66.462692,73.556396
4795000000,66.036423,73.304123
4796000000,66.373207,72.988411
4797000000,65.974915,72.784851
4798000000,65.585503,72.443115
4799000000,65.619942,72.318848
4800000000,65.344849,72.261276
4801000000,65.262833,72.067162
4802000000,65.074501,71.655922
4803000000,65.072716,71.578423
4804000000,65.129509,71.234062
4805000000,64.836433,71.318497
4806000000,64.558754,70.954643
4807000000,64.927414,70.746536
4808000000,64.36322,70.516685
4809000000,64.033073,70.28521
4810000000,64.4813,70.162392
4811000000,64.524979,70.045822
4812000000,64.242371,69.822769
4813000000,63.800724,69.466293
4814000000,63.524517,69.350136
4815000000,63.468182,68.992798
4816000000,63.824921,69.009659
4817000000,63.466625,68.702599
4818000000,62.577278,68.454758
4819000000,62.988232,68.389328
4820000000,62.921528,68.195511
4821000000,62.736546,67.834923
4822000000,62.720787,67.735046
4823000000,62.418957,67.62645
4824000000,62.197205,67.423325
4825000000,62.294529,67.269409
4826000000,62.458481,66.92984
4827000000,61.847473,66.684532
4828000000,62.162769,66.427353
4829000000,61.766987,66.460297
4830000000,61.714134,66.056786
4831000000,61.600624,66.076416
4832000000,61.58643,65.688332
4833000000,61.18898,65.538162
4834000000,60.831017,65.325172
4835000000,60.984314,65.124214
4836000000,61.287853,65.101196
4837000000,60.809231,64.889771
4838000000,60.659866,64.616844
4839000000,60.402405,64.329636
4840000000,60.022141,64.132706
4841000000,60.594147,64.086296
4842000000,60.22718,63.848488
4843000000,59.973404,63.508904
4844000000,60.10178,63.384129
4845000000,59.587376,63.150112
4846000000,59.705532,63.003387
4847000000,59.348309,62.728848
4848000000,59.296875,62.574001
4849000000,59.131668,62.223167
4850000000,59.051807,62.237709
4851000000,58.555664,61.686764
4852000000,58.648998,61.753551
4853000000,58.672897,61.575714
4854000000,58.416927,61.258766
4855000000,58.434113,61.385307
4856000000,58.553375,61.135147
4857000000,58.177681,60.998611
4858000000,57.972988,60.581161
4859000000,57.745075,60.380348
4860000000,57.651436,60.163925
4861000000,57.69239,60.046303
4862000000,57.463467,59.742031
4863000000,57.196003,59.619793
4864000000,57.383739,59.384506
4865000000,57.072903,59.116299
4866000000,56.919098,58.831692
4867000000,56.97366,58.831085
4868000000,56.79335,58.595852
4869000000,56.536022,58.446823
4870000000,56.47501,58.238121
4871000000,56.161469,57.910004
4872000000,56.526436,57.787575
4873000000,56.513493,57.607853
4874000000,55.562099,57.376247
4875000000,55.712891,57.077793
4876000000,55.632755,56.999947
4877000000,55.817108,56.866535
4878000000,55.247009,56.547901
4879000000,55.073181,56.348106
4880000000,55.079681,56.19437
4881000000,54.520859,55.996822
4882000000,54.864716,55.860928
4883000000,54.522408,55.574383
4884000000,54.417919,55.329384
4885000000,54.050335,55.114342
4886000000,54.484512,54.992199
4887000000,54.291061,54.812412
4888000000,54.135731,54.40786
4889000000,53.740234,54.337334
4890000000,53.774078,54.188503
4891000000,53.757935,54.116505
4892000000,53.437584,53.628422
4893000000,53.256145,53.545181
4894000000,53.470798,53.429424
4895000000,53.067341,53.125801
4896000000,53.066238,52.986073
4897000000,53.257717,52.892982
4898000000,53.020229,52.528713
4899000000,52.839848,52.35807
4900000000,53.201656,52.121883
4901000000,52.460403,52.031773
4902000000,52.852943,51.800243
4903000000,52.343925,51.568302
4904000000,52.604736,51.632103
4905000000,52.024895,51.318634
4906000000,52.361984,50.918934
4907000000,51.774693,50.695461
4908000000,51.874954,50.554733
4909000000,51.217361,50.426807
4910000000,51.567226,50.278973
4911000000,51.397102,49.968304
4912000000,51.162575,49.65163
4913000000,51.013618,49.691662
4914000000,50.857914,49.404648
4915000000,50.707417,49.259068
4916000000,50.517422,49.082279
4917000000,50.71236,48.898029
4918000000,49.924858,48.594364
4919000000,50.05336,48.352314
4920000000,49.656189,48.226513
4921000000,50.112942,48.162395
4922000000,49.831192,47.830128
4923000000,49.659557,47.631508
4924000000,49.462132,47.443439
4925000000,49.331028,47.32074
4926000000,49.393635,47.055382
4927000000,48.975368,46.875298
4928000000,48.891483,46.633358
4929000000,48.720448,46.425262
4930000000,48.389626,46.211838
4931000000,48.425327,45.891247
4932000000,48.144081,45.829781
4933000000,48.178177,45.689205
4934000000,47.63364,45.458832
4935000000,47.5364,45.061962
4936000000,47.614437,44.979458
4937000000,47.782059,44.808468
4938000000,47.205269,44.621704
4939000000,47.517868,44.717102
4940000000,47.421833,44.248436
4941000000,47.185692,44.141884
4942000000,46.708138,43.79961
4943000000,46.56918,43.530998
4944000000,46.769428,43.492702
4945000000,46.34156,43.258793
4946000000,46.461739,42.942825
4947000000,46.251244,42.853241
4948000000,46.22908,42.602299
4949000000,46.303986,42.47937
4950000000,45.939606,42.021824
4951000000,45.811169,42.036312
4952000000,45.334782,41.747372
4953000000,45.357906,41.637768
4954000000,45.555325,41.494061
4955000000,45.026394,41.282585
4956000000,44.574295,41.01424
4957000000,44.583107,40.779186
4958000000,44.522812,40.682274
4959000000,44.614582,40.506516
4960000000,44.282524,40.15424
4961000000,44.200359,40.018341
4962000000,43.951153,39.669224
4963000000,44.080761,39.525002
4964000000,43.646339,39.402584
4965000000,43.429798,39.278667
4966000000,43.234493,38.937252
4967000000,43.445896,38.89883
4968000000,43.193222,38.720791
4969000000,42.708633,38.410549
4970000000,42.890789,38.15604
4971000000,42.67746,37.949097
4972000000,42.696697,37.77084
4973000000,42.63345,37.602875
4974000000,42.015957,37.291512
4975000000,42.098248,37.136803
4976000000,42.101265,36.920029
4977000000,41.568054,36.860661
4978000000,41.752281,36.69952
4979000000,41.754097,36.442982
4980000000,41.84639,36.199196
4981000000,41.435425,36.120377
4982000000,41.29483,35.80582
4983000000,41.098705,35.611111
4984000000,40.802444,35.442665
4985000000,40.823635,35.151749
4986000000,40.487411,35.202202
4987000000,40.333748,34.786533
4988000000,40.082996,34.427216
4989000000,40.626705,34.447819
4990000000,40.053223,34.327633
4991000000,40.501789,34.045666
4992000000,39.794491,33.807869
4993000000,39.670109,33.570694
4994000000,39.590099,33.349297
4995000000,39.167988,33.149483
4996000000,39.162189,33.1227
4997000000,39.259663,32.96262
4998000000,38.712002,32.591175
4999000000,38.938129,32.748966
5000000000,38.349388,32.193733
END

