!CSV A.01.01
!Agilent Technologies,E8362C,MY49020225,A.09.42.22
!Agilent E8362C: A.09.42.22
!Date: Wednesday, March 02, 2016 17:35:11
!Source: Standard

BEGIN CH1_DATA
Freq(Hz),S11 Phase(°),S21 Phase(°)
1000000000,95.743057,176.40422
1001000000,95.606239,176.21506
1002000000,95.327309,175.99779
1003000000,95.438614,175.8718
1004000000,95.275017,175.69431
1005000000,95.148331,175.53275
1006000000,95.030647,175.38945
1007000000,94.776207,175.0968
1008000000,94.7463,175.03185
1009000000,94.308243,174.64548
1010000000,94.283897,174.66402
1011000000,94.070808,174.41058
1012000000,93.54911,173.8253
1013000000,93.895279,174.05795
1014000000,93.216774,173.45699
1015000000,93.382195,173.55882
1016000000,93.189713,173.4657
1017000000,93.069,173.10248
1018000000,92.998405,173.02162
1019000000,92.77964,172.84378
1020000000,92.758873,172.77621
1021000000,92.213074,172.21362
1022000000,92.087654,172.06087
1023000000,91.935287,171.96519
1024000000,92.036064,171.90941
1025000000,91.812912,171.58954
1026000000,91.758171,171.50368
1027000000,91.130562,171.10283
1028000000,91.149979,170.85397
1029000000,91.152222,170.85873
1030000000,91.083954,170.78604
1031000000,90.91291,170.48763
1032000000,90.781883,170.32559
1033000000,90.463333,170.1304
1034000000,90.3013,169.81352
1035000000,90.303917,169.63255
1036000000,90.04245,169.44783
1037000000,90.196785,169.46033
1038000000,89.678093,169.03777
1039000000,89.544518,168.83676
1040000000,89.25312,168.73773
1041000000,89.350243,168.58858
1042000000,88.973,168.34142
1043000000,88.9608,168.07294
1044000000,89.052483,168.07028
1045000000,88.943901,167.93106
1046000000,88.405617,167.53072
1047000000,88.080559,167.12439
1048000000,87.991615,167.04231
1049000000,88.180916,167.05574
1050000000,87.646645,166.675
1051000000,87.589851,166.48309
1052000000,87.893112,166.57269
1053000000,87.56459,166.34949
1054000000,87.266975,165.95926
1055000000,87.167664,165.79405
1056000000,86.613968,165.36009
1057000000,87.072044,165.44116
1058000000,86.250252,165.12196
1059000000,86.343315,164.85565
1060000000,86.529831,164.96452
1061000000,86.371841,164.67532
1062000000,85.810638,164.29179
1063000000,85.982544,164.19278
1064000000,85.859253,164.12878
1065000000,85.921989,163.89786
1066000000,85.295769,163.64381
1067000000,85.063103,163.36133
1068000000,85.37149,163.35374
1069000000,85.149193,163.06638
1070000000,85.396652,162.99345
1071000000,84.660713,162.6496
1072000000,84.941994,162.49525
1073000000,84.606499,162.25044
1074000000,84.383385,162.10748
1075000000,84.208954,161.98039
1076000000,84.25869,161.71082
1077000000,84.099236,161.46875
1078000000,83.656586,161.23073
1079000000,83.608391,161.03423
1080000000,83.863205,160.85298
1081000000,83.859947,160.67801
1082000000,83.997513,160.59717
1083000000,83.265984,160.12111
1084000000,83.027084,160.01151
1085000000,83.143822,159.85234
1086000000,83.185066,159.80965
1087000000,82.745865,159.60471
1088000000,82.904449,159.42104
1089000000,82.871346,159.12491
1090000000,82.66861,159.02205
1091000000,83.067146,158.84386
1092000000,82.192154,158.5264
1093000000,82.353409,158.39014
1094000000,81.798088,157.97269
1095000000,82.086098,157.83748
1096000000,81.863297,158.00615
1097000000,81.985474,157.45923
1098000000,81.429115,157.26544
1099000000,82.133057,157.25089
1100000000,81.553185,157.02698
1101000000,81.295052,156.75011
1102000000,81.550613,156.7403
1103000000,81.459366,156.38394
1104000000,81.574371,156.10823
1105000000,81.393784,155.91277
1106000000,81.486282,155.63655
1107000000,80.679985,155.57396
1108000000,81.250839,155.11684
1109000000,81.216042,155.17009
1110000000,81.126053,155.01706
1111000000,80.462288,154.78465
1112000000,81.292206,154.76967
1113000000,80.744957,154.41277
1114000000,80.595024,154.19151
1115000000,80.729271,154.05447
1116000000,80.381454,153.74411
1117000000,80.735191,153.67638
1118000000,79.598869,153.35655
1119000000,80.207718,153.16908
1120000000,79.894127,152.93587
1121000000,80.240311,152.85631
1122000000,79.860344,152.68353
1123000000,80.460747,152.48351
1124000000,80.941742,152.23953
1125000000,80.021065,151.91457
1126000000,80.290825,151.86031
1127000000,80.592552,151.55583
1128000000,80.440071,151.56046
1129000000,80.425797,151.27916
1130000000,79.886543,150.8688
1131000000,79.014908,150.63083
1132000000,80.364288,150.74506
1133000000,79.8116,150.65587
1134000000,80.281685,150.31068
1135000000,80.101868,150.08888
1136000000,78.825218,149.61589
1137000000,80.075012,149.49536
1138000000,80.268341,149.34607
1139000000,80.239388,149.30423
1140000000,79.409325,149.20038
1141000000,79.777901,148.83414
1142000000,79.366707,148.48488
1143000000,81.014557,148.41974
1144000000,80.844513,148.38625
1145000000,80.215973,148.1301
1146000000,81.348404,147.72919
1147000000,81.629097,147.47116
1148000000,80.923164,147.39456
1149000000,81.873306,147.10258
1150000000,82.118584,147.11337
1151000000,83.643005,146.81889
1152000000,83.3255,146.72212
1153000000,84.184845,146.57556
1154000000,84.985497,146.42934
1155000000,85.499496,146.0663
1156000000,83.388977,145.83337
1157000000,85.387581,145.74487
1158000000,87.382317,145.23024
1159000000,87.741554,145.25903
1160000000,87.529503,145.07767
1161000000,88.488808,144.80692
1162000000,88.375679,144.56197
1163000000,88.634521,144.40489
1164000000,90.165161,144.10574
1165000000,89.835518,143.98421
1166000000,94.39875,143.93608
1167000000,97.011215,143.44792
1168000000,92.171043,143.27858
1169000000,94.017616,143.11145
1170000000,97.872971,143.06421
1171000000,101.51138,142.71242
1172000000,103.6011,142.54651
1173000000,106.09764,142.41005
1174000000,111.22834,142.25827
1175000000,110.481,141.94905
1176000000,121.21663,141.90216
1177000000,123.49399,141.71895
1178000000,122.89037,141.39055
1179000000,129.12105,141.11606
1180000000,133.16589,141.0172
1181000000,143.5748,140.88864
1182000000,152.32819,140.57671
1183000000,150.3672,140.4886
1184000000,154.44968,140.15047
1185000000,162.0238,140.11385
1186000000,164.36655,139.74461
1187000000,176.92067,139.73657
1188000000,174.67816,139.40843
1189000000,-179.8441,139.15735
1190000000,-177.78157,138.90776
1191000000,-171.1875,138.76646
1192000000,-169.16977,138.67606
1193000000,-164.34991,138.3205
1194000000,-163.57208,138.19925
1195000000,-161.42024,137.95978
1196000000,-159.50644,137.84155
1197000000,-161.05243,137.70741
1198000000,-157.38232,137.31644
1199000000,-153.5677,137.21254
1200000000,-155.54967,137.07391
1201000000,-154.57532,136.68524
1202000000,-154.57297,136.61978
1203000000,-151.85416,136.5533
1204000000,-149.62949,136.27664
1205000000,-148.95979,136.03989
1206000000,-146.49077,135.80975
1207000000,-145.89955,135.61142
1208000000,-150.33492,135.59444
1209000000,-148.9016,135.13478
1210000000,-145.70352,135.04697
1211000000,-147.29884,134.72702
1212000000,-147.08237,134.42625
1213000000,-146.71353,134.34213
1214000000,-144.24158,134.15108
1215000000,-146.769,133.86301
1216000000,-145.11035,133.60461
1217000000,-143.25656,133.64792
1218000000,-142.86755,133.35324
1219000000,-141.79314,133.17346
1220000000,-145.9133,133.07361
1221000000,-144.86366,132.65585
1222000000,-144.04259,132.73343
1223000000,-142.6987,132.44026
1224000000,-144.98337,132.26974
1225000000,-144.29222,131.95404
1226000000,-143.41539,131.78873
1227000000,-144.07144,131.64032
1228000000,-142.58421,131.49731
1229000000,-143.36238,131.15877
1230000000,-143.92079,131.05214
1231000000,-143.87067,130.76219
1232000000,-143.65361,130.35901
1233000000,-142.93246,130.30309
1234000000,-142.16597,130.16176
1235000000,-143.96895,129.97528
1236000000,-143.06358,129.77473
1237000000,-144.05481,129.62427
1238000000,-143.6633,129.26402
1239000000,-143.67975,129.13725
1240000000,-144.44063,128.84979
1241000000,-144.12292,128.8101
1242000000,-143.94092,128.51884
1243000000,-144.21149,128.28249
1244000000,-144.34311,128.10153
1245000000,-144.73508,127.65905
1246000000,-144.42781,127.72977
1247000000,-144.42923,127.5128
1248000000,-144.12386,127.319
1249000000,-144.07204,127.08082
1250000000,-143.68648,127.00039
1251000000,-143.69341,126.71094
1252000000,-144.33766,126.43251
1253000000,-144.75189,126.00797
1254000000,-145.46201,126.00445
1255000000,-145.17442,125.63274
1256000000,-145.86212,125.63641
1257000000,-144.55353,125.49227
1258000000,-144.92892,125.38863
1259000000,-144.77159,125.06884
1260000000,-144.49243,125.02882
1261000000,-144.94783,124.73736
1262000000,-145.35294,124.34694
1263000000,-145.40642,124.41781
1264000000,-145.50043,124.17938
1265000000,-144.58432,123.98948
1266000000,-146.33842,123.61459
1267000000,-146.72604,123.44914
1268000000,-146.30919,123.1589
1269000000,-147.15314,123.0435
1270000000,-146.22183,122.68464
1271000000,-147.02112,122.61086
1272000000,-146.27151,122.38389
1273000000,-146.95436,122.19896
1274000000,-146.3506,122.04827
1275000000,-146.83722,121.63516
1276000000,-147.48744,121.55525
1277000000,-146.98053,121.42548
1278000000,-147.42734,121.31975
1279000000,-148.46962,120.84756
1280000000,-147.19057,121.01026
1281000000,-147.6732,120.47071
1282000000,-148.04974,120.36467
1283000000,-147.6597,120.20351
1284000000,-147.80814,120.18471
1285000000,-148.44214,119.87392
1286000000,-147.9295,119.30589
1287000000,-148.38512,119.29817
1288000000,-148.72951,119.22949
1289000000,-148.7169,118.88011
1290000000,-148.27904,118.74877
1291000000,-148.33278,118.58184
1292000000,-150.41104,118.16793
1293000000,-148.52577,118.07275
1294000000,-149.4715,117.82019
1295000000,-148.88863,117.7458
1296000000,-149.63608,117.58873
1297000000,-149.53664,117.27107
1298000000,-149.8828,116.97905
1299000000,-149.22252,116.96897
1300000000,-150.4944,116.69241
1301000000,-150.63515,116.6641
1302000000,-151.17297,116.38962
1303000000,-149.75557,116.22131
1304000000,-150.26674,115.86229
1305000000,-150.19356,115.51947
1306000000,-150.55522,115.65946
1307000000,-150.40747,115.22063
1308000000,-150.86539,115.11508
1309000000,-151.68025,114.74292
1310000000,-152.63518,114.5915
1311000000,-151.82524,114.45641
1312000000,-151.90779,114.08233
1313000000,-152.46788,114.1327
1314000000,-151.61371,113.87229
1315000000,-151.27318,113.59885
1316000000,-152.07932,113.46142
1317000000,-152.89351,113.24463
1318000000,-152.51122,112.91302
1319000000,-152.56227,112.79015
1320000000,-153.05775,112.50974
1321000000,-153.05051,112.25266
1322000000,-153.31213,112.26512
1323000000,-153.46651,111.93871
1324000000,-153.71425,111.54706
1325000000,-153.65794,111.49394
1326000000,-154.38512,111.47929
1327000000,-154.34523,111.12656
1328000000,-154.14107,110.93598
1329000000,-154.4761,110.91821
1330000000,-154.3905,110.54557
1331000000,-154.9382,110.31741
1332000000,-154.73886,110.00388
1333000000,-154.8949,109.84707
1334000000,-155.40126,109.70315
1335000000,-155.77333,109.51704
1336000000,-155.73413,109.34074
1337000000,-155.41016,109.04092
1338000000,-155.90779,109.06819
1339000000,-156.10938,108.79921
1340000000,-156.12169,108.5765
1341000000,-156.3692,108.30737
1342000000,-156.66231,108.06371
1343000000,-157.24355,107.84508
1344000000,-157.0374,107.63859
1345000000,-156.74437,107.50362
1346000000,-157.77269,107.45373
1347000000,-157.19258,107.21342
1348000000,-157.67966,106.80846
1349000000,-157.69543,106.72814
1350000000,-158.04866,106.3582
1351000000,-158.14372,106.16521
1352000000,-158.1617,105.81668
1353000000,-158.06798,105.75694
1354000000,-158.38374,105.39063
1355000000,-158.6145,105.35255
1356000000,-158.88763,105.096
1357000000,-158.77214,105.10061
1358000000,-159.2072,104.78569
1359000000,-159.10475,104.51536
1360000000,-159.61101,104.40896
1361000000,-159.92731,104.18018
1362000000,-159.74133,104.07177
1363000000,-160.57996,103.64878
1364000000,-160.15948,103.38521
1365000000,-160.06805,103.22916
1366000000,-160.64226,103.06383
1367000000,-160.47845,102.8386
1368000000,-160.71165,102.63216
1369000000,-160.82089,102.62465
1370000000,-161.28413,102.23058
1371000000,-161.70343,102.16924
1372000000,-161.18556,101.90022
1373000000,-162.19113,101.61337
1374000000,-161.89091,101.47747
1375000000,-161.96321,101.32246
1376000000,-161.65089,101.23392
1377000000,-162.05156,100.88921
1378000000,-162.67719,100.57074
1379000000,-162.75301,100.34874
1380000000,-162.78288,100.15952
1381000000,-163.76418,99.786079
1382000000,-163.45157,99.681122
1383000000,-163.23334,99.413956
1384000000,-163.33882,99.382507
1385000000,-164.01604,99.112831
1386000000,-163.95406,98.803314
1387000000,-164.58694,98.64827
1388000000,-164.46614,98.464508
1389000000,-164.16701,98.265602
1390000000,-164.48354,98.049126
1391000000,-164.38072,97.763794
1392000000,-164.90808,97.850395
1393000000,-165.62825,97.572861
1394000000,-165.5072,97.37986
1395000000,-165.33231,97.088593
1396000000,-166.00827,96.785492
1397000000,-165.4982,96.536751
1398000000,-165.74231,96.521706
1399000000,-165.92314,96.274155
1400000000,-166.09178,95.90416
1401000000,-166.65744,95.803307
1402000000,-166.65858,95.645615
1403000000,-166.77451,95.403358
1404000000,-167.30249,95.154739
1405000000,-166.73523,95.183388
1406000000,-166.81979,94.718979
1407000000,-167.83295,94.600815
1408000000,-167.49155,94.425323
1409000000,-168.36989,94.028542
1410000000,-168.15126,93.939774
1411000000,-168.71066,93.659409
1412000000,-167.99677,93.568039
1413000000,-168.95641,93.141136
1414000000,-168.59338,93.136017
1415000000,-169.03496,92.705223
1416000000,-168.38417,92.822182
1417000000,-169.19638,92.725853
1418000000,-169.92191,92.242424
1419000000,-169.76495,91.959976
1420000000,-169.82176,91.833603
1421000000,-170.13039,91.560272
1422000000,-170.46065,91.282677
1423000000,-170.22285,91.259422
1424000000,-170.98901,90.863899
1425000000,-170.90672,90.786842
1426000000,-171.01752,90.507568
1427000000,-170.88927,90.290688
1428000000,-171.21646,90.189529
1429000000,-171.14882,90.156563
1430000000,-172.43719,89.771301
1431000000,-171.8343,89.483498
1432000000,-171.84706,89.397446
1433000000,-172.66493,89.242378
1434000000,-172.0139,88.903603
1435000000,-172.58563,88.75457
1436000000,-172.33461,88.447998
1437000000,-172.38213,88.349098
1438000000,-173.37259,88.223526
1439000000,-173.0442,88.020004
1440000000,-173.76089,87.44725
1441000000,-173.43611,87.346169
1442000000,-173.76215,87.303261
1443000000,-173.80733,86.939331
1444000000,-174.56367,86.564301
1445000000,-174.48152,86.522507
1446000000,-174.87828,86.294655
1447000000,-174.61571,86.136871
1448000000,-174.44566,86.031433
1449000000,-174.90588,85.67955
1450000000,-175.27507,85.561546
1451000000,-175.41794,85.30307
1452000000,-175.71526,85.054382
1453000000,-175.75603,84.857674
1454000000,-176.04811,84.761154
1455000000,-176.02786,84.42572
1456000000,-176.37309,84.259583
1457000000,-176.31871,84.04792
1458000000,-176.93306,83.7817
1459000000,-176.42297,83.604446
1460000000,-176.72041,83.414619
1461000000,-177.04724,83.122238
1462000000,-177.18661,82.942467
1463000000,-177.3936,82.911514
1464000000,-178.00755,82.421379
1465000000,-178.04791,82.363647
1466000000,-177.76532,82.184479
1467000000,-178.64671,81.697502
1468000000,-178.11497,81.823967
1469000000,-178.4232,81.512459
1470000000,-178.57968,81.272369
1471000000,-178.68227,80.996956
1472000000,-178.74289,80.863724
1473000000,-178.92081,80.51358
1474000000,-179.01324,80.493698
1475000000,-179.80511,80.116287
1476000000,-179.85609,79.954895
1477000000,179.56862,79.796707
1478000000,-179.84175,79.55085
1479000000,-179.97275,79.470833
1480000000,179.42128,79.115486
1481000000,179.50977,78.947746
1482000000,179.45708,78.674362
1483000000,179.19739,78.533485
1484000000,178.74413,78.249321
1485000000,178.3847,78.094048
1486000000,178.65379,77.865532
1487000000,179.17967,77.754227
1488000000,178.15186,77.288216
1489000000,178.0524,77.164146
1490000000,178.06276,77.017288
1491000000,177.7662,76.917145
1492000000,177.75018,76.461945
1493000000,177.47699,76.244713
1494000000,177.46245,76.040268
1495000000,177.07851,75.940292
1496000000,177.20818,75.76355
1497000000,176.98209,75.471313
1498000000,177.01033,75.368309
1499000000,176.42728,75.023308
1500000000,176.18158,74.621017
1501000000,176.13892,74.505653
1502000000,176.1183,74.398338
1503000000,176.00269,74.016319
1504000000,175.50706,73.970428
1505000000,175.57674,73.727188
1506000000,175.53493,73.557205
1507000000,175.69957,73.245125
1508000000,175.60353,73.124924
1509000000,175.47572,73.096581
1510000000,174.99129,72.561928
1511000000,174.86398,72.525337
1512000000,174.6881,72.335579
1513000000,175.05055,72.098534
1514000000,174.63568,71.83963
1515000000,174.1956,71.554504
1516000000,173.73425,71.204102
1517000000,174.11305,71.081413
1518000000,173.86955,70.871216
1519000000,173.91345,70.625305
1520000000,173.91197,70.409378
1521000000,173.53419,70.121376
1522000000,173.5396,70.020958
1523000000,173.03824,69.572899
1524000000,173.47955,69.530289
1525000000,173.58107,69.378326
1526000000,172.66133,69.160889
1527000000,172.771,69.011871
1528000000,172.57153,68.753799
1529000000,172.62798,68.497734
1530000000,172.76628,68.204842
1531000000,172.74174,67.944786
1532000000,171.75586,67.839355
1533000000,171.81622,67.843102
1534000000,171.96936,67.290222
1535000000,172.44626,67.24221
1536000000,171.66177,67.030548
1537000000,171.61089,66.928421
1538000000,171.52338,66.606384
1539000000,171.78004,66.486107
1540000000,171.8446,66.2388
1541000000,171.29784,65.799088
1542000000,171.13977,65.741699
1543000000,170.73758,65.427681
1544000000,170.92145,65.20636
1545000000,170.08876,64.845932
1546000000,171.00754,64.869377
1547000000,170.69202,64.371262
1548000000,171.00049,64.471687
1549000000,170.51527,64.220146
1550000000,170.43222,63.868019
1551000000,170.89264,63.741573
1552000000,170.28397,63.630051
1553000000,170.0264,63.122055
1554000000,170.10744,63.052284
1555000000,170.32173,62.813274
1556000000,170.21866,62.641762
1557000000,170.11993,62.315205
1558000000,169.10886,61.984657
1559000000,170.32425,61.825138
1560000000,169.18674,61.690365
1561000000,170.18776,61.502037
1562000000,169.30559,61.104607
1563000000,169.91733,61.086536
1564000000,169.54347,60.602379
1565000000,170.08133,60.596348
1566000000,169.44359,60.2714
1567000000,169.87462,60.046543
1568000000,169.3159,59.874687
1569000000,169.68735,59.700977
1570000000,169.42712,59.371353
1571000000,169.58681,59.397438
1572000000,169.95421,58.895683
1573000000,169.94595,58.75927
1574000000,170.15878,58.523335
1575000000,169.57207,58.357525
1576000000,170.16133,58.154861
1577000000,169.83965,57.860977
1578000000,169.78844,57.578735
1579000000,169.59988,57.347702
1580000000,170.67236,57.219509
1581000000,169.66013,56.977879
1582000000,170.54056,56.871773
1583000000,170.87936,56.39967
1584000000,171.60457,56.322704
1585000000,170.76689,56.013466
1586000000,171.11511,55.800766
1587000000,170.29103,55.532738
1588000000,171.23779,55.493633
1589000000,171.26337,55.134171
1590000000,170.60823,54.903709
1591000000,171.2935,54.774616
1592000000,171.42163,54.507034
1593000000,171.15303,54.173477
1594000000,172.36787,54.006073
1595000000,171.83905,53.663963
1596000000,171.76497,53.399784
1597000000,172.60902,53.261395
1598000000,172.6505,53.045132
1599000000,172.78078,52.88092
1600000000,173.45244,52.592133
1601000000,173.06512,52.369503
1602000000,173.79492,52.206734
1603000000,174.51151,52.036819
1604000000,174.62358,51.757938
1605000000,174.40118,51.456963
1606000000,175.26727,51.204056
1607000000,175.77513,51.080112
1608000000,175.79195,50.801785
1609000000,177.03185,50.579689
1610000000,177.26755,50.250767
1611000000,176.91866,49.942768
1612000000,178.13567,49.871288
1613000000,179.02342,49.599976
1614000000,179.78824,49.355549
1615000000,-179.81067,49.062283
1616000000,-179.2999,48.936188
1617000000,-178.58473,48.702454
1618000000,-178.55067,48.421185
1619000000,-177.21181,48.216801
1620000000,-176.73604,48.089886
1621000000,-176.58737,47.690128
1622000000,-175.817,47.44162
1623000000,-174.43184,47.517586
1624000000,-173.94019,46.946102
1625000000,-172.7934,46.791519
1626000000,-171.35168,46.569901
1627000000,-170.19969,46.444927
1628000000,-169.72516,46.003693
1629000000,-168.75209,45.807369
1630000000,-167.77818,45.597912
1631000000,-165.75938,45.361439
1632000000,-164.59404,45.226551
1633000000,-163.22169,45.036015
1634000000,-162.85004,44.655163
1635000000,-160.59326,44.45182
1636000000,-158.62991,44.280506
1637000000,-158.67827,43.92886
1638000000,-156.77379,43.655296
1639000000,-155.92133,43.387936
1640000000,-154.36443,43.264969
1641000000,-150.98204,43.213505
1642000000,-150.79674,43.00338
1643000000,-148.89896,42.710209
1644000000,-147.42143,42.209839
1645000000,-145.96764,42.041607
1646000000,-144.21007,41.82357
1647000000,-142.71208,41.7327
1648000000,-140.36143,41.359875
1649000000,-139.34943,41.043911
1650000000,-137.49838,40.810654
1651000000,-135.1368,40.81321
1652000000,-134.26974,40.365852
1653000000,-132.05772,40.207172
1654000000,-131.14056,39.798023
1655000000,-129.4314,39.769665
1656000000,-127.83743,39.442844
1657000000,-126.3297,39.070843
1658000000,-124.37407,38.929867
1659000000,-122.59374,38.713669
1660000000,-120.4501,38.615482
1661000000,-120.01517,38.11784
1662000000,-118.00613,37.971882
1663000000,-115.68707,37.866966
1664000000,-116.02863,37.444927
1665000000,-114.64993,37.286938
1666000000,-113.28741,37.020336
1667000000,-110.64445,36.783649
1668000000,-109.35064,36.780827
1669000000,-109.30373,36.418438
1670000000,-107.49136,36.150723
1671000000,-106.91848,35.963722
1672000000,-105.55914,35.539295
1673000000,-105.00089,35.523441
1674000000,-104.71599,35.012997
1675000000,-102.89223,34.727821
1676000000,-102.60622,34.76392
1677000000,-101.51539,34.315941
1678000000,-101.06255,34.137909
1679000000,-100.20205,33.73489
1680000000,-99.582115,33.542095
1681000000,-99.051025,33.43692
1682000000,-98.188309,33.035275
1683000000,-97.940147,32.886101
1684000000,-97.073509,32.697685
1685000000,-96.511078,32.340027
1686000000,-96.667969,32.302223
1687000000,-95.507301,32.095478
1688000000,-95.044487,31.727779
1689000000,-94.216438,31.569366
1690000000,-94.161957,31.165453
1691000000,-93.946114,30.951921
1692000000,-93.424255,30.791901
1693000000,-92.939758,30.512726
1694000000,-92.41964,30.203442
1695000000,-92.358849,29.946363
1696000000,-92.038933,29.661934
1697000000,-91.645561,29.533575
1698000000,-91.533958,29.142096
1699000000,-91.005707,28.807816
1700000000,-90.84758,28.535149
1701000000,-90.547241,28.470324
1702000000,-90.275604,28.237974
1703000000,-90.206436,27.916485
1704000000,-90.019508,27.729347
1705000000,-89.660324,27.437559
1706000000,-89.379654,27.241814
1707000000,-89.789528,26.900463
1708000000,-89.23674,26.652805
1709000000,-88.946304,26.428905
1710000000,-88.882019,26.241541
1711000000,-88.79631,26.02585
1712000000,-88.697533,25.625929
1713000000,-88.585022,25.460325
1714000000,-88.266563,25.099325
1715000000,-88.545349,24.962698
1716000000,-88.290268,24.664297
1717000000,-88.32933,24.287434
1718000000,-88.007416,24.312386
1719000000,-88.461525,23.956268
1720000000,-88.241158,23.686489
1721000000,-88.187576,23.463785
1722000000,-88.101021,23.12821
1723000000,-88.096397,23.008675
1724000000,-88.433952,22.481018
1725000000,-88.111504,22.509304
1726000000,-87.737633,22.121437
1727000000,-88.09137,21.939156
1728000000,-88.476891,21.423
1729000000,-88.106071,21.421877
1730000000,-88.273308,21.056435
1731000000,-88.092377,20.977264
1732000000,-88.446594,20.577236
1733000000,-88.24926,20.41132
1734000000,-88.518791,20.123461
1735000000,-88.2696,19.978872
1736000000,-88.536407,19.540012
1737000000,-88.658142,19.272991
1738000000,-88.77346,19.144793
1739000000,-88.689636,18.871023
1740000000,-89.009132,18.496616
1741000000,-89.031868,18.239258
1742000000,-88.899292,18.148806
1743000000,-89.039322,17.750017
1744000000,-89.155235,17.402227
1745000000,-89.15667,17.257
1746000000,-89.123604,16.978518
1747000000,-89.349472,16.975422
1748000000,-89.323654,16.576645
1749000000,-89.652405,16.064354
1750000000,-89.72612,16.120255
1751000000,-89.723404,15.898664
1752000000,-89.689415,15.530597
1753000000,-89.751556,15.362802
1754000000,-89.98793,15.063643
1755000000,-90.308922,14.697785
1756000000,-90.467049,14.427484
1757000000,-90.421394,14.274531
1758000000,-90.518433,14.119623
1759000000,-90.659279,13.722943
1760000000,-90.980766,13.252933
1761000000,-91.149155,13.086211
1762000000,-91.207489,12.957889
1763000000,-91.229057,12.728974
1764000000,-91.70459,12.119051
1765000000,-91.48333,12.17457
1766000000,-91.640541,11.998686
1767000000,-91.763535,11.738124
1768000000,-91.906166,11.329254
1769000000,-92.009346,11.095548
1770000000,-92.094482,10.893
1771000000,-92.5597,10.552984
1772000000,-92.319725,10.489928
1773000000,-92.468277,10.434166
1774000000,-92.707207,9.8106852
1775000000,-92.949265,9.5834541
1776000000,-92.741608,9.3857298
1777000000,-93.29409,9.1374693
1778000000,-93.567543,8.7313566
1779000000,-93.580742,8.5773754
1780000000,-93.517937,8.205102
1781000000,-93.994324,7.8974957
1782000000,-94.288719,7.7204437
1783000000,-94.390617,7.3709688
1784000000,-94.406898,7.0960345
1785000000,-94.778809,6.804008
1786000000,-94.808952,6.5713201
1787000000,-95.10569,6.4146008
1788000000,-94.860611,6.4013677
1789000000,-95.488342,5.816515
1790000000,-95.59906,5.5549026
1791000000,-95.682182,5.4490352
1792000000,-95.804298,5.2451992
1793000000,-96.196739,4.8699818
1794000000,-96.325027,4.5426264
1795000000,-96.41465,4.4487705
1796000000,-96.707596,4.1110682
1797000000,-96.826958,3.7789268
1798000000,-96.940147,3.6393545
1799000000,-97.135498,3.3351593
1800000000,-97.227028,3.1270595
1801000000,-97.65062,2.7579637
1802000000,-97.98793,2.3562248
1803000000,-97.955872,2.1891482
1804000000,-98.16922,1.7620484
1805000000,-98.561943,1.7053132
1806000000,-98.556503,1.5404892
1807000000,-98.967796,0.87490451
1808000000,-99.068497,0.72838998
1809000000,-98.869507,0.81066877
1810000000,-99.329994,0.28184605
1811000000,-99.46891,0.22179756
1812000000,-99.738228,-0.068882965
1813000000,-99.963249,-0.50274664
1814000000,-100.00153,-0.61336124
1815000000,-100.31695,-1.044304
1816000000,-100.58163,-1.168308
1817000000,-100.67491,-1.5460076
1818000000,-101.19143,-1.9441218
1819000000,-101.04472,-1.8852391
1820000000,-101.43805,-2.2700362
1821000000,-101.49023,-2.7092223
1822000000,-101.96912,-3.1092675
1823000000,-101.99792,-3.079289
1824000000,-102.18444,-3.2497237
1825000000,-102.52315,-3.710748
1826000000,-102.52467,-3.9968469
1827000000,-102.53535,-4.1305451
1828000000,-103.09892,-4.4521084
1829000000,-103.16267,-4.5732059
1830000000,-103.43309,-4.911809
1831000000,-103.69489,-5.1096125
1832000000,-103.97198,-5.5188675
1833000000,-103.95128,-5.6208014
1834000000,-104.10452,-5.946012
1835000000,-104.45671,-6.3891497
1836000000,-104.8843,-6.5639505
1837000000,-104.84419,-6.5784936
1838000000,-105.07742,-6.9489913
1839000000,-105.21185,-7.3377047
1840000000,-105.28091,-7.5222163
1841000000,-105.8732,-7.9901977
1842000000,-106.022,-8.1489763
1843000000,-106.09575,-8.4187479
1844000000,-106.24547,-8.3677464
1845000000,-106.56154,-8.7577276
1846000000,-106.83855,-9.1269093
1847000000,-107.21858,-9.6479568
1848000000,-107.30199,-9.8457375
1849000000,-107.45415,-9.93822
1850000000,-107.8095,-10.271871
1851000000,-108.0905,-10.570263
1852000000,-108.22304,-10.821489
1853000000,-108.37891,-11.074229
1854000000,-108.543,-11.351532
1855000000,-109.02779,-11.802274
1856000000,-109.40316,-12.028502
1857000000,-109.17275,-11.932138
1858000000,-109.68106,-12.432349
1859000000,-109.93264,-12.636457
1860000000,-110.05562,-12.768906
1861000000,-110.25282,-13.082946
1862000000,-110.21231,-13.462442
1863000000,-110.74475,-13.802218
1864000000,-111.11154,-14.038836
1865000000,-111.34024,-14.302781
1866000000,-111.65015,-14.585832
1867000000,-111.72105,-14.766365
1868000000,-111.83035,-15.029567
1869000000,-112.1431,-15.302148
1870000000,-112.48909,-15.68111
1871000000,-112.82598,-15.865309
1872000000,-112.88811,-16.163063
1873000000,-112.92554,-16.371336
1874000000,-113.35318,-16.646294
1875000000,-113.17494,-16.768463
1876000000,-113.59241,-17.164959
1877000000,-113.88714,-17.35078
1878000000,-114.1871,-17.662981
1879000000,-114.26112,-17.733692
1880000000,-114.4426,-18.201677
1881000000,-114.88622,-18.407202
1882000000,-115.25893,-18.892599
1883000000,-115.31148,-19.109737
1884000000,-115.68739,-19.263624
1885000000,-116.07004,-19.841824
1886000000,-115.90566,-19.85343
1887000000,-115.8678,-19.696077
1888000000,-116.6353,-20.323833
1889000000,-116.76886,-20.609848
1890000000,-116.69567,-20.77076
1891000000,-117.11493,-21.084988
1892000000,-117.50182,-21.402765
1893000000,-117.54038,-21.662178
1894000000,-117.77728,-21.770803
1895000000,-118.13725,-22.174046
1896000000,-118.55117,-22.565069
1897000000,-118.58131,-22.648813
1898000000,-118.86217,-23.03084
1899000000,-119.04771,-23.376732
1900000000,-119.45052,-23.475967
1901000000,-119.3516,-23.562254
1902000000,-119.5907,-24.003502
1903000000,-119.85418,-24.191311
1904000000,-120.50175,-24.637152
1905000000,-120.45104,-24.851967
1906000000,-120.65259,-25.113169
1907000000,-121.07979,-25.507719
1908000000,-120.99941,-25.526846
1909000000,-121.58838,-25.965336
1910000000,-121.68347,-26.167269
1911000000,-122.09187,-26.545668
1912000000,-122.12939,-26.553253
1913000000,-122.09241,-26.723625
1914000000,-122.49245,-26.959152
1915000000,-122.89583,-27.448961
1916000000,-122.83345,-27.618057
1917000000,-123.24573,-27.905693
1918000000,-123.33684,-28.064592
1919000000,-123.99171,-28.547995
1920000000,-124.12859,-28.845833
1921000000,-124.25542,-28.964851
1922000000,-124.494,-29.223989
1923000000,-124.60561,-29.327454
1924000000,-125.21391,-29.871204
1925000000,-125.0699,-29.973558
1926000000,-125.31664,-30.266159
1927000000,-125.56728,-30.542374
1928000000,-126.11127,-30.835621
1929000000,-126.2503,-31.240589
1930000000,-126.20272,-31.266584
1931000000,-126.72486,-31.711777
1932000000,-126.59319,-31.661182
1933000000,-127.11628,-32.133419
1934000000,-127.37157,-32.383724
1935000000,-127.62079,-32.732891
1936000000,-127.76661,-32.875008
1937000000,-127.92381,-33.098484
1938000000,-128.17995,-33.436558
1939000000,-128.26187,-33.526855
1940000000,-128.53938,-33.834656
1941000000,-129.00491,-34.146255
1942000000,-129.20532,-34.503891
1943000000,-129.53694,-34.572601
1944000000,-129.34343,-34.787834
1945000000,-129.75293,-35.144222
1946000000,-129.84178,-35.273567
1947000000,-130.29485,-35.695652
1948000000,-130.68996,-35.926506
1949000000,-130.67393,-36.209515
1950000000,-131.00015,-36.350918
1951000000,-131.23872,-36.614933
1952000000,-131.7972,-37.052376
1953000000,-131.57709,-37.173656
1954000000,-132.12788,-37.469547
1955000000,-132.2213,-37.685722
1956000000,-132.56696,-38.040119
1957000000,-132.71089,-38.230453
1958000000,-132.98447,-38.490501
1959000000,-133.14595,-38.836765
1960000000,-133.29361,-38.944038
1961000000,-133.46118,-39.056522
1962000000,-133.85304,-39.461555
1963000000,-134.14598,-39.806099
1964000000,-134.23534,-39.978588
1965000000,-134.37265,-40.056473
1966000000,-134.92889,-40.582443
1967000000,-135.08385,-40.717808
1968000000,-135.29564,-40.827034
1969000000,-135.39975,-41.121449
1970000000,-135.69331,-41.377724
1971000000,-135.84283,-41.554306
1972000000,-136.12138,-41.868755
1973000000,-136.6702,-42.332886
1974000000,-136.65997,-42.431587
1975000000,-136.85692,-42.743362
1976000000,-137.08943,-42.923359
1977000000,-137.43735,-43.218769
1978000000,-137.51756,-43.415592
1979000000,-137.57184,-43.563385
1980000000,-137.89961,-43.823074
1981000000,-138.26035,-44.244049
1982000000,-138.38242,-44.20015
1983000000,-138.64998,-44.657558
1984000000,-138.93698,-44.92387
1985000000,-139.16254,-45.19133
1986000000,-139.38023,-45.361107
1987000000,-139.73251,-45.641888
1988000000,-140.01244,-45.959068
1989000000,-139.98155,-45.986992
1990000000,-140.32123,-46.382824
1991000000,-140.58449,-46.707516
1992000000,-140.94875,-46.934811
1993000000,-140.995,-46.993717
1994000000,-141.21031,-47.4174
1995000000,-141.4408,-47.501247
1996000000,-141.63086,-47.92358
1997000000,-142.04457,-48.281891
1998000000,-142.1252,-48.269939
1999000000,-142.50407,-48.704147
2000000000,-142.6514,-48.874229
2001000000,-142.81148,-49.030025
2002000000,-143.18256,-49.441242
2003000000,-143.3974,-49.730129
2004000000,-143.45056,-49.829178
2005000000,-143.43138,-49.725544
2006000000,-143.88393,-50.210938
2007000000,-144.22507,-50.513859
2008000000,-144.48126,-50.735527
2009000000,-144.72116,-51.140141
2010000000,-144.91779,-51.283421
2011000000,-145.19336,-51.591454
2012000000,-145.44019,-51.68866
2013000000,-145.45961,-51.909088
2014000000,-145.77863,-52.295708
2015000000,-145.9292,-52.419983
2016000000,-146.28659,-52.682716
2017000000,-146.55078,-52.911438
2018000000,-146.53835,-52.991333
2019000000,-146.94896,-53.422829
2020000000,-146.96291,-53.469143
2021000000,-147.16801,-53.73317
2022000000,-147.57338,-54.242794
2023000000,-147.744,-54.364384
2024000000,-148.10094,-54.638588
2025000000,-148.37917,-54.646534
2026000000,-148.35974,-55.119427
2027000000,-148.58842,-55.131439
2028000000,-148.78688,-55.508671
2029000000,-148.90819,-55.660324
2030000000,-149.10365,-56.000977
2031000000,-149.36122,-56.051285
2032000000,-149.79637,-56.417984
2033000000,-149.87083,-56.730133
2034000000,-150.16695,-56.781967
2035000000,-150.60324,-57.227039
2036000000,-150.58023,-57.396175
2037000000,-150.95877,-57.758404
2038000000,-151.04044,-57.845352
2039000000,-150.89154,-57.935474
2040000000,-151.35542,-58.199093
2041000000,-151.66718,-58.455948
2042000000,-151.89758,-58.696411
2043000000,-151.88866,-58.86544
2044000000,-152.44615,-59.124023
2045000000,-152.43172,-59.367199
2046000000,-152.87077,-59.666805
2047000000,-153.07832,-59.933723
2048000000,-153.27408,-59.968876
2049000000,-153.54355,-60.442509
2050000000,-153.65623,-60.542831
2051000000,-153.91745,-60.852657
2052000000,-153.93179,-61.067554
2053000000,-154.40158,-61.420273
2054000000,-154.39632,-61.542095
2055000000,-154.86905,-61.841373
2056000000,-154.76038,-61.796425
2057000000,-155.0493,-61.952404
2058000000,-155.42657,-62.387489
2059000000,-155.67876,-62.748962
2060000000,-155.81372,-62.921658
2061000000,-156.04568,-63.216515
2062000000,-156.17624,-63.283096
2063000000,-156.45326,-63.534325
2064000000,-156.58072,-63.692913
2065000000,-156.75243,-64.045021
2066000000,-157.10045,-64.079361
2067000000,-157.299,-64.470802
2068000000,-157.39502,-64.609688
2069000000,-158.09117,-65.214256
2070000000,-157.85593,-65.083321
2071000000,-157.9017,-65.328217
2072000000,-158.42943,-65.824661
2073000000,-158.54581,-65.931946
2074000000,-158.88931,-66.154732
2075000000,-159.00046,-66.198341
2076000000,-159.35246,-66.642006
2077000000,-159.33888,-66.566101
2078000000,-159.5491,-66.868248
2079000000,-159.81795,-67.11776
2080000000,-160.13661,-67.466614
2081000000,-160.33728,-67.569023
2082000000,-160.63866,-67.940735
2083000000,-160.74165,-68.019722
2084000000,-161.04395,-68.381279
2085000000,-160.89479,-68.299599
2086000000,-161.30536,-68.625671
2087000000,-161.41042,-68.842712
2088000000,-161.86101,-69.167969
2089000000,-161.88739,-69.218491
2090000000,-162.25775,-69.562813
2091000000,-162.44958,-69.855286
2092000000,-162.30548,-69.702232
2093000000,-162.75594,-70.359116
2094000000,-162.76079,-70.2313
2095000000,-163.16513,-70.734299
2096000000,-163.44675,-70.953064
2097000000,-163.60191,-71.21656
2098000000,-163.77237,-71.441391
2099000000,-164.05206,-71.646034
2100000000,-164.40382,-71.790771
2101000000,-164.4624,-72.132744
2102000000,-164.67723,-72.114365
2103000000,-164.84265,-72.339821
2104000000,-165.01131,-72.590996
2105000000,-165.25168,-72.716057
2106000000,-165.19742,-73.110374
2107000000,-165.87534,-73.368896
2108000000,-165.77046,-73.286186
2109000000,-166.21185,-73.826546
2110000000,-166.19089,-73.824013
2111000000,-166.38295,-73.935043
2112000000,-166.65334,-74.444145
2113000000,-167.14771,-74.747177
2114000000,-167.2795,-74.953743
2115000000,-167.32359,-74.98616
2116000000,-167.44406,-75.171196
2117000000,-167.60201,-75.409668
2118000000,-168.04356,-75.751785
2119000000,-167.82048,-75.588608
2120000000,-168.27182,-75.922951
2121000000,-168.5827,-76.312752
2122000000,-168.74591,-76.550522
2123000000,-169.01965,-76.778893
2124000000,-169.054,-76.90004
2125000000,-169.45129,-77.10936
2126000000,-169.59985,-77.45401
2127000000,-169.65128,-77.449532
2128000000,-170.14284,-77.883545
2129000000,-170.00394,-77.748703
2130000000,-170.41545,-78.31601
2131000000,-170.59659,-78.507881
2132000000,-170.8963,-78.593025
2133000000,-171.06029,-79.068336
2134000000,-171.10027,-79.222565
2135000000,-171.35667,-79.468262
2136000000,-171.60272,-79.635361
2137000000,-171.82782,-79.647316
2138000000,-171.98708,-80.053314
2139000000,-172.12846,-80.107765
2140000000,-172.46124,-80.431908
2141000000,-172.72234,-80.813614
2142000000,-172.74329,-80.777542
2143000000,-172.83388,-80.893005
2144000000,-173.27861,-81.273758
2145000000,-173.30875,-81.414894
2146000000,-173.5327,-81.646217
2147000000,-173.65932,-81.749664
2148000000,-173.76297,-81.988602
2149000000,-174.0896,-82.345238
2150000000,-174.22528,-82.395592
2151000000,-174.48412,-82.499992
2152000000,-174.45071,-82.630211
2153000000,-174.91316,-83.040154
2154000000,-175.18085,-83.39489
2155000000,-175.51591,-83.605972
2156000000,-175.42493,-83.694626
2157000000,-175.57452,-83.664612
2158000000,-176.1992,-84.295769
2159000000,-176.21115,-84.389198
2160000000,-176.00919,-84.244637
2161000000,-176.68954,-84.711243
2162000000,-176.93762,-85.076347
2163000000,-176.98351,-85.219856
2164000000,-177.30212,-85.397156
2165000000,-177.02364,-85.262711
2166000000,-177.45845,-85.779037
2167000000,-177.84775,-86.100578
2168000000,-177.64156,-86.121597
2169000000,-178.33354,-86.649315
2170000000,-178.29042,-86.592674
2171000000,-178.56783,-86.77243
2172000000,-178.63797,-86.916458
2173000000,-178.81938,-87.163368
2174000000,-179.0753,-87.39959
2175000000,-179.24374,-87.750954
2176000000,-179.42233,-87.92205
2177000000,-179.74643,-88.051949
2178000000,179.9682,-88.417175
2179000000,179.94939,-88.320572
2180000000,179.7946,-88.469223
2181000000,179.4687,-88.958145
2182000000,179.3656,-89.102661
2183000000,179.11024,-89.198082
2184000000,179.05128,-89.371483
2185000000,178.78484,-89.756996
2186000000,178.34492,-90.14444
2187000000,178.39764,-90.167488
2188000000,178.0116,-90.459091
2189000000,178.09468,-90.387215
2190000000,177.81105,-90.841339
2191000000,177.55141,-91.023636
2192000000,177.31123,-91.22168
2193000000,177.25095,-91.304588
2194000000,176.92326,-91.680779
2195000000,176.83705,-91.775467
2196000000,176.60484,-92.057144
2197000000,176.63412,-92.015327
2198000000,176.0704,-92.584915
2199000000,176.0304,-92.89743
2200000000,175.69469,-92.977783
2201000000,175.6447,-93.171913
2202000000,175.27711,-93.426537
2203000000,175.14763,-93.544373
2204000000,174.85316,-93.778336
2205000000,175.06119,-93.800812
2206000000,174.44635,-94.223938
2207000000,174.15526,-94.635178
2208000000,174.36288,-94.495529
2209000000,173.9706,-94.743805
2210000000,173.86707,-94.985901
2211000000,173.82025,-94.975639
2212000000,173.38408,-95.638596
2213000000,173.17899,-95.618164
2214000000,172.64557,-96.063049
2215000000,172.92319,-96.130409
2216000000,172.77596,-96.160927
2217000000,172.66426,-96.387184
2218000000,172.30952,-96.626884
2219000000,172.13004,-96.779755
2220000000,171.69023,-97.058014
2221000000,171.82848,-97.069
2222000000,171.51167,-97.557434
2223000000,171.43317,-97.679848
2224000000,171.15419,-97.752731
2225000000,170.93407,-98.139496
2226000000,170.90283,-98.18161
2227000000,170.64331,-98.269409
2228000000,170.38277,-98.790207
2229000000,170.22914,-98.941345
2230000000,169.95468,-99.239372
2231000000,170.06802,-99.24189
2232000000,169.63765,-99.44146
2233000000,169.32428,-100.0471
2234000000,169.33572,-99.964005
2235000000,168.9985,-100.19491
2236000000,168.67598,-100.38582
2237000000,168.48146,-100.66606
2238000000,168.21107,-100.99561
2239000000,168.12633,-101.0322
2240000000,167.8792,-101.27293
2241000000,167.64931,-101.44232
2242000000,167.50822,-101.69648
2243000000,167.29472,-101.95713
2244000000,167.13419,-102.11248
2245000000,167.00874,-102.34201
2246000000,166.92574,-102.53504
2247000000,166.42993,-102.93749
2248000000,166.25751,-103.11288
2249000000,166.37906,-103.18445
2250000000,165.91083,-103.41112
2251000000,165.71008,-103.77795
2252000000,165.45898,-103.81773
2253000000,165.03365,-104.46574
2254000000,165.0197,-104.25471
2255000000,164.93326,-104.45292
2256000000,164.76639,-104.70947
2257000000,164.64064,-104.86199
2258000000,164.3647,-105.21555
2259000000,164.10295,-105.2892
2260000000,164.1241,-105.52257
2261000000,164.13029,-105.39579
2262000000,163.33417,-105.99915
2263000000,163.42621,-106.19379
2264000000,163.03595,-106.60404
2265000000,163.05179,-106.66797
2266000000,162.89774,-106.72523
2267000000,162.51433,-106.87673
2268000000,162.62097,-107.07909
2269000000,162.09988,-107.49599
2270000000,162.1266,-107.67178
2271000000,161.65601,-107.85464
2272000000,161.56895,-108.20162
2273000000,161.49474,-108.26208
2274000000,161.20813,-108.59713
2275000000,160.89398,-108.83763
2276000000,160.89781,-108.87151
2277000000,160.16965,-109.52514
2278000000,160.2812,-109.5453
2279000000,160.24702,-109.49563
2280000000,159.75266,-110.00473
2281000000,159.7654,-110.1152
2282000000,159.61037,-110.3554
2283000000,159.37448,-110.59214
2284000000,159.09334,-110.74339
2285000000,158.85025,-111.10692
2286000000,158.71686,-111.27475
2287000000,158.7072,-111.47162
2288000000,158.21414,-111.79844
2289000000,158.08864,-111.91767
2290000000,157.87003,-112.0966
2291000000,157.59508,-112.44257
2292000000,157.60495,-112.46424
2293000000,157.35413,-112.64165
2294000000,157.08257,-113.03922
2295000000,156.93207,-113.21783
2296000000,156.4794,-113.60562
2297000000,156.44897,-113.62088
2298000000,156.13377,-114.00985
2299000000,156.03685,-114.04699
2300000000,155.68179,-114.52808
2301000000,155.53806,-114.60179
2302000000,155.44334,-114.80662
2303000000,155.16843,-115.1258
2304000000,154.97041,-115.21077
2305000000,154.80875,-115.44916
2306000000,154.62343,-115.75793
2307000000,154.58958,-115.93243
2308000000,154.1472,-116.15356
2309000000,153.87202,-116.57251
2310000000,153.69313,-116.52102
2311000000,153.54318,-116.80311
2312000000,153.16783,-117.18061
2313000000,153.1237,-117.25841
2314000000,153.02716,-117.48647
2315000000,152.69881,-117.78295
2316000000,152.49977,-117.91021
2317000000,152.24783,-118.28732
2318000000,151.989,-118.60793
2319000000,151.98955,-118.79642
2320000000,151.50797,-119.058
2321000000,151.39655,-119.21982
2322000000,150.98332,-119.40462
2323000000,150.95596,-119.5724
2324000000,150.71754,-119.93829
2325000000,150.33037,-120.24566
2326000000,150.5085,-120.24406
2327000000,150.04768,-120.80331
2328000000,149.83577,-121.03145
2329000000,149.67311,-120.91264
2330000000,149.41788,-121.29298
2331000000,149.24886,-121.55573
2332000000,148.89442,-121.98658
2333000000,148.84601,-121.99341
2334000000,148.48856,-122.37511
2335000000,148.34213,-122.41173
2336000000,148.20697,-122.72698
2337000000,147.68422,-123.0719
2338000000,147.51961,-123.46021
2339000000,147.45638,-123.52747
2340000000,147.13013,-123.80012
2341000000,146.89671,-124.11726
2342000000,146.74489,-124.15889
2343000000,146.43098,-124.61916
2344000000,146.21675,-124.68497
2345000000,146.1179,-124.89272
2346000000,145.834,-125.19815
2347000000,145.48439,-125.63046
2348000000,145.36377,-125.83609
2349000000,145.05154,-125.97452
2350000000,144.93755,-126.21956
2351000000,144.68544,-126.55748
2352000000,144.57953,-126.64046
2353000000,144.25864,-126.99215
2354000000,144.0265,-127.3581
2355000000,143.92566,-127.47373
2356000000,143.51715,-127.76172
2357000000,143.30136,-128.17981
2358000000,142.92154,-128.55518
2359000000,142.66417,-128.74237
2360000000,142.59644,-128.75694
2361000000,142.37422,-129.12083
2362000000,142.2023,-129.38266
2363000000,141.91045,-129.61476
2364000000,141.59747,-129.97865
2365000000,141.37039,-130.5251
2366000000,141.24957,-130.4167
2367000000,140.979,-130.78456
2368000000,140.63445,-131.00938
2369000000,140.48459,-131.32059
2370000000,140.10004,-131.59181
2371000000,139.93806,-131.89838
2372000000,139.75958,-132.14043
2373000000,139.57295,-132.4538
2374000000,139.33788,-132.49596
2375000000,138.95532,-132.93381
2376000000,138.94254,-133.17508
2377000000,138.28136,-133.80101
2378000000,138.39082,-133.49837
2379000000,138.06386,-134.01216
2380000000,137.62657,-134.65245
2381000000,137.49982,-134.73674
2382000000,137.42113,-134.90869
2383000000,137.04939,-135.13026
2384000000,136.64223,-135.76717
2385000000,136.4082,-135.79985
2386000000,136.41679,-135.97734
2387000000,136.13957,-136.22638
2388000000,135.83473,-136.60042
2389000000,135.78658,-136.7301
2390000000,135.04333,-137.36765
2391000000,135.22899,-137.44424
2392000000,134.90527,-137.51517
2393000000,134.58536,-138.16446
2394000000,134.18967,-138.39763
2395000000,133.94926,-138.87723
2396000000,133.76317,-138.88889
2397000000,133.44679,-139.32733
2398000000,133.32544,-139.4297
2399000000,132.89529,-139.88548
2400000000,132.68565,-140.21408
2401000000,132.71425,-140.1713
2402000000,132.18834,-140.85843
2403000000,131.76611,-141.09554
2404000000,131.63159,-141.45183
2405000000,131.24872,-142.02133
2406000000,131.14746,-142.0582
2407000000,130.99837,-142.23466
2408000000,130.63074,-142.62691
2409000000,130.28625,-143.04582
2410000000,130.12286,-143.36296
2411000000,129.72841,-143.57463
2412000000,129.49973,-144.24023
2413000000,129.10815,-144.32207
2414000000,129.04674,-144.80777
2415000000,128.7205,-145.12744
2416000000,128.33995,-145.34804
2417000000,128.1281,-145.68744
2418000000,127.97239,-145.76472
2419000000,127.45911,-146.28746
2420000000,127.092,-146.81752
2421000000,126.98962,-147.04277
2422000000,126.60912,-147.44138
2423000000,126.35445,-147.58783
2424000000,126.12183,-148.09064
2425000000,125.85236,-148.36024
2426000000,125.57236,-148.63655
2427000000,125.2618,-148.92635
2428000000,125.22285,-149.49843
2429000000,124.74445,-149.60085
2430000000,124.49078,-150.02475
2431000000,124.09428,-150.36697
2432000000,123.73061,-150.89099
2433000000,123.37164,-151.26604
2434000000,122.96231,-151.72217
2435000000,122.88427,-151.78708
2436000000,122.79798,-152.25768
2437000000,122.72739,-152.42725
2438000000,122.11548,-152.96066
2439000000,121.90127,-153.33864
2440000000,121.54173,-153.57309
2441000000,121.4478,-154.19244
2442000000,120.92414,-154.50354
2443000000,120.58317,-154.91122
2444000000,120.21331,-155.1743
2445000000,119.82503,-155.77142
2446000000,119.73684,-156.00841
2447000000,119.48008,-156.14644
2448000000,119.1375,-156.87619
2449000000,118.9811,-156.91765
2450000000,118.36295,-157.56764
2451000000,118.34663,-158.02977
2452000000,118.00599,-158.1767
2453000000,117.63707,-158.65543
2454000000,117.34641,-159.13907
2455000000,116.94637,-159.61026
2456000000,116.55917,-160.12895
2457000000,116.36725,-160.48462
2458000000,116.1685,-160.85811
2459000000,115.61203,-161.37677
2460000000,115.46279,-161.63998
2461000000,115.36187,-161.88841
2462000000,114.79268,-162.67979
2463000000,114.60074,-162.73135
2464000000,114.36691,-163.24236
2465000000,114.03476,-163.50543
2466000000,113.73948,-164.17773
2467000000,113.32188,-164.61656
2468000000,113.18668,-165.22774
2469000000,112.86848,-165.48546
2470000000,112.34727,-165.90854
2471000000,112.26549,-166.32558
2472000000,111.82789,-166.8763
2473000000,111.61661,-167.2074
2474000000,111.3195,-167.59822
2475000000,111.14992,-168.0524
2476000000,110.81052,-168.70212
2477000000,110.40255,-169.00978
2478000000,109.95273,-169.56358
2479000000,109.68822,-170.16446
2480000000,109.46503,-170.47691
2481000000,109.13745,-170.89259
2482000000,108.84042,-171.29695
2483000000,108.73141,-171.85034
2484000000,108.20637,-172.38794
2485000000,107.92777,-173.05672
2486000000,107.81144,-173.44005
2487000000,107.61218,-173.65001
2488000000,107.1991,-174.30281
2489000000,107.03481,-174.83752
2490000000,106.82814,-175.15111
2491000000,106.34097,-175.98366
2492000000,105.98484,-176.45097
2493000000,105.69784,-176.95213
2494000000,105.54898,-177.30609
2495000000,105.45843,-177.7603
2496000000,104.99317,-178.12569
2497000000,104.78048,-178.74869
2498000000,104.68891,-179.13284
2499000000,104.30226,-179.93288
2500000000,104.1277,179.77455
2501000000,103.89531,179.23883
2502000000,103.61334,178.5233
2503000000,103.65981,178.09209
2504000000,103.09023,177.64934
2505000000,102.90163,176.63463
2506000000,102.81081,176.39247
2507000000,102.84635,175.92262
2508000000,102.62595,175.32776
2509000000,102.28767,174.89575
2510000000,102.2997,174.20613
2511000000,102.02235,173.77332
2512000000,102.0511,173.23943
2513000000,101.61127,172.57336
2514000000,101.88286,172.21939
2515000000,101.77505,171.44269
2516000000,101.82487,170.6487
2517000000,101.74757,170.55928
2518000000,101.47861,169.84653
2519000000,101.51138,169.26625
2520000000,101.53355,168.56583
2521000000,101.50914,167.99507
2522000000,101.59897,167.35999
2523000000,101.49608,166.81558
2524000000,101.80947,166.33511
2525000000,101.9556,165.83064
2526000000,101.87038,165.15234
2527000000,102.07186,164.53999
2528000000,102.36495,163.72417
2529000000,102.59632,163.41513
2530000000,102.65627,162.86554
2531000000,103.13394,162.04335
2532000000,103.29218,161.4352
2533000000,103.73286,160.89922
2534000000,104.27058,160.19331
2535000000,104.57802,159.69957
2536000000,105.08147,159.04628
2537000000,105.52832,158.45532
2538000000,106.29127,157.77264
2539000000,106.69379,156.97523
2540000000,107.50913,156.73233
2541000000,108.36934,155.95644
2542000000,109.26892,155.52472
2543000000,110.04483,154.64844
2544000000,111.01012,153.9767
2545000000,111.89215,153.57445
2546000000,113.05965,152.83824
2547000000,114.10223,152.08643
2548000000,115.59425,151.67859
2549000000,116.68598,150.8949
2550000000,117.94337,150.23375
2551000000,119.55197,149.62761
2552000000,120.85809,148.9312
2553000000,122.45441,148.35835
2554000000,124.31227,147.68047
2555000000,125.59537,147.06865
2556000000,127.16325,146.11783
2557000000,129.3195,145.66742
2558000000,130.90132,145.14116
2559000000,132.97597,144.45563
2560000000,134.59013,143.56412
2561000000,136.83293,143.16344
2562000000,138.26639,142.58295
2563000000,140.06462,141.83736
2564000000,141.85683,141.00697
2565000000,144.03081,140.42415
2566000000,145.5891,139.67378
2567000000,147.5275,139.08931
2568000000,148.76804,138.3558
2569000000,150.90384,137.93695
2570000000,151.91005,137.1281
2571000000,153.0928,136.40283
2572000000,154.7851,135.69019
2573000000,156.09312,135.03076
2574000000,157.08481,134.55954
2575000000,158.19629,133.55652
2576000000,159.48737,132.99301
2577000000,160.50027,132.42834
2578000000,161.63651,131.71422
2579000000,162.35117,131.07385
2580000000,163.37903,130.39102
2581000000,163.82164,129.46526
2582000000,164.66428,129.01396
2583000000,165.23413,128.28983
2584000000,165.91017,127.70655
2585000000,166.3295,127.12569
2586000000,166.81487,126.33434
2587000000,167.13051,125.56142
2588000000,168.01381,125.03615
2589000000,168.21977,124.32955
2590000000,168.07433,123.70654
2591000000,168.4494,122.9761
2592000000,168.73744,122.32638
2593000000,168.67079,121.65674
2594000000,168.91151,120.93929
2595000000,168.69168,119.94734
2596000000,169.09358,119.71422
2597000000,168.76889,118.85147
2598000000,169.17535,118.18608
2599000000,169.02916,117.6423
2600000000,168.99765,116.89156
2601000000,169.01997,116.20231
2602000000,168.84045,115.48512
2603000000,168.83083,114.80768
2604000000,168.61401,114.35177
2605000000,168.48566,113.43568
2606000000,168.25441,112.7493
2607000000,168.03116,112.10677
2608000000,167.49811,111.26501
2609000000,167.42462,110.63795
2610000000,167.32657,110.17642
2611000000,166.91547,109.5375
2612000000,166.61908,108.73974
2613000000,166.34747,107.90498
2614000000,166.05052,107.35779
2615000000,165.7224,106.78767
2616000000,165.31462,106.06265
2617000000,165.10046,105.38853
2618000000,164.67981,104.57714
2619000000,164.42155,104.21075
2620000000,164.03018,103.15383
2621000000,163.27931,102.42773
2622000000,163.18134,102.24281
2623000000,162.66791,101.59541
2624000000,162.0686,100.52881
2625000000,161.74239,100.02865
2626000000,161.59882,99.424179
2627000000,160.97169,98.693832
2628000000,160.5872,98.052246
2629000000,159.76521,97.146538
2630000000,159.37604,96.581291
2631000000,159.08437,96.034378
2632000000,158.82591,95.325073
2633000000,158.25491,94.474098
2634000000,157.58458,93.891014
2635000000,156.96667,93.256592
2636000000,156.63982,92.706238
2637000000,155.89632,91.705765
2638000000,155.20003,90.950874
2639000000,154.8786,90.513954
2640000000,154.30396,89.73259
2641000000,153.96155,89.292702
2642000000,153.0544,88.444496
2643000000,152.91772,87.94873
2644000000,152.15756,87.006096
2645000000,151.54648,86.288078
2646000000,151.0274,85.568581
2647000000,150.34819,84.94355
2648000000,149.71274,84.181282
2649000000,149.10692,83.590164
2650000000,148.479,82.952728
2651000000,148.049,82.214333
2652000000,147.28647,81.351097
2653000000,146.59137,80.620773
2654000000,145.91528,80.198654
2655000000,145.31435,79.323494
2656000000,144.54352,78.751732
2657000000,144.03084,77.964615
2658000000,143.30025,77.085846
2659000000,142.80263,76.633049
2660000000,141.89204,75.782143
2661000000,141.23811,75.020042
2662000000,140.12437,74.142159
2663000000,139.60986,73.275742
2664000000,139.03577,72.778931
2665000000,138.24442,72.231209
2666000000,137.34146,71.245476
2667000000,136.61281,70.358482
2668000000,135.49876,69.84388
2669000000,135.00729,69.037697
2670000000,134.2092,68.220863
2671000000,133.45741,67.422516
2672000000,132.90797,66.598991
2673000000,132.01146,66.010429
2674000000,130.87041,65.128326
2675000000,130.30478,64.459793
2676000000,129.36072,63.554543
2677000000,128.40269,62.650555
2678000000,127.56169,61.710732
2679000000,126.78011,61.228119
2680000000,125.75916,60.298878
2681000000,124.96982,59.564026
2682000000,123.77864,58.802109
2683000000,122.92037,57.822811
2684000000,121.99422,56.999115
2685000000,120.80376,55.991722
2686000000,119.87049,55.392773
2687000000,118.70847,54.402748
2688000000,117.80058,53.629135
2689000000,116.71646,52.683109
2690000000,115.57107,51.785732
2691000000,114.63986,50.857609
2692000000,113.22149,49.744255
2693000000,112.08521,49.069031
2694000000,110.99142,48.125378
2695000000,109.67236,47.340672
2696000000,108.28712,46.419102
2697000000,107.01221,45.565502
2698000000,106.0398,44.773308
2699000000,104.3131,43.624947
2700000000,102.79914,42.616112
2701000000,101.55291,41.946453
2702000000,99.795059,40.992752
2703000000,98.314537,39.833523
2704000000,96.269516,38.714851
2705000000,94.653473,37.704796
2706000000,92.954048,36.858971
2707000000,90.838379,35.85741
2708000000,88.847076,34.898632
2709000000,86.909012,33.725964
2710000000,84.290604,32.763855
2711000000,81.615318,31.706369
2712000000,79.092056,30.634361
2713000000,76.164581,29.526215
2714000000,73.099075,28.882807
2715000000,69.527939,27.503571
2716000000,65.728561,26.596039
2717000000,61.665257,25.6217
2718000000,56.735249,24.340878
2719000000,51.454735,23.309706
2720000000,45.023315,21.990667
2721000000,38.028725,21.192053
2722000000,30.434473,20.043036
2723000000,21.964159,18.898046
2724000000,13.622002,17.938
2725000000,3.6804197,16.740866
2726000000,-6.0876689,15.477656
2727000000,-14.860617,14.569607
2728000000,-23.73333,13.296509
2729000000,-31.354527,12.162488
2730000000,-38.250259,11.253718
2731000000,-44.644485,9.9597034
2732000000,-50.092163,8.8637257
2733000000,-54.937252,7.699183
2734000000,-59.741837,6.5082402
2735000000,-63.659611,5.3798285
2736000000,-67.186737,4.0685139
2737000000,-70.614479,2.9353554
2738000000,-73.368622,1.954385
2739000000,-76.30986,0.92991704
2740000000,-78.863258,-0.45690706
2741000000,-81.275093,-1.3304429
2742000000,-83.693436,-2.3579519
2743000000,-85.792656,-3.6455863
2744000000,-88.013802,-4.7151499
2745000000,-90.033325,-5.8599701
2746000000,-91.944237,-7.0363379
2747000000,-93.656876,-8.1163063
2748000000,-95.567673,-9.172101
2749000000,-97.133812,-10.277945
2750000000,-98.914787,-11.349165
2751000000,-100.59137,-12.398135
2752000000,-102.13818,-13.526495
2753000000,-103.80441,-14.504889
2754000000,-105.39996,-15.841521
2755000000,-106.74949,-16.662199
2756000000,-108.3273,-17.952574
2757000000,-109.9181,-19.072271
2758000000,-110.85058,-19.78651
2759000000,-112.27057,-20.961817
2760000000,-113.75468,-22.08301
2761000000,-114.89719,-22.980198
2762000000,-116.23239,-24.050034
2763000000,-117.46547,-25.172649
2764000000,-118.71638,-26.012281
2765000000,-119.73962,-26.710846
2766000000,-121.04334,-27.834761
2767000000,-122.43481,-29.02697
2768000000,-123.43577,-29.800976
2769000000,-124.33996,-30.757053
2770000000,-125.37789,-31.468092
2771000000,-126.65269,-32.533306
2772000000,-127.52797,-33.366444
2773000000,-128.97791,-34.518036
2774000000,-129.84178,-35.246609
2775000000,-130.86488,-36.101498
2776000000,-132.09802,-37.169884
2777000000,-132.84431,-37.967003
2778000000,-133.89893,-38.567776
2779000000,-134.64139,-39.631092
2780000000,-135.60236,-40.297859
2781000000,-136.69397,-41.184395
2782000000,-137.49582,-42.036064
2783000000,-138.34996,-43.045719
2784000000,-139.37651,-43.558113
2785000000,-140.46298,-44.393829
2786000000,-141.31015,-45.254028
2787000000,-142.02661,-45.781116
2788000000,-143.11618,-46.76194
2789000000,-143.49011,-47.240059
2790000000,-144.39503,-47.98521
2791000000,-144.85759,-48.441906
2792000000,-146.06013,-49.565742
2793000000,-146.8141,-50.233318
2794000000,-147.43857,-50.809299
2795000000,-148.68878,-51.810307
2796000000,-149.25389,-52.363365
2797000000,-149.60703,-52.748104
2798000000,-150.65045,-53.616871
2799000000,-151.3831,-54.202736
2800000000,-151.5571,-54.528946
2801000000,-152.76987,-55.497326
2802000000,-153.34105,-56.035275
2803000000,-153.92877,-56.658566
2804000000,-154.58047,-57.195877
2805000000,-155.20689,-57.810928
2806000000,-156.07234,-58.551033
2807000000,-156.72731,-59.019855
2808000000,-157.34152,-59.608665
2809000000,-158.08051,-60.347931
2810000000,-158.39958,-60.6161
2811000000,-159.01735,-61.152199
2812000000,-159.58368,-61.699448
2813000000,-160.15543,-62.227688
2814000000,-160.86996,-62.940544
2815000000,-161.56166,-63.395748
2816000000,-162.03136,-63.864857
2817000000,-162.53192,-64.375923
2818000000,-163.1674,-64.975204
2819000000,-163.7361,-65.565826
2820000000,-164.24466,-65.946754
2821000000,-164.69957,-66.43586
2822000000,-165.29364,-66.942947
2823000000,-165.77403,-67.24073
2824000000,-166.39517,-67.751045
2825000000,-166.7618,-68.158615
2826000000,-167.54189,-68.824493
2827000000,-168.00087,-69.390419
2828000000,-168.41171,-69.891151
2829000000,-168.78214,-69.987129
2830000000,-169.52831,-70.602524
2831000000,-169.54153,-70.749626
2832000000,-170.36644,-71.541588
2833000000,-170.68008,-71.731964
2834000000,-170.88617,-72.057854
2835000000,-171.59486,-72.6203
2836000000,-172.09357,-73.131882
2837000000,-172.74673,-73.548111
2838000000,-172.9747,-73.915642
2839000000,-173.60976,-74.309143
2840000000,-173.7065,-74.489075
2841000000,-174.37073,-74.991112
2842000000,-174.79762,-75.324379
2843000000,-174.98819,-75.581886
2844000000,-175.62753,-76.138565
2845000000,-175.96352,-76.360909
2846000000,-176.31778,-76.881653
2847000000,-176.8687,-77.295601
2848000000,-177.09311,-77.522644
2849000000,-177.6839,-77.942863
2850000000,-177.92999,-78.240372
2851000000,-178.43571,-78.799057
2852000000,-178.50606,-78.804161
2853000000,-178.96053,-79.415878
2854000000,-179.68126,-79.752419
2855000000,179.96742,-80.120659
2856000000,179.73526,-80.350899
2857000000,179.36317,-80.564674
2858000000,178.86342,-81.102173
2859000000,178.66907,-81.241142
2860000000,178.26939,-81.409027
2861000000,178.11298,-81.843338
2862000000,177.43379,-82.37532
2863000000,177.20099,-82.493355
2864000000,176.86212,-82.879562
2865000000,176.41852,-83.482269
2866000000,176.15181,-83.392181
2867000000,175.93713,-83.567307
2868000000,175.53232,-84.087021
2869000000,175.37807,-84.291443
2870000000,174.9185,-84.61322
2871000000,174.48802,-84.939224
2872000000,174.38594,-85.228836
2873000000,173.92653,-85.089714
2874000000,173.69028,-85.716331
2875000000,173.19885,-86.216415
2876000000,172.90329,-86.523102
2877000000,172.70412,-86.395645
2878000000,172.36008,-86.826767
2879000000,171.85468,-87.079468
2880000000,171.78423,-87.452988
2881000000,171.53395,-87.440056
2882000000,171.21649,-87.932625
2883000000,170.83755,-88.084297
2884000000,170.61737,-88.23732
2885000000,170.43987,-88.305595
2886000000,170.21956,-88.584442
2887000000,169.67558,-88.987862
2888000000,169.46579,-89.095451
2889000000,169.20064,-89.165291
2890000000,168.91025,-89.796211
2891000000,168.65672,-90.092491
2892000000,168.2793,-90.219337
2893000000,168.11276,-90.209312
2894000000,167.94809,-90.434937
2895000000,167.55884,-90.612854
2896000000,167.12904,-91.022461
2897000000,166.75117,-91.304649
2898000000,166.60095,-91.56575
2899000000,166.28719,-91.528221
2900000000,165.9635,-92.270203
2901000000,165.81726,-92.407967
2902000000,165.53389,-92.403481
2903000000,165.02869,-92.808861
2904000000,165.08153,-92.716461
2905000000,164.72606,-92.872948
2906000000,164.44341,-93.091064
2907000000,164.14172,-93.647133
2908000000,163.99915,-93.732552
2909000000,163.56641,-94.040161
2910000000,163.38695,-94.336823
2911000000,163.28351,-94.527374
2912000000,163.10614,-94.328606
2913000000,163.01466,-94.833557
2914000000,162.48375,-95.041611
2915000000,162.20392,-94.803001
2916000000,161.90648,-95.407707
2917000000,161.80386,-95.226318
2918000000,161.43932,-95.578239
2919000000,161.28152,-95.781174
2920000000,161.13786,-95.787979
2921000000,161.00154,-95.994881
2922000000,160.91562,-96.296806
2923000000,160.23616,-96.527802
2924000000,160.21507,-96.331039
2925000000,160.19991,-96.598816
2926000000,159.54123,-97.353241
2927000000,159.54913,-97.459053
2928000000,159.19466,-97.096817
2929000000,158.70827,-97.656479
2930000000,158.82312,-97.573952
2931000000,158.64793,-97.817566
2932000000,158.42531,-97.852913
2933000000,158.09621,-98.078117
2934000000,158.01317,-98.415565
2935000000,157.81702,-98.15641
2936000000,157.60451,-98.455864
2937000000,157.35869,-98.56797
2938000000,156.96466,-98.709244
2939000000,156.91577,-99.125816
2940000000,156.48868,-98.97496
2941000000,156.43646,-99.141754
2942000000,156.12592,-99.079712
2943000000,155.98225,-99.268997
2944000000,155.85045,-99.635414
2945000000,155.38116,-99.410507
2946000000,155.25806,-100.12401
2947000000,155.21225,-99.859329
2948000000,154.9895,-100.4577
2949000000,154.76253,-100.18375
2950000000,154.41466,-100.64837
2951000000,154.14603,-100.39989
2952000000,154.29033,-100.46928
2953000000,153.84949,-100.35618
2954000000,153.51718,-100.9767
2955000000,153.50706,-101.08298
2956000000,153.31013,-101.21262
2957000000,153.14777,-101.3026
2958000000,152.77721,-101.74548
2959000000,152.70804,-101.55544
2960000000,152.64832,-101.57684
2961000000,152.44881,-101.44279
2962000000,152.22688,-101.15054
2963000000,152.12125,-101.3913
2964000000,151.77029,-101.35148
2965000000,151.74866,-101.32738
2966000000,151.24925,-101.83543
2967000000,151.23225,-102.09723
2968000000,150.92558,-101.64627
2969000000,151.02303,-101.97543
2970000000,150.62115,-102.2575
2971000000,150.54828,-102.45851
2972000000,150.25252,-102.40079
2973000000,150.07344,-102.17094
2974000000,149.87364,-101.76447
2975000000,149.64706,-102.29957
2976000000,149.69005,-102.4185
2977000000,149.37334,-102.42197
2978000000,149.0878,-102.7151
2979000000,148.97995,-102.75943
2980000000,148.79752,-102.8266
2981000000,148.6028,-102.18817
2982000000,148.34656,-103.2991
2983000000,148.16232,-102.78322
2984000000,148.04919,-102.69411
2985000000,147.81505,-103.21388
2986000000,147.52847,-103.74073
2987000000,147.53123,-102.60856
2988000000,147.35605,-102.68403
2989000000,147.00079,-103.67718
2990000000,147.00903,-102.78769
2991000000,146.86017,-102.9715
2992000000,146.76424,-104.09978
2993000000,146.51062,-103.26625
2994000000,146.20529,-103.76183
2995000000,145.83372,-103.34505
2996000000,146.05183,-102.94732
2997000000,145.70323,-103.10008
2998000000,145.42548,-104.55718
2999000000,145.41478,-103.65646
3000000000,145.3109,-103.63157
3001000000,145.11876,-103.952
3002000000,145.02364,-102.88553
3003000000,144.80469,-103.4529
3004000000,144.64136,-103.90523
3005000000,144.35965,-103.08888
3006000000,144.20158,-103.29439
3007000000,143.99895,-103.54356
3008000000,143.80411,-103.51573
3009000000,143.78755,-103.32763
3010000000,143.54018,-103.52888
3011000000,143.43275,-103.81942
3012000000,143.13658,-103.96265
3013000000,143.08504,-103.75943
3014000000,142.91249,-104.0561
3015000000,142.57089,-103.57129
3016000000,142.69714,-103.4202
3017000000,142.46625,-103.36375
3018000000,142.31255,-103.21216
3019000000,142.10983,-103.00083
3020000000,141.98923,-103.21868
3021000000,141.80466,-103.89732
3022000000,141.66791,-102.62744
3023000000,141.56891,-102.56327
3024000000,141.48967,-102.72517
3025000000,141.09908,-103.76911
3026000000,140.9095,-102.302
3027000000,141.00449,-104.10393
3028000000,140.65735,-103.05728
3029000000,140.4426,-102.90878
3030000000,140.19174,-103.91222
3031000000,140.15552,-102.38566
3032000000,139.97108,-103.33377
3033000000,139.78079,-103.85854
3034000000,139.61763,-102.38405
3035000000,139.46924,-101.45923
3036000000,139.35248,-102.53017
3037000000,139.45801,-102.95473
3038000000,138.94025,-101.42548
3039000000,138.89853,-102.56711
3040000000,138.8871,-102.13569
3041000000,138.67854,-101.96252
3042000000,138.48207,-102.43278
3043000000,138.37289,-101.49878
3044000000,137.9709,-102.24747
3045000000,138.0538,-100.86612
3046000000,137.78084,-101.49989
3047000000,137.78601,-103.15733
3048000000,137.51112,-101.9482
3049000000,137.36981,-101.29934
3050000000,137.38318,-101.75105
3051000000,137.04321,-100.65705
3052000000,137.00819,-102.99042
3053000000,136.67931,-100.5429
3054000000,136.61436,-101.88647
3055000000,136.681,-101.15338
3056000000,136.41159,-100.32507
3057000000,136.26207,-99.878525
3058000000,136.18759,-101.29279
3059000000,135.77133,-102.08164
3060000000,135.87019,-99.970474
3061000000,135.68236,-101.56569
3062000000,135.51884,-99.647964
3063000000,135.54799,-101.21774
3064000000,135.35347,-100.39401
3065000000,135.23152,-100.04037
3066000000,134.69736,-101.80924
3067000000,134.95746,-101.04713
3068000000,134.66406,-101.02042
3069000000,134.47726,-100.401
3070000000,134.08662,-100.06133
3071000000,134.13139,-100.84329
3072000000,133.97223,-99.596504
3073000000,134.11972,-99.987579
3074000000,134.01724,-100.03474
3075000000,133.57867,-99.835213
3076000000,133.60629,-99.437317
3077000000,133.28514,-99.4039
3078000000,133.21445,-100.39075
3079000000,132.94844,-98.482986
3080000000,132.90358,-100.75264
3081000000,132.85001,-99.18821
3082000000,132.77054,-98.485291
3083000000,132.14006,-99.048744
3084000000,132.20595,-98.83387
3085000000,132.15854,-99.487099
3086000000,132.13452,-98.304039
3087000000,132.05042,-98.316681
3088000000,131.939,-99.877922
3089000000,131.73761,-98.611641
3090000000,131.50418,-98.682053
3091000000,131.42043,-99.344604
3092000000,131.33203,-99.45578
3093000000,131.04071,-97.598549
3094000000,130.91403,-98.120102
3095000000,130.82475,-98.775192
3096000000,130.88077,-98.494987
3097000000,130.57855,-98.595161
3098000000,130.35345,-97.824028
3099000000,130.36626,-97.19635
3100000000,130.24146,-96.046051
3101000000,130.08421,-100.07305
3102000000,129.56062,-96.971115
3103000000,129.85991,-97.737282
3104000000,129.47058,-98.224953
3105000000,129.27296,-100.06734
3106000000,129.36185,-98.146652
3107000000,129.27661,-98.592239
3108000000,129.12665,-97.06089
3109000000,128.82645,-98.069061
3110000000,128.68431,-99.780342
3111000000,128.53946,-98.564522
3112000000,128.44794,-96.796799
3113000000,128.3661,-98.259491
3114000000,128.27374,-96.584671
3115000000,128.07124,-97.262901
3116000000,127.95324,-98.025978
3117000000,127.65536,-99.913994
3118000000,127.53335,-94.809158
3119000000,127.40633,-97.974991
3120000000,127.30667,-98.142593
3121000000,127.43889,-96.041382
3122000000,127.1498,-96.701965
3123000000,126.83667,-99.211555
3124000000,126.87592,-98.92598
3125000000,126.50072,-97.404701
3126000000,126.64634,-97.634178
3127000000,126.20392,-99.216736
3128000000,126.42872,-98.323532
3129000000,126.32061,-97.470261
3130000000,126.13275,-96.274948
3131000000,125.75855,-96.141632
3132000000,125.83919,-96.842033
3133000000,125.74993,-99.027405
3134000000,125.33681,-97.664871
3135000000,125.30749,-98.954636
3136000000,125.25983,-99.116364
3137000000,124.97926,-98.266968
3138000000,124.96935,-96.471741
3139000000,124.85365,-99.480316
3140000000,124.78532,-100.56364
3141000000,124.67384,-98.565002
3142000000,124.59802,-96.793259
3143000000,124.38545,-95.997528
3144000000,124.27995,-100.84321
3145000000,124.06128,-99.325394
3146000000,123.89115,-98.077812
3147000000,123.88465,-98.139397
3148000000,123.48315,-97.093201
3149000000,123.77053,-99.29409
3150000000,123.27841,-97.488533
3151000000,123.30912,-97.729568
3152000000,123.0731,-98.090744
3153000000,122.87077,-101.33926
3154000000,122.78366,-98.15593
3155000000,122.78675,-97.113144
3156000000,122.74779,-95.218796
3157000000,122.49261,-96.037758
3158000000,122.19669,-100.266
3159000000,122.3493,-96.546654
3160000000,122.25342,-96.670517
3161000000,121.81382,-95.362503
3162000000,121.83675,-98.847786
3163000000,121.72591,-97.530174
3164000000,121.53208,-96.657745
3165000000,121.61969,-97.643646
3166000000,121.41508,-95.75489
3167000000,121.26087,-95.550484
3168000000,120.96404,-100.13968
3169000000,120.87314,-98.020699
3170000000,120.74307,-96.489128
3171000000,120.79692,-97.300926
3172000000,120.76175,-99.119629
3173000000,120.48144,-97.915916
3174000000,120.22681,-97.085625
3175000000,120.42429,-98.217415
3176000000,119.94656,-103.30393
3177000000,119.88703,-100.48602
3178000000,120.05182,-101.05587
3179000000,119.70924,-101.5794
3180000000,119.40021,-97.876495
3181000000,119.58939,-99.698181
3182000000,119.21973,-97.531158
3183000000,119.03217,-103.24335
3184000000,119.08547,-100.76202
3185000000,118.93544,-106.44888
3186000000,118.87746,-98.775482
3187000000,118.84743,-98.416267
3188000000,118.54465,-98.519257
3189000000,118.45325,-100.62459
3190000000,118.29184,-100.54395
3191000000,118.22691,-101.86109
3192000000,117.99661,-100.86994
3193000000,117.6842,-100.69498
3194000000,117.8203,-101.53088
3195000000,117.65038,-101.85385
3196000000,117.5385,-104.97719
3197000000,117.37124,-101.66479
3198000000,117.41076,-101.8318
3199000000,117.28297,-101.02832
3200000000,117.08389,-102.34782
3201000000,116.89833,-103.99405
3202000000,116.90954,-99.171188
3203000000,116.51009,-106.36343
3204000000,116.45029,-106.13413
3205000000,116.3783,-103.81739
3206000000,116.15909,-104.28825
3207000000,116.17851,-103.80188
3208000000,115.90543,-101.29681
3209000000,115.92649,-102.98415
3210000000,115.87406,-103.66088
3211000000,115.66783,-102.48305
3212000000,115.53326,-102.9411
3213000000,115.40393,-103.76833
3214000000,115.46497,-105.66806
3215000000,115.31608,-102.22298
3216000000,114.98973,-101.93256
3217000000,115.12032,-101.37393
3218000000,114.79971,-104.55903
3219000000,114.85789,-100.90286
3220000000,114.63732,-102.23943
3221000000,114.33993,-104.17614
3222000000,114.36919,-98.96537
3223000000,114.10825,-106.04278
3224000000,113.98823,-104.88509
3225000000,114.0379,-103.21201
3226000000,113.90539,-104.40984
3227000000,113.80727,-101.43486
3228000000,113.56332,-102.24226
3229000000,113.60781,-105.39617
3230000000,113.5126,-107.42644
3231000000,113.35238,-104.97469
3232000000,113.10402,-107.18279
3233000000,112.94186,-104.874
3234000000,112.74219,-104.22537
3235000000,112.56919,-104.45818
3236000000,112.69907,-106.47678
3237000000,112.5687,-102.18656
3238000000,112.33405,-107.12747
3239000000,112.30794,-112.75465
3240000000,112.16936,-107.79025
3241000000,112.1392,-107.74523
3242000000,112.10519,-110.95447
3243000000,111.9312,-107.89034
3244000000,111.73518,-108.0998
3245000000,111.63979,-109.79616
3246000000,111.21124,-109.03912
3247000000,111.3787,-109.10415
3248000000,111.34998,-109.37962
3249000000,111.03024,-104.705
3250000000,110.7415,-105.19363
3251000000,110.97762,-105.48179
3252000000,110.75689,-102.81965
3253000000,110.68291,-102.82445
3254000000,110.57321,-104.76334
3255000000,110.3896,-102.84431
3256000000,110.26199,-108.58044
3257000000,110.04435,-105.28623
3258000000,109.92247,-102.98569
3259000000,109.86317,-105.39912
3260000000,109.68499,-102.04547
3261000000,109.68667,-102.46423
3262000000,109.62272,-105.82632
3263000000,109.20918,-105.54174
3264000000,109.35734,-105.42053
3265000000,109.2771,-102.08209
3266000000,109.12364,-112.35943
3267000000,108.69791,-100.44233
3268000000,108.93172,-109.99789
3269000000,108.59394,-106.80456
3270000000,108.68851,-102.46551
3271000000,108.42783,-99.175308
3272000000,108.34728,-113.80988
3273000000,108.13917,-108.38505
3274000000,108.03339,-108.1122
3275000000,107.85294,-106.75038
3276000000,107.87639,-110.47258
3277000000,107.66829,-106.28017
3278000000,107.52233,-110.3235
3279000000,107.61002,-105.89277
3280000000,107.24147,-109.86603
3281000000,107.1826,-102.05584
3282000000,107.33461,-108.59839
3283000000,106.97888,-105.40381
3284000000,106.91571,-112.99094
3285000000,106.92465,-105.59997
3286000000,106.36858,-107.29274
3287000000,106.60656,-106.2195
3288000000,106.47004,-108.49711
3289000000,106.0155,-109.73505
3290000000,106.09679,-108.19834
3291000000,106.00726,-106.38217
3292000000,105.70628,-109.94463
3293000000,105.66058,-108.50402
3294000000,105.83201,-107.17626
3295000000,105.56837,-104.49505
3296000000,105.29083,-104.55455
3297000000,105.32101,-109.27174
3298000000,105.2487,-109.1103
3299000000,105.03186,-106.95687
3300000000,104.93514,-109.1125
3301000000,104.80554,-102.65536
3302000000,104.87357,-110.96555
3303000000,104.53646,-106.77391
3304000000,104.50845,-108.77158
3305000000,104.2466,-99.386719
3306000000,104.20147,-102.24058
3307000000,104.18476,-104.41042
3308000000,104.25987,-102.60215
3309000000,104.00205,-104.40596
3310000000,103.63278,-103.80321
3311000000,103.74751,-102.75185
3312000000,103.47178,-104.47978
3313000000,103.35506,-107.10414
3314000000,103.12558,-103.72173
3315000000,103.09388,-103.16029
3316000000,103.11037,-104.60478
3317000000,102.80576,-107.74199
3318000000,102.75478,-105.76851
3319000000,102.60535,-106.34179
3320000000,102.50096,-107.01807
3321000000,102.38036,-105.09719
3322000000,102.40346,-105.077
3323000000,102.14175,-100.04419
3324000000,102.05869,-98.10038
3325000000,102.10329,-104.077
3326000000,101.68855,-106.14877
3327000000,101.56827,-108.28327
3328000000,101.78749,-100.39785
3329000000,101.51831,-104.17261
3330000000,101.31153,-99.053108
3331000000,101.26169,-105.82648
3332000000,101.02074,-100.64852
3333000000,101.06424,-107.81098
3334000000,100.96752,-101.68408
3335000000,100.83476,-107.90155
3336000000,100.50368,-109.28194
3337000000,100.46196,-106.1173
3338000000,100.48977,-102.96487
3339000000,100.24986,-105.07096
3340000000,100.13979,-107.2644
3341000000,100.09204,-103.67698
3342000000,99.976067,-105.93558
3343000000,99.747467,-108.95185
3344000000,99.750336,-110.73617
3345000000,99.554718,-107.91419
3346000000,99.352608,-108.09442
3347000000,99.191788,-111.80302
3348000000,99.420258,-108.90862
3349000000,98.956284,-104.47124
3350000000,98.915276,-107.53797
3351000000,98.889717,-111.46271
3352000000,98.776146,-108.03799
3353000000,98.474869,-108.5859
3354000000,98.346779,-106.71123
3355000000,98.378593,-106.97225
3356000000,98.10302,-104.44041
3357000000,98.090607,-106.88032
3358000000,97.828918,-106.19477
3359000000,97.766289,-109.3569
3360000000,97.687866,-110.1897
3361000000,97.606956,-104.96173
3362000000,97.41111,-111.09809
3363000000,97.442413,-111.68889
3364000000,97.414963,-109.8527
3365000000,97.135658,-108.75122
3366000000,97.304771,-111.82337
3367000000,96.791298,-113.66635
3368000000,96.876122,-110.78327
3369000000,96.601105,-113.96691
3370000000,96.613998,-114.47404
3371000000,96.524139,-110.55771
3372000000,96.433655,-113.40884
3373000000,96.215622,-113.77296
3374000000,96.018867,-117.04295
3375000000,96.0653,-118.19364
3376000000,95.786919,-118.28655
3377000000,95.776039,-115.17942
3378000000,95.754623,-115.81414
3379000000,95.661201,-111.94312
3380000000,95.162216,-120.2542
3381000000,95.070328,-113.17383
3382000000,95.138962,-115.2514
3383000000,94.779488,-114.80626
3384000000,94.968178,-114.46667
3385000000,94.666183,-114.30392
3386000000,94.489967,-116.10866
3387000000,94.40313,-112.17271
3388000000,94.378014,-113.16037
3389000000,94.422531,-118.82286
3390000000,93.906487,-117.66919
3391000000,94.035927,-117.64925
3392000000,93.89325,-119.81835
3393000000,93.72139,-119.03053
3394000000,93.581627,-120.92298
3395000000,93.469032,-122.98559
3396000000,93.371696,-120.82085
3397000000,93.220795,-121.03829
3398000000,93.041573,-123.25702
3399000000,93.003853,-119.83133
3400000000,92.916359,-126.46664
3401000000,92.781242,-121.60765
3402000000,92.644402,-122.40388
3403000000,92.52243,-123.86153
3404000000,92.325867,-128.06683
3405000000,92.378609,-124.80023
3406000000,92.178841,-123.23608
3407000000,91.882423,-125.5638
3408000000,92.046768,-128.70842
3409000000,91.934692,-128.28949
3410000000,91.595268,-130.05617
3411000000,91.575943,-129.71954
3412000000,91.365288,-126.93348
3413000000,91.126671,-127.23809
3414000000,91.123856,-127.69456
3415000000,91.065086,-130.03085
3416000000,90.951981,-127.73968
3417000000,90.767517,-126.87862
3418000000,90.914604,-134.10847
3419000000,90.658867,-131.43257
3420000000,90.405136,-133.27242
3421000000,90.386467,-135.18475
3422000000,90.222153,-132.68062
3423000000,90.316429,-134.71762
3424000000,90.217789,-132.90056
3425000000,89.884529,-133.79027
3426000000,89.732979,-135.58566
3427000000,89.634079,-131.96646
3428000000,89.54287,-134.69756
3429000000,89.369232,-137.6543
3430000000,89.224831,-132.55707
3431000000,88.969666,-139.44209
3432000000,89.11972,-141.21959
3433000000,88.885338,-139.65332
3434000000,88.831017,-138.55296
3435000000,88.606148,-139.74396
3436000000,88.435669,-139.20915
3437000000,88.318886,-143.5363
3438000000,88.075241,-141.17728
3439000000,88.09211,-142.41478
3440000000,87.904106,-142.65977
3441000000,87.843857,-142.2892
3442000000,87.756966,-143.85539
3443000000,87.539978,-143.24861
3444000000,87.671547,-148.269
3445000000,87.538948,-145.04222
3446000000,87.480438,-145.49225
3447000000,87.180817,-145.34618
3448000000,87.008026,-146.76262
3449000000,86.917648,-144.70335
3450000000,86.83744,-145.21198
3451000000,86.935394,-147.6492
3452000000,86.569466,-146.66115
3453000000,86.479263,-147.05687
3454000000,86.339798,-148.45116
3455000000,86.463264,-148.36674
3456000000,86.124756,-148.82648
3457000000,85.973717,-151.24113
3458000000,85.725311,-147.02953
3459000000,85.958382,-145.56288
3460000000,85.555038,-145.7326
3461000000,85.583511,-150.77858
3462000000,85.376518,-150.25266
3463000000,85.277115,-152.04053
3464000000,85.162766,-156.06433
3465000000,84.970665,-153.64409
3466000000,85.147751,-150.21059
3467000000,84.665337,-151.72337
3468000000,84.584412,-152.08757
3469000000,84.626801,-152.72414
3470000000,84.341743,-150.16138
3471000000,84.210556,-153.93814
3472000000,84.171333,-154.05708
3473000000,83.990738,-154.38606
3474000000,84.059135,-154.7243
3475000000,83.935562,-153.476
3476000000,83.637436,-153.57013
3477000000,83.54409,-157.7937
3478000000,83.368874,-157.15512
3479000000,83.275269,-159.20645
3480000000,83.20369,-158.19872
3481000000,83.190437,-158.99355
3482000000,82.928307,-158.47894
3483000000,82.819313,-158.58685
3484000000,82.504646,-156.16222
3485000000,82.629654,-159.12343
3486000000,82.413269,-159.96368
3487000000,82.418007,-159.66331
3488000000,82.208,-158.82822
3489000000,81.95491,-159.17523
3490000000,82.099449,-162.33719
3491000000,81.85186,-161.8582
3492000000,81.737877,-162.3721
3493000000,81.610329,-160.40308
3494000000,81.556419,-162.88258
3495000000,81.298317,-162.37798
3496000000,81.134872,-158.88162
3497000000,80.999939,-161.53816
3498000000,80.801407,-163.04774
3499000000,80.798782,-163.26718
3500000000,80.58271,-166.42551
3501000000,80.627625,-167.10275
3502000000,80.647835,-165.22321
3503000000,80.45768,-164.78433
3504000000,80.038376,-167.12733
3505000000,80.045967,-166.90402
3506000000,79.888023,-165.23935
3507000000,79.667542,-171.21071
3508000000,79.560875,-166.54247
3509000000,79.794762,-168.60309
3510000000,79.348991,-170.21281
3511000000,79.454758,-170.49458
3512000000,79.285889,-171.64587
3513000000,79.022224,-166.88199
3514000000,79.192955,-172.00069
3515000000,78.673645,-169.60205
3516000000,78.596947,-169.43694
3517000000,78.722527,-171.40448
3518000000,78.404198,-175.0356
3519000000,78.305534,-172.8717
3520000000,78.060638,-171.7298
3521000000,78.099014,-169.8849
3522000000,78.101875,-172.21948
3523000000,77.890785,-169.65128
3524000000,77.759804,-171.2466
3525000000,77.671555,-172.29306
3526000000,77.324234,-173.1629
3527000000,77.3853,-172.4024
3528000000,77.281181,-173.99057
3529000000,77.153984,-174.16487
3530000000,76.8806,-173.68123
3531000000,76.787819,-174.33214
3532000000,76.866432,-175.12556
3533000000,76.62072,-172.90805
3534000000,76.537498,-175.57246
3535000000,76.163109,-174.58714
3536000000,75.926003,-172.91324
3537000000,76.079033,-177.1516
3538000000,76.110512,-174.47351
3539000000,75.859558,-173.25862
3540000000,75.601173,-175.84026
3541000000,75.576958,-174.17122
3542000000,75.510185,-175.93106
3543000000,75.11438,-176.19466
3544000000,74.916924,-175.21364
3545000000,74.983688,-178.49915
3546000000,75.068825,179.34827
3547000000,74.876801,-176.28915
3548000000,75.024139,-176.97409
3549000000,74.612579,-179.21761
3550000000,74.431656,-179.01312
3551000000,74.498787,-177.93745
3552000000,73.844452,178.54906
3553000000,73.894539,176.60829
3554000000,73.660515,179.38881
3555000000,73.756172,175.88461
3556000000,73.700409,179.92101
3557000000,73.478722,177.07249
3558000000,73.556442,177.77335
3559000000,73.264519,175.59123
3560000000,73.122993,175.60878
3561000000,72.894699,174.25175
3562000000,72.982346,175.45052
3563000000,72.697441,171.69772
3564000000,72.552666,172.662
3565000000,72.2817,171.15019
3566000000,72.349411,170.74525
3567000000,72.236168,169.75688
3568000000,72.25872,171.74561
3569000000,71.792656,171.63292
3570000000,71.867317,171.50023
3571000000,71.695732,170.17531
3572000000,71.462852,170.91635
3573000000,71.370316,173.5121
3574000000,71.343285,172.9066
3575000000,71.073914,174.64931
3576000000,70.943855,171.9548
3577000000,70.921417,172.73676
3578000000,70.652794,176.48688
3579000000,70.53849,174.04646
3580000000,70.469391,175.95683
3581000000,70.162537,175.6138
3582000000,70.089157,173.84067
3583000000,69.980949,177.84531
3584000000,69.976105,178.73703
3585000000,69.814285,176.28517
3586000000,69.699097,175.98726
3587000000,69.450836,175.73166
3588000000,69.320709,179.45093
3589000000,69.512222,-178.87743
3590000000,68.904434,-179.6703
3591000000,69.193947,178.14363
3592000000,68.909691,177.22511
3593000000,68.572342,-178.60037
3594000000,68.541,178.35538
3595000000,68.457214,178.66699
3596000000,68.135994,176.81773
3597000000,68.196098,178.87187
3598000000,67.991852,176.44698
3599000000,67.840904,175.48058
3600000000,67.886185,177.68048
3601000000,67.690536,173.84605
3602000000,67.333221,175.7261
3603000000,67.230652,174.09129
3604000000,67.122498,176.95442
3605000000,67.184471,174.98351
3606000000,66.967499,174.27469
3607000000,66.857368,174.67746
3608000000,66.669754,176.20889
3609000000,66.678688,174.66138
3610000000,66.28904,176.24164
3611000000,66.345764,178.43161
3612000000,66.166191,178.02721
3613000000,66.004181,179.9182
3614000000,65.729355,179.24643
3615000000,65.675446,-179.08752
3616000000,65.537964,-176.61528
3617000000,65.465645,-177.51833
3618000000,65.220367,-175.44189
3619000000,65.113304,-172.05144
3620000000,64.828423,-172.8226
3621000000,64.713829,-171.94557
3622000000,64.686089,-169.80128
3623000000,64.465019,-171.86259
3624000000,64.244392,-168.767
3625000000,64.383705,-167.45132
3626000000,64.376472,-167.00983
3627000000,64.02417,-167.04399
3628000000,63.837238,-167.2765
3629000000,63.667362,-165.52728
3630000000,63.60376,-167.53862
3631000000,63.487797,-163.92455
3632000000,63.263474,-163.06404
3633000000,63.198513,-164.19771
3634000000,62.653332,-165.40704
3635000000,62.699566,-163.17468
3636000000,62.683228,-161.25226
3637000000,62.643513,-165.61636
3638000000,62.364223,-163.64055
3639000000,62.323208,-165.26068
3640000000,62.219009,-162.67322
3641000000,62.05302,-164.99091
3642000000,61.718117,-163.49402
3643000000,61.649582,-163.82181
3644000000,61.510292,-164.57426
3645000000,61.413406,-162.33435
3646000000,61.328495,-162.48587
3647000000,61.280376,-158.64661
3648000000,61.075054,-161.75891
3649000000,60.934551,-160.15065
3650000000,60.710239,-157.8838
3651000000,60.460064,-158.13892
3652000000,60.252831,-158.28496
3653000000,60.370785,-156.35196
3654000000,60.01149,-154.33366
3655000000,59.677418,-155.20062
3656000000,59.692734,-154.18277
3657000000,59.527546,-156.53429
3658000000,59.418922,-151.25537
3659000000,59.596844,-153.0894
3660000000,59.269554,-153.67735
3661000000,59.012062,-150.84821
3662000000,58.988152,-150.82913
3663000000,58.678886,-149.88881
3664000000,58.691742,-148.91125
3665000000,58.241535,-149.33986
3666000000,58.217991,-151.01462
3667000000,58.09502,-150.4509
3668000000,57.923534,-148.54396
3669000000,57.62302,-149.56125
3670000000,58.025837,-148.92715
3671000000,57.551884,-148.76964
3672000000,57.555874,-147.72594
3673000000,57.398499,-147.7778
3674000000,57.048042,-146.29269
3675000000,56.961575,-148.24622
3676000000,56.965221,-147.03967
3677000000,56.397518,-147.59424
3678000000,56.573536,-146.22748
3679000000,56.439102,-145.93475
3680000000,56.370319,-146.24335
3681000000,56.091442,-145.86725
3682000000,56.086678,-145.58398
3683000000,55.698086,-146.71869
3684000000,55.655182,-146.46529
3685000000,55.378941,-146.44041
3686000000,55.462017,-146.62245
3687000000,55.283386,-145.6769
3688000000,55.043964,-145.66101
3689000000,55.047966,-144.80995
3690000000,54.803062,-144.86777
3691000000,54.615673,-144.7998
3692000000,54.279945,-144.85083
3693000000,54.427147,-142.83252
3694000000,54.016888,-142.99432
3695000000,53.897831,-143.16748
3696000000,53.644253,-141.53572
3697000000,53.451408,-140.83046
3698000000,53.271839,-139.11877
3699000000,53.334045,-140.30751
3700000000,53.290096,-139.67278
3701000000,53.068851,-140.10487
3702000000,53.167007,-139.08165
3703000000,52.633621,-140.59431
3704000000,52.506149,-139.98245
3705000000,52.599197,-140.66652
3706000000,52.135124,-140.18976
3707000000,52.066334,-140.89496
3708000000,52.129265,-140.4377
3709000000,51.79808,-141.1671
3710000000,51.686775,-140.50526
3711000000,51.32692,-140.87949
3712000000,51.307781,-140.72891
3713000000,51.127556,-141.0647
3714000000,50.886147,-140.88988
3715000000,50.725739,-140.55939
3716000000,50.705547,-141.5704
3717000000,50.305988,-141.44601
3718000000,50.387039,-141.10275
3719000000,50.008175,-142.44893
3720000000,49.98069,-142.37529
3721000000,49.835201,-142.7995
3722000000,49.516769,-143.09525
3723000000,49.674225,-143.66112
3724000000,49.249901,-143.54172
3725000000,48.702698,-143.98996
3726000000,49.056591,-143.34998
3727000000,48.945831,-144.00273
3728000000,48.449638,-144.17516
3729000000,48.405483,-144.51703
3730000000,48.408527,-144.03648
3731000000,48.287399,-144.15506
3732000000,48.10474,-144.18498
3733000000,47.868576,-143.64182
3734000000,47.661121,-143.81026
3735000000,47.485432,-143.78473
3736000000,47.361259,-143.26418
3737000000,47.089153,-143.73166
3738000000,46.979874,-143.10365
3739000000,46.841026,-143.15549
3740000000,46.589989,-143.48619
3741000000,46.261482,-143.22049
3742000000,46.203667,-143.26395
3743000000,46.147099,-143.4753
3744000000,45.984631,-143.60928
3745000000,45.569954,-143.99731
3746000000,45.243179,-144.38942
3747000000,45.343845,-144.40497
3748000000,45.240601,-144.70906
3749000000,44.810966,-145.23657
3750000000,44.461987,-145.51018
3751000000,44.631134,-145.73698
3752000000,44.501022,-145.87769
3753000000,44.365475,-146.19371
3754000000,44.168938,-146.39958
3755000000,43.967632,-147.03609
3756000000,43.603996,-147.65631
3757000000,43.409084,-147.50182
3758000000,43.28685,-147.60742
3759000000,43.152699,-148.34372
3760000000,43.009846,-148.8326
3761000000,42.869171,-148.80666
3762000000,42.52174,-149.46608
3763000000,42.338226,-149.43008
3764000000,42.27813,-149.61458
3765000000,42.112789,-149.77759
3766000000,42.019722,-150.15195
3767000000,41.632946,-150.43137
3768000000,41.314133,-150.76471
3769000000,41.219986,-150.82121
3770000000,41.074383,-151.01607
3771000000,40.807091,-151.34207
3772000000,40.928814,-151.39088
3773000000,40.455376,-151.92441
3774000000,40.263474,-151.86526
3775000000,40.02969,-151.968
3776000000,39.965225,-152.29918
3777000000,39.634941,-152.44656
3778000000,39.66856,-152.32309
3779000000,39.303219,-152.8949
3780000000,39.190651,-153.54877
3781000000,38.860859,-153.71407
3782000000,38.92123,-153.97552
3783000000,38.731628,-154.33749
3784000000,38.512432,-154.55424
3785000000,38.231979,-155.21367
3786000000,37.972927,-155.17134
3787000000,37.830208,-155.69421
3788000000,37.532768,-156.37505
3789000000,37.768055,-156.47539
3790000000,37.139423,-157.12358
3791000000,37.039204,-157.70314
3792000000,36.885174,-158.02267
3793000000,36.896488,-158.35771
3794000000,36.469543,-159.14069
3795000000,36.536945,-159.47066
3796000000,36.091099,-160.0313
3797000000,36.033478,-160.74944
3798000000,35.713367,-161.105
3799000000,35.698437,-161.42416
3800000000,35.391407,-162.08235
3801000000,35.322639,-162.55573
3802000000,35.411995,-163.06865
3803000000,34.939716,-163.26195
3804000000,34.729065,-163.867
3805000000,34.674652,-164.33954
3806000000,34.404331,-164.69034
3807000000,33.931835,-165.30884
3808000000,34.05547,-165.46536
3809000000,33.949116,-165.96748
3810000000,33.631416,-166.31384
3811000000,33.180828,-166.63077
3812000000,33.151428,-167.16467
3813000000,33.151142,-167.37411
3814000000,32.609642,-167.76637
3815000000,32.699482,-168.1017
3816000000,32.509876,-168.8132
3817000000,32.427364,-168.84634
3818000000,32.096729,-169.58472
3819000000,31.846745,-170.12523
3820000000,31.783562,-170.55789
3821000000,31.393745,-171.22136
3822000000,31.428135,-171.4939
3823000000,31.124722,-172.23138
3824000000,30.89031,-172.86191
3825000000,30.998446,-173.28644
3826000000,30.510466,-174.02956
3827000000,30.665543,-174.29674
3828000000,30.425098,-175.04422
3829000000,30.41571,-175.41835
3830000000,30.009478,-176.49837
3831000000,30.031822,-176.70682
3832000000,29.74378,-177.48732
3833000000,29.582413,-177.8609
3834000000,29.5987,-178.5273
3835000000,29.240116,-179.29947
3836000000,28.938299,179.9903
3837000000,29.066431,179.30206
3838000000,28.747721,178.91934
3839000000,28.663145,178.22539
3840000000,28.660044,177.65793
3841000000,28.436258,177.19376
3842000000,28.313234,176.3479
3843000000,28.261484,175.82585
3844000000,28.223072,175.42773
3845000000,27.920055,174.57455
3846000000,27.955265,174.04239
3847000000,27.852211,173.4509
3848000000,27.676657,172.55487
3849000000,27.636209,172.06851
3850000000,27.335882,171.20076
3851000000,27.549561,170.61147
3852000000,27.1175,169.85461
3853000000,27.400833,169.31963
3854000000,26.951252,168.38396
3855000000,27.007448,167.91486
3856000000,27.090357,167.45726
3857000000,26.85527,166.48639
3858000000,26.79635,165.715
3859000000,26.578644,164.91832
3860000000,26.667582,164.2509
3861000000,26.880087,163.61246
3862000000,26.736448,162.62509
3863000000,26.635056,161.99916
3864000000,26.699287,161.18973
3865000000,26.729664,160.45744
3866000000,26.697168,159.67552
3867000000,26.694506,158.85492
3868000000,26.63357,158.07037
3869000000,26.58465,157.34215
3870000000,27.146749,156.71805
3871000000,26.697027,155.62151
3872000000,26.765486,154.90985
3873000000,27.021078,154.29359
3874000000,26.714256,153.33569
3875000000,26.696762,152.45682
3876000000,27.217623,152.21873
3877000000,26.956842,150.97198
3878000000,26.742943,150.14061
3879000000,26.887381,149.56805
3880000000,26.907696,148.71501
3881000000,26.988943,147.89279
3882000000,27.136091,147.21165
3883000000,27.375095,146.36908
3884000000,27.36982,145.38707
3885000000,27.532497,144.72523
3886000000,27.520555,143.90051
3887000000,27.769354,143.03851
3888000000,27.93261,142.27306
3889000000,27.9594,141.36264
3890000000,28.423826,140.70897
3891000000,28.263485,139.7448
3892000000,28.538422,138.9198
3893000000,28.500744,138.01416
3894000000,28.731932,137.1347
3895000000,28.903248,136.44461
3896000000,29.133772,135.48293
3897000000,29.452005,134.8737
3898000000,29.055204,133.70215
3899000000,29.675529,132.99121
3900000000,29.985996,132.26511
3901000000,29.812321,131.25456
3902000000,29.98715,130.43985
3903000000,30.002419,129.54498
3904000000,30.334297,128.90071
3905000000,29.966619,127.62682
3906000000,30.673018,127.21434
3907000000,30.478392,126.15992
3908000000,30.773376,125.62482
3909000000,30.914581,124.4621
3910000000,31.173742,123.56949
3911000000,30.954924,122.75497
3912000000,31.415943,122.09067
3913000000,31.443333,121.08189
3914000000,31.552797,120.20959
3915000000,31.617004,119.48662
3916000000,31.786404,118.63156
3917000000,32.289288,118.03452
3918000000,31.845427,116.95743
3919000000,32.155502,116.17081
3920000000,32.42083,115.49552
3921000000,32.689526,114.85589
3922000000,32.462563,113.92224
3923000000,32.6064,113.11364
3924000000,32.868385,112.51206
3925000000,32.414528,111.19366
3926000000,32.760128,110.5313
3927000000,33.067814,109.8331
3928000000,32.983391,109.05259
3929000000,33.215084,108.30311
3930000000,33.297081,107.45911
3931000000,33.311642,106.47515
3932000000,33.17947,105.60828
3933000000,33.265171,104.93935
3934000000,33.309448,104.25355
3935000000,33.808376,103.64361
3936000000,33.562523,102.63831
3937000000,33.723091,101.74741
3938000000,33.59383,101.04305
3939000000,33.709583,100.23038
3940000000,33.664928,99.523026
3941000000,34.015392,98.716278
3942000000,33.752258,97.648689
3943000000,33.673439,97.157097
3944000000,33.967999,96.327644
3945000000,33.817516,95.583832
3946000000,34.235416,94.922859
3947000000,34.241844,94.091194
3948000000,34.161518,93.078804
3949000000,34.244335,92.785271
3950000000,33.875454,91.691002
3951000000,33.982685,91.030884
3952000000,34.30357,90.256516
3953000000,34.171097,89.589127
3954000000,34.243141,88.70327
3955000000,34.332767,88.165855
3956000000,34.135593,87.193939
3957000000,34.121296,86.510193
3958000000,34.061447,85.789505
3959000000,34.328541,85.107262
3960000000,34.267162,84.173126
3961000000,34.208462,83.536499
3962000000,34.313999,83.015259
3963000000,34.110348,82.344872
3964000000,34.28582,81.508568
3965000000,34.445892,80.853043
3966000000,34.24921,79.846252
3967000000,34.399849,79.27887
3968000000,34.231976,78.403534
3969000000,34.295502,77.80735
3970000000,34.126503,76.95256
3971000000,34.460602,76.368225
3972000000,34.422886,75.705193
3973000000,34.493176,74.981903
3974000000,34.382088,74.097252
3975000000,34.300339,73.428459
3976000000,34.663208,72.950073
3977000000,34.523373,72.076981
3978000000,34.493919,71.334343
3979000000,34.565445,70.707169
3980000000,34.393909,69.945305
3981000000,34.228493,69.200661
3982000000,34.322731,68.447884
3983000000,34.332169,67.69236
3984000000,34.394791,67.284325
3985000000,34.497578,66.592583
3986000000,34.596798,65.841331
3987000000,34.093586,64.935356
3988000000,34.208729,64.269844
3989000000,34.28511,63.583221
3990000000,34.387188,62.750637
3991000000,34.320568,62.27673
3992000000,34.472351,61.64624
3993000000,34.548676,60.846947
3994000000,34.39566,59.988434
3995000000,34.523277,59.194496
3996000000,34.712555,58.95155
3997000000,34.625038,57.952824
3998000000,34.499825,57.265011
3999000000,34.567268,56.690472
4000000000,34.702927,56.022102
4001000000,34.588753,55.307743
4002000000,34.771019,54.573753
4003000000,34.920887,54.056698
4004000000,34.758919,53.154903
4005000000,34.961517,52.640335
4006000000,34.843597,51.787525
4007000000,35.130714,51.43103
4008000000,35.139763,50.690685
4009000000,35.138695,49.860363
4010000000,35.35614,49.178345
4011000000,35.205486,48.565376
4012000000,35.291443,47.801655
4013000000,35.39529,47.193401
4014000000,35.736889,46.565716
4015000000,35.385376,45.867588
4016000000,35.707485,45.130276
4017000000,35.854214,44.533154
4018000000,36.033035,44.062435
4019000000,35.704014,43.195377
4020000000,35.673729,42.550533
4021000000,35.947517,41.909176
4022000000,35.963753,41.197639
4023000000,36.032173,40.704689
4024000000,36.295177,40.013195
4025000000,35.992325,39.186604
4026000000,36.383797,38.675247
4027000000,36.523499,38.043125
4028000000,36.704498,37.386265
4029000000,36.589775,36.671177
4030000000,36.601997,35.90826
4031000000,36.93964,35.464138
4032000000,37.007866,34.982838
4033000000,36.919254,34.120499
4034000000,37.17907,33.641315
4035000000,37.265697,32.965919
4036000000,37.288044,32.178844
4037000000,37.190586,31.593283
4038000000,37.160568,30.558834
4039000000,37.573914,30.11652
4040000000,37.58849,29.544987
4041000000,37.464901,28.892298
4042000000,38.146778,28.494354
4043000000,37.926575,27.678282
4044000000,37.994053,27.010958
4045000000,38.13126,26.404146
4046000000,38.0961,25.726389
4047000000,38.158398,25.040308
4048000000,38.418621,24.639729
4049000000,38.620659,24.003407
4050000000,38.67046,23.43149
4051000000,38.510052,22.603577
4052000000,38.77837,22.099129
4053000000,38.750481,21.308205
4054000000,38.711876,20.711452
4055000000,38.806587,20.069809
4056000000,39.094563,19.584782
4057000000,39.164215,18.891886
4058000000,39.226357,18.347183
4059000000,39.396431,17.770893
4060000000,39.337963,17.073757
4061000000,39.423008,16.565495
4062000000,39.420937,15.898268
4063000000,39.578201,15.236494
4064000000,39.457237,14.546949
4065000000,39.798073,14.153922
4066000000,39.657284,13.314887
4067000000,39.825748,12.923309
4068000000,39.772335,12.314447
4069000000,40.038055,11.599573
4070000000,40.010921,11.036912
4071000000,39.728519,10.325423
4072000000,40.086342,9.8530827
4073000000,40.124859,9.3184719
4074000000,40.182224,8.735383
4075000000,40.068569,8.0148239
4076000000,40.327183,7.6432352
4077000000,40.074978,6.9112501
4078000000,40.288315,6.4477592
4079000000,40.436157,5.9904981
4080000000,40.015266,5.0516043
4081000000,40.267559,4.5392709
4082000000,40.290089,4.1199245
4083000000,40.139771,3.41366
4084000000,40.465355,2.900707
4085000000,40.362888,2.4403565
4086000000,40.53717,2.1388383
4087000000,40.446648,1.3864291
4088000000,40.447647,0.92834246
4089000000,40.414551,0.28531748
4090000000,40.374142,-0.25916579
4091000000,40.511551,-0.83361363
4092000000,40.598587,-1.3573983
4093000000,40.683846,-1.7298961
4094000000,40.392986,-2.4871638
4095000000,40.511753,-2.8510988
4096000000,40.561615,-3.5243762
4097000000,40.400215,-4.017303
4098000000,40.432949,-4.5471411
4099000000,40.189972,-5.2779202
4100000000,40.350529,-5.7434788
4101000000,40.242027,-6.2458463
4102000000,40.11396,-6.890985
4103000000,40.135296,-7.3112788
4104000000,40.230621,-7.844573
4105000000,40.234753,-8.4125414
4106000000,40.000683,-8.9486456
4107000000,39.837002,-9.5290756
4108000000,39.845463,-9.975894
4109000000,39.948624,-10.361573
4110000000,40.182499,-10.611047
4111000000,39.938946,-11.465093
4112000000,39.670605,-12.04659
4113000000,39.753643,-12.385926
4114000000,39.695904,-13.040147
4115000000,39.628357,-13.495001
4116000000,39.550896,-13.910874
4117000000,39.719841,-14.444375
4118000000,39.216461,-15.057886
4119000000,39.490051,-15.213018
4120000000,39.193424,-15.983254
4121000000,38.972443,-16.481058
4122000000,38.9944,-16.887077
4123000000,39.116188,-17.301481
4124000000,39.088951,-17.757837
4125000000,38.973579,-18.200068
4126000000,38.663445,-18.959551
4127000000,38.563461,-19.410585
4128000000,38.734558,-19.720062
4129000000,38.195988,-20.515745
4130000000,38.591312,-20.490486
4131000000,38.387791,-21.153803
4132000000,38.149582,-21.892975
4133000000,38.191605,-22.015629
4134000000,38.179882,-22.594543
4135000000,37.893021,-23.077417
4136000000,37.83934,-23.506752
4137000000,37.602077,-23.950157
4138000000,37.390175,-24.570185
4139000000,37.329407,-24.952648
4140000000,37.600876,-25.241701
4141000000,37.316364,-25.646378
4142000000,37.045219,-26.188292
4143000000,37.164024,-26.550213
4144000000,37.133999,-27.107117
4145000000,36.665234,-27.598204
4146000000,36.600582,-27.993778
4147000000,36.550503,-28.385317
4148000000,36.598564,-28.745115
4149000000,36.272427,-29.303841
4150000000,36.145855,-29.875158
4151000000,36.007481,-30.196451
4152000000,36.111629,-30.439207
4153000000,35.757523,-31.01053
4154000000,35.567181,-31.469521
4155000000,35.29541,-32.094505
4156000000,35.022636,-32.555511
4157000000,35.084377,-32.727554
4158000000,35.055767,-33.125957
4159000000,34.908695,-33.623634
4160000000,34.985577,-33.762321
4161000000,34.620724,-34.310154
4162000000,34.578213,-34.879036
4163000000,34.540192,-35.07
4164000000,34.499481,-35.449524
4165000000,34.085472,-36.043499
4166000000,33.84552,-36.240948
4167000000,33.787598,-36.660683
4168000000,33.657936,-37.253345
4169000000,33.58514,-37.472366
4170000000,33.318737,-37.937241
4171000000,33.275349,-38.373474
4172000000,33.122814,-38.66436
4173000000,32.995319,-39.131771
4174000000,33.101406,-39.226627
4175000000,32.602234,-39.918247
4176000000,32.436001,-40.232384
4177000000,32.428162,-40.657249
4178000000,32.231705,-41.0326
4179000000,31.846132,-41.459637
4180000000,32.117275,-41.748253
4181000000,31.4676,-42.320896
4182000000,31.673948,-42.537491
4183000000,31.393927,-42.83577
4184000000,31.530001,-43.128464
4185000000,31.215864,-43.644936
4186000000,31.139519,-44.030697
4187000000,30.790913,-44.469627
4188000000,30.647659,-44.821262
4189000000,30.565733,-45.081314
4190000000,30.288204,-45.597942
4191000000,30.333649,-45.998417
4192000000,30.086119,-46.172874
4193000000,29.973534,-46.729683
4194000000,29.693995,-47.121037
4195000000,29.677551,-47.376961
4196000000,29.272245,-47.594769
4197000000,29.271486,-48.120388
4198000000,29.30835,-48.08733
4199000000,29.026184,-48.591415
4200000000,29.035561,-48.98138
4201000000,28.421345,-49.589447
4202000000,28.495562,-49.714863
4203000000,28.393122,-50.09655
4204000000,28.29987,-50.558418
4205000000,27.880484,-50.89082
4206000000,28.042135,-51.044304
4207000000,27.763973,-51.446163
4208000000,27.589842,-51.841965
4209000000,27.449963,-52.167625
4210000000,27.206352,-52.560993
4211000000,27.308224,-52.637291
4212000000,27.085941,-53.194523
4213000000,26.680408,-53.4967
4214000000,26.634752,-53.746178
4215000000,26.292337,-54.204121
4216000000,26.214579,-54.724236
4217000000,26.075899,-55.049591
4218000000,26.09338,-55.254566
4219000000,26.035824,-55.447987
4220000000,25.650629,-55.857483
4221000000,25.524752,-56.104053
4222000000,25.460424,-56.436535
4223000000,25.151707,-56.843868
4224000000,25.050995,-57.090599
4225000000,24.912233,-57.455082
4226000000,24.793957,-57.785271
4227000000,24.534346,-58.079723
4228000000,24.237797,-58.516006
4229000000,24.238203,-58.750767
4230000000,24.099855,-59.02433
4231000000,24.102579,-59.325378
4232000000,23.784168,-59.784721
4233000000,23.367941,-60.206287
4234000000,23.319597,-60.429192
4235000000,23.412836,-60.629765
4236000000,23.039288,-61.003643
4237000000,22.839945,-61.269695
4238000000,22.87355,-61.605515
4239000000,22.637743,-61.948505
4240000000,22.49361,-62.324753
4241000000,22.087063,-62.763416
4242000000,22.110273,-63.030415
4243000000,21.983263,-63.226261
4244000000,21.77084,-63.38826
4245000000,21.563368,-63.78196
4246000000,21.56418,-63.9977
4247000000,21.462709,-64.370209
4248000000,20.778849,-65.040787
4249000000,20.995905,-65.060226
4250000000,20.536507,-65.480896
4251000000,20.57019,-65.66214
4252000000,20.203257,-65.936684
4253000000,20.349924,-66.140083
4254000000,20.038677,-66.42704
4255000000,19.867502,-66.838654
4256000000,19.697975,-67.331627
4257000000,19.4298,-67.54702
4258000000,19.569704,-67.640327
4259000000,19.230413,-67.895302
4260000000,19.193409,-68.363289
4261000000,18.68878,-68.572159
4262000000,18.562593,-68.868317
4263000000,18.548594,-69.142586
4264000000,18.630753,-69.257561
4265000000,18.217213,-69.730164
4266000000,18.364923,-69.763351
4267000000,17.863987,-70.348999
4268000000,17.571228,-70.638596
4269000000,17.448215,-70.884506
4270000000,17.385904,-71.124794
4271000000,17.213818,-71.435562
4272000000,16.959612,-71.761887
4273000000,16.989334,-71.799721
4274000000,16.651468,-72.285934
4275000000,16.608271,-72.490852
4276000000,16.604355,-72.761101
4277000000,16.186962,-73.283859
4278000000,16.15823,-73.292953
4279000000,16.074677,-73.538971
4280000000,15.649549,-74.014656
4281000000,15.50114,-74.209923
4282000000,15.465917,-74.586456
4283000000,15.098081,-74.916916
4284000000,15.112249,-74.993347
4285000000,14.998621,-75.303871
4286000000,14.595527,-75.795021
4287000000,14.691623,-75.724953
4288000000,14.482793,-76.186028
4289000000,14.230575,-76.514542
4290000000,13.905235,-76.869713
4291000000,13.994824,-76.869545
4292000000,13.56372,-77.448067
4293000000,13.625858,-77.499062
4294000000,13.417297,-77.693634
4295000000,13.375137,-77.837547
4296000000,13.042419,-78.344666
4297000000,12.945981,-78.687073
4298000000,12.797553,-78.870667
4299000000,12.595896,-79.26149
4300000000,12.377376,-79.387291
4301000000,12.158815,-79.867325
4302000000,12.130332,-79.715004
4303000000,11.936468,-80.198883
4304000000,11.811736,-80.349998
4305000000,11.491097,-80.763458
4306000000,11.200938,-81.150002
4307000000,11.20682,-81.149597
4308000000,11.105393,-81.450729
4309000000,10.804314,-81.842972
4310000000,10.590578,-82.098991
4311000000,10.467252,-82.319374
4312000000,10.417796,-82.528374
4313000000,10.136448,-82.940788
4314000000,9.7463474,-83.067802
4315000000,9.7578001,-83.307961
4316000000,9.5704927,-83.642632
4317000000,9.397006,-84.105499
4318000000,9.4014673,-84.188904
4319000000,9.0641098,-84.66024
4320000000,9.0536633,-84.828201
4321000000,8.7608356,-85.220589
4322000000,8.634532,-85.425621
4323000000,8.522418,-85.579414
4324000000,8.3705807,-85.795006
4325000000,8.0675697,-86.110321
4326000000,7.9120231,-86.402977
4327000000,7.8024144,-86.783478
4328000000,7.7760715,-86.77298
4329000000,7.4565501,-87.167931
4330000000,7.3700199,-87.333099
4331000000,7.2294993,-87.409569
4332000000,7.0811386,-87.783112
4333000000,6.9723902,-88.03479
4334000000,6.5881414,-88.529228
4335000000,6.589067,-88.434464
4336000000,6.3147101,-88.943924
4337000000,6.2570996,-89.062714
4338000000,5.8785038,-89.454201
4339000000,5.8080549,-89.607918
4340000000,5.5785456,-90.027191
4341000000,5.4783053,-90.156441
4342000000,5.349587,-90.287621
4343000000,5.1408491,-90.753639
4344000000,4.8669972,-90.980583
4345000000,4.6348376,-91.290703
4346000000,4.5674777,-91.509956
4347000000,4.3302569,-91.709251
4348000000,4.1398339,-92.024529
4349000000,4.3524194,-91.995369
4350000000,4.0359459,-92.45929
4351000000,3.7049837,-92.864021
4352000000,3.6648948,-93.041809
4353000000,3.3118982,-93.292961
4354000000,3.2321537,-93.726494
4355000000,3.0873077,-93.719154
4356000000,2.9825194,-93.99514
4357000000,2.6075053,-94.356812
4358000000,2.5503304,-94.63073
4359000000,2.4497619,-94.885544
4360000000,2.4094923,-95.020462
4361000000,2.0683167,-95.271103
4362000000,1.8919246,-95.676796
4363000000,1.8363338,-95.603058
4364000000,1.5438056,-95.85498
4365000000,1.3911409,-96.266556
4366000000,1.0967607,-96.871346
4367000000,0.8811878,-96.926285
4368000000,0.78382027,-97.112274
4369000000,0.56011748,-97.331985
4370000000,0.40726447,-97.658844
4371000000,0.40746799,-97.800949
4372000000,-0.079241447,-98.21669
4373000000,-0.12991638,-98.50589
4374000000,-0.46672034,-98.855202
4375000000,-0.32934609,-98.737396
4376000000,-0.637052,-99.164284
4377000000,-0.75621206,-99.33062
4378000000,-1.0421196,-99.685684
4379000000,-1.2628095,-99.993652
4380000000,-1.0406404,-99.786407
4381000000,-1.522871,-100.63361
4382000000,-1.6316572,-100.61067
4383000000,-2.0161726,-101.03326
4384000000,-1.9844859,-101.09129
4385000000,-2.1862199,-101.54431
4386000000,-2.1662381,-101.48133
4387000000,-2.5266309,-101.96738
4388000000,-2.4849484,-101.86034
4389000000,-2.9202557,-102.45313
4390000000,-3.2514412,-102.694
4391000000,-3.3235085,-102.96485
4392000000,-3.745718,-103.35987
4393000000,-3.5216227,-103.43397
4394000000,-3.8300636,-103.63486
4395000000,-4.0055728,-103.90981
4396000000,-4.2015228,-104.43185
4397000000,-4.3589454,-104.40187
4398000000,-4.6232553,-105.00731
4399000000,-4.7876244,-104.966
4400000000,-4.9239464,-105.29735
4401000000,-5.066,-105.66071
4402000000,-5.2770734,-105.93265
4403000000,-5.3368444,-106.06454
4404000000,-5.5182614,-106.29659
4405000000,-5.608613,-106.48299
4406000000,-5.9462948,-106.89259
4407000000,-6.0727706,-107.11266
4408000000,-6.1605735,-107.27874
4409000000,-6.4546418,-107.63168
4410000000,-6.7267432,-107.91883
4411000000,-6.7795038,-108.05643
4412000000,-6.9827833,-108.43658
4413000000,-7.1683879,-108.48423
4414000000,-7.4964194,-108.88678
4415000000,-7.7422814,-109.24448
4416000000,-7.6084247,-109.39618
4417000000,-7.8521657,-109.68921
4418000000,-8.1517668,-109.92775
4419000000,-8.2935734,-110.19259
4420000000,-8.553216,-110.26482
4421000000,-8.7342854,-110.65613
4422000000,-8.9199228,-111.00265
4423000000,-8.9419117,-111.29056
4424000000,-9.0687313,-111.41181
4425000000,-9.2831078,-111.56074
4426000000,-9.4191666,-111.96146
4427000000,-9.58881,-112.13757
4428000000,-9.8256369,-112.33212
4429000000,-9.9855356,-112.75134
4430000000,-10.345181,-113.22844
4431000000,-10.282855,-113.15411
4432000000,-10.686982,-113.57205
4433000000,-10.711817,-113.70754
4434000000,-11.088189,-114.11688
4435000000,-11.071112,-114.26057
4436000000,-11.255339,-114.61193
4437000000,-11.490056,-114.79208
4438000000,-11.566924,-114.99607
4439000000,-11.734394,-115.33727
4440000000,-12.232004,-115.56074
4441000000,-12.238221,-115.96319
4442000000,-12.212827,-116.04434
4443000000,-12.427976,-116.31667
4444000000,-12.581248,-116.53049
4445000000,-12.889009,-116.92473
4446000000,-13.097131,-117.16222
4447000000,-13.099124,-117.45613
4448000000,-13.234553,-117.59597
4449000000,-13.696432,-118.01227
4450000000,-13.606091,-118.04369
4451000000,-14.022504,-118.45868
4452000000,-14.036632,-118.61722
4453000000,-14.111357,-118.717
4454000000,-14.524068,-119.19381
4455000000,-14.597539,-119.41672
4456000000,-14.804328,-119.77268
4457000000,-15.000998,-119.98406
4458000000,-15.084688,-120.23555
4459000000,-15.64795,-120.67606
4460000000,-15.576955,-120.91004
4461000000,-15.731379,-120.95324
4462000000,-15.829531,-121.31313
4463000000,-16.338701,-121.70016
4464000000,-16.517508,-122.01342
4465000000,-16.646177,-122.27469
4466000000,-16.523134,-122.30975
4467000000,-16.743341,-122.53611
4468000000,-17.070314,-122.81017
4469000000,-17.247339,-123.09148
4470000000,-17.414396,-123.4174
4471000000,-17.756092,-123.66667
4472000000,-17.54019,-123.74384
4473000000,-18.040108,-124.24204
4474000000,-18.151899,-124.5917
4475000000,-18.315302,-124.77885
4476000000,-18.533001,-125.09388
4477000000,-18.771347,-125.28202
4478000000,-18.915571,-125.58943
4479000000,-18.83107,-125.60355
4480000000,-19.208281,-125.95811
4481000000,-19.323463,-126.25863
4482000000,-19.583414,-126.73762
4483000000,-19.714094,-126.74987
4484000000,-19.909292,-127.19356
4485000000,-20.091631,-127.28466
4486000000,-20.256319,-127.62948
4487000000,-20.554893,-127.93931
4488000000,-20.563505,-128.16299
4489000000,-20.749058,-128.46994
4490000000,-21.032591,-128.79106
4491000000,-21.094669,-128.96964
4492000000,-21.256008,-129.13458
4493000000,-21.395727,-129.51488
4494000000,-21.826,-129.84174
4495000000,-21.929808,-130.00711
4496000000,-21.947271,-130.22224
4497000000,-22.137501,-130.35959
4498000000,-22.509348,-130.80171
4499000000,-22.567219,-131.09462
4500000000,-22.750896,-131.34406
4501000000,-22.859804,-131.59375
4502000000,-23.105988,-131.88461
4503000000,-23.21784,-132.11806
4504000000,-23.35187,-132.35992
4505000000,-23.54673,-132.59814
4506000000,-23.816986,-133.06969
4507000000,-23.99172,-133.22789
4508000000,-24.079576,-133.50186
4509000000,-24.33485,-133.66183
4510000000,-24.44503,-133.8817
4511000000,-24.605101,-134.13858
4512000000,-24.874325,-134.43286
4513000000,-25.056828,-134.65886
4514000000,-25.505835,-135.19101
4515000000,-25.396122,-135.34662
4516000000,-25.469597,-135.55679
4517000000,-25.77935,-135.85242
4518000000,-25.968197,-136.17984
4519000000,-26.046814,-136.42871
4520000000,-26.413647,-136.70615
4521000000,-26.44957,-136.92729
4522000000,-26.697601,-137.23549
4523000000,-26.836195,-137.43488
4524000000,-26.930002,-137.72658
4525000000,-27.32345,-138.12959
4526000000,-27.317923,-138.0321
4527000000,-27.696796,-138.79649
4528000000,-27.627506,-138.88576
4529000000,-27.728252,-139.00421
4530000000,-28.071497,-139.47598
4531000000,-28.166573,-139.68568
4532000000,-28.353874,-139.96683
4533000000,-28.635014,-140.13622
4534000000,-28.633108,-140.3214
4535000000,-28.917088,-140.77505
4536000000,-29.179811,-141.01102
4537000000,-29.216888,-141.06989
4538000000,-29.526628,-141.70508
4539000000,-29.664177,-141.90936
4540000000,-29.796383,-142.06647
4541000000,-30.158592,-142.41153
4542000000,-30.074802,-142.54581
4543000000,-30.360683,-142.83012
4544000000,-30.37911,-142.97244
4545000000,-30.802282,-143.51083
4546000000,-30.856104,-143.64912
4547000000,-31.194212,-144.04532
4548000000,-31.21681,-144.2402
4549000000,-31.449312,-144.45894
4550000000,-31.443268,-144.68585
4551000000,-31.728617,-145.05533
4552000000,-31.784969,-145.26711
4553000000,-32.012436,-145.5995
4554000000,-32.093204,-145.71518
4555000000,-32.664471,-146.22789
4556000000,-32.471401,-146.29526
4557000000,-32.799786,-146.72531
4558000000,-32.907654,-146.92641
4559000000,-33.25386,-147.33109
4560000000,-33.380703,-147.54437
4561000000,-33.494221,-147.91669
4562000000,-33.633911,-148.00073
4563000000,-33.878948,-148.37947
4564000000,-34.046101,-148.58826
4565000000,-34.281345,-149.1227
4566000000,-34.41103,-149.26418
4567000000,-34.467648,-149.38551
4568000000,-34.761181,-149.71724
4569000000,-34.80743,-150.00615
4570000000,-35.388416,-150.40494
4571000000,-35.23579,-150.39766
4572000000,-35.516815,-150.97705
4573000000,-35.54697,-151.2142
4574000000,-36.074097,-151.68124
4575000000,-35.981186,-151.55428
4576000000,-36.217819,-152.11331
4577000000,-36.295666,-152.32344
4578000000,-36.343067,-152.4252
4579000000,-36.472729,-152.58022
4580000000,-36.81287,-152.96236
4581000000,-37.064846,-153.45078
4582000000,-37.074215,-153.68147
4583000000,-37.417805,-153.94699
4584000000,-37.742439,-154.21286
4585000000,-37.631855,-154.37013
4586000000,-37.702526,-154.60948
4587000000,-38.035946,-155.0421
4588000000,-37.920807,-155.15393
4589000000,-38.331852,-155.716
4590000000,-38.494556,-155.75836
4591000000,-38.588406,-156.10231
4592000000,-38.714996,-156.24545
4593000000,-38.979069,-156.6944
4594000000,-39.210613,-156.99304
4595000000,-39.384789,-157.37509
4596000000,-39.702694,-157.59462
4597000000,-39.588947,-157.86365
4598000000,-39.785694,-158.05244
4599000000,-39.977592,-158.37422
4600000000,-40.150894,-158.62521
4601000000,-40.246624,-158.85652
4602000000,-40.292095,-159.09531
4603000000,-40.688274,-159.43044
4604000000,-40.684586,-159.74945
4605000000,-41.045681,-160.12956
4606000000,-41.042694,-160.51993
4607000000,-41.051929,-160.58456
4608000000,-41.378368,-160.97012
4609000000,-41.473064,-161.12102
4610000000,-41.728352,-161.52411
4611000000,-41.796928,-161.5654
4612000000,-41.946251,-162.02515
4613000000,-41.933678,-162.34454
4614000000,-42.242878,-162.44325
4615000000,-42.288689,-162.70833
4616000000,-42.572521,-163.09456
4617000000,-42.770172,-163.25644
4618000000,-42.716,-163.63123
4619000000,-42.880016,-163.86905
4620000000,-43.057842,-164.20267
4621000000,-43.20594,-164.51157
4622000000,-43.543549,-164.94003
4623000000,-43.615307,-165.0152
4624000000,-43.587429,-165.26512
4625000000,-43.736076,-165.45955
4626000000,-44.120293,-165.842
4627000000,-44.130745,-166.14549
4628000000,-44.543175,-166.58051
4629000000,-44.481934,-166.82755
4630000000,-44.639416,-167.09486
4631000000,-44.901936,-167.39503
4632000000,-44.781662,-167.6096
4633000000,-45.086643,-167.89316
4634000000,-45.210381,-168.15262
4635000000,-45.464485,-168.54591
4636000000,-45.426178,-168.80704
4637000000,-45.734562,-169.02737
4638000000,-45.704727,-169.22839
4639000000,-45.97015,-169.65016
4640000000,-45.953491,-169.90921
4641000000,-46.188099,-170.09337
4642000000,-46.33577,-170.33469
4643000000,-46.396736,-170.653
4644000000,-46.52319,-170.91026
4645000000,-46.994637,-171.22095
4646000000,-46.824554,-171.48967
4647000000,-47.188988,-171.9696
4648000000,-47.050976,-172.04013
4649000000,-47.313282,-172.40591
4650000000,-47.32922,-172.68687
4651000000,-47.482021,-172.8139
4652000000,-47.435612,-173.32457
4653000000,-47.77264,-173.4814
4654000000,-47.823353,-173.79547
4655000000,-47.797295,-174.03033
4656000000,-48.035015,-174.35701
4657000000,-48.08202,-174.54477
4658000000,-48.109272,-174.82104
4659000000,-48.515327,-175.16441
4660000000,-48.514332,-175.60361
4661000000,-48.449921,-175.57071
4662000000,-48.712746,-176.00319
4663000000,-48.80146,-176.18423
4664000000,-48.954639,-176.45061
4665000000,-49.113178,-176.87288
4666000000,-49.340424,-177.23386
4667000000,-49.161034,-177.32077
4668000000,-49.295494,-177.69531
4669000000,-49.416519,-177.8902
4670000000,-49.744316,-178.33368
4671000000,-49.74287,-178.51614
4672000000,-49.951904,-179.01335
4673000000,-49.916882,-179.1953
4674000000,-50.087967,-179.37189
4675000000,-50.052937,-179.6635
4676000000,-50.180611,-179.90799
4677000000,-50.3279,179.68546
4678000000,-50.441101,179.48875
4679000000,-50.498367,179.10626
4680000000,-50.415596,179.03325
4681000000,-50.772427,178.59415
4682000000,-50.627701,178.45808
4683000000,-50.860733,178.07732
4684000000,-50.801529,177.73792
4685000000,-50.923847,177.59325
4686000000,-50.646683,177.42061
4687000000,-51.256313,177.09276
4688000000,-51.178856,176.91327
4689000000,-51.429554,176.34801
4690000000,-51.314995,176.11292
4691000000,-51.237747,175.87341
4692000000,-51.793358,175.60538
4693000000,-51.220852,175.29294
4694000000,-51.488926,175.12335
4695000000,-51.325829,174.89821
4696000000,-51.988728,174.34799
4697000000,-51.847946,174.23775
4698000000,-51.869976,173.87733
4699000000,-51.900288,173.71928
4700000000,-52.000965,173.40857
4701000000,-51.858395,173.12814
4702000000,-51.836491,172.92577
4703000000,-51.815765,172.67606
4704000000,-52.139561,172.36597
4705000000,-51.811935,171.92723
4706000000,-52.300251,171.75726
4707000000,-51.944626,171.45352
4708000000,-51.877495,171.05678
4709000000,-52.107796,170.86188
4710000000,-52.010113,170.5479
4711000000,-52.397366,170.2477
4712000000,-52.055061,170.21693
4713000000,-52.278419,169.80952
4714000000,-52.310966,169.32547
4715000000,-52.159401,169.21281
4716000000,-52.229164,168.90337
4717000000,-52.258259,168.59511
4718000000,-52.214367,168.55501
4719000000,-52.382561,168.07455
4720000000,-52.015648,167.89413
4721000000,-52.126629,167.66121
4722000000,-52.41288,167.22475
4723000000,-52.025757,166.94038
4724000000,-51.967838,166.61615
4725000000,-52.229034,166.39342
4726000000,-51.839886,166.15465
4727000000,-52.099323,165.89581
4728000000,-51.763592,165.71828
4729000000,-52.011681,165.31323
4730000000,-52.154106,165.11815
4731000000,-51.822739,164.84065
4732000000,-51.841949,164.65019
4733000000,-51.782913,164.16095
4734000000,-51.756382,164.02042
4735000000,-51.63081,163.69753
4736000000,-51.51955,163.52901
4737000000,-51.885654,162.98157
4738000000,-51.591,163.05685
4739000000,-50.98737,162.68477
4740000000,-51.127567,162.36615
4741000000,-51.386566,162.14046
4742000000,-51.461029,161.88037
4743000000,-51.172184,161.55721
4744000000,-51.038795,161.19702
4745000000,-50.988121,161.10304
4746000000,-51.01368,160.73378
4747000000,-50.972073,160.35378
4748000000,-50.568825,160.27309
4749000000,-50.886074,159.82155
4750000000,-50.996819,159.68726
4751000000,-50.497559,159.34273
4752000000,-50.644314,159.17459
4753000000,-50.452858,158.77692
4754000000,-50.351997,158.7316
4755000000,-49.804646,158.18153
4756000000,-50.062698,158.0063
4757000000,-49.658863,157.75696
4758000000,-49.977692,157.45122
4759000000,-48.999622,157.194
4760000000,-49.277,157.0285
4761000000,-49.405388,156.47739
4762000000,-49.368824,156.21275
4763000000,-48.605392,156.07616
4764000000,-48.366859,155.79901
4765000000,-48.241455,155.61696
4766000000,-47.794155,155.25955
4767000000,-48.460705,154.89447
4768000000,-47.954594,154.80943
4769000000,-47.217091,154.3504
4770000000,-47.731499,154.20045
4771000000,-47.042511,154.00151
4772000000,-47.648918,153.45682
4773000000,-46.768227,153.51508
4774000000,-46.208351,153.11011
4775000000,-45.878113,152.87035
4776000000,-46.000851,152.71146
4777000000,-45.765377,152.41835
4778000000,-45.54562,152.12199
4779000000,-45.307949,151.82899
4780000000,-44.863495,151.40138
4781000000,-44.988857,151.0892
4782000000,-44.515709,151.00252
4783000000,-43.762131,150.70474
4784000000,-43.592072,150.53304
4785000000,-43.406704,150.29849
4786000000,-42.812572,149.8492
4787000000,-42.822086,149.76781
4788000000,-42.893208,149.18307
4789000000,-41.708183,148.9691
4790000000,-41.771946,148.6741
4791000000,-40.94458,148.62486
4792000000,-40.678955,148.33987
4793000000,-40.933861,147.87399
4794000000,-40.045277,147.79924
4795000000,-39.770061,147.45367
4796000000,-39.846741,147.23514
4797000000,-39.201843,147.01443
4798000000,-38.233368,146.69962
4799000000,-38.499203,146.47243
4800000000,-37.324032,146.164
4801000000,-37.313206,145.91235
4802000000,-37.099823,145.50574
4803000000,-36.575665,145.32246
4804000000,-36.126026,144.99609
4805000000,-35.054344,144.90997
4806000000,-35.041225,144.67941
4807000000,-34.466682,144.32779
4808000000,-33.485691,143.94246
4809000000,-33.096809,143.81546
4810000000,-33.657082,143.57994
4811000000,-32.299088,143.33389
4812000000,-32.105843,143.11192
4813000000,-30.966425,142.69287
4814000000,-30.394892,142.51323
4815000000,-30.136915,141.99617
4816000000,-29.785292,142.00362
4817000000,-28.390512,141.75377
4818000000,-27.439384,141.38203
4819000000,-28.084728,141.1017
4820000000,-26.45948,140.9772
4821000000,-26.284426,140.56221
4822000000,-25.945629,140.38821
4823000000,-25.07518,140.16348
4824000000,-24.667595,139.98743
4825000000,-23.50424,139.62503
4826000000,-23.201536,139.35519
4827000000,-22.349318,139.15486
4828000000,-22.711813,138.80412
4829000000,-21.979498,138.59676
4830000000,-21.741945,138.29822
4831000000,-20.027483,138.15405
4832000000,-19.76479,137.78349
4833000000,-19.133928,137.55478
4834000000,-18.024639,137.2856
4835000000,-17.86042,136.91135
4836000000,-17.427387,136.7722
4837000000,-16.431528,136.62349
4838000000,-15.968168,136.14987
4839000000,-15.409373,136.04063
4840000000,-14.248818,135.70871
4841000000,-14.497505,135.50775
4842000000,-13.508453,135.24905
4843000000,-13.181529,135.09076
4844000000,-12.903978,134.72491
4845000000,-11.399475,134.40521
4846000000,-11.071516,134.17352
4847000000,-9.2404804,133.85773
4848000000,-9.3287344,133.63745
4849000000,-9.8212137,133.48146
4850000000,-8.0520782,133.32495
4851000000,-8.1975603,132.79176
4852000000,-6.4336047,132.52492
4853000000,-6.6562715,132.35536
4854000000,-5.201436,131.95308
4855000000,-5.172534,132.00829
4856000000,-4.9232931,131.73166
4857000000,-3.8180771,131.52159
4858000000,-3.6853178,131.1313
4859000000,-3.7423704,130.92203
4860000000,-2.4445438,130.67157
4861000000,-2.4783025,130.3985
4862000000,-1.2097318,130.23254
4863000000,-0.82503182,129.99936
4864000000,-0.98281002,129.71437
4865000000,0.36068353,129.38882
4866000000,0.33956289,129.16753
4867000000,0.23290353,128.91565
4868000000,0.84854144,128.65561
4869000000,2.5058568,128.52643
4870000000,3.0017626,128.1945
4871000000,2.8750882,127.93965
4872000000,2.4944944,127.62184
4873000000,3.7257938,127.45781
4874000000,4.3433723,127.15906
4875000000,4.753026,126.60366
4876000000,4.1170774,126.6369
4877000000,5.4148145,126.50758
4878000000,6.0892487,126.10783
4879000000,6.0078926,125.90102
4880000000,6.2157717,125.60424
4881000000,6.2296476,125.31385
4882000000,6.746954,125.18224
4883000000,6.6562166,124.88048
4884000000,8.0685787,124.75675
4885000000,7.9225698,124.46619
4886000000,8.4993229,124.13507
4887000000,8.6152067,123.91464
4888000000,8.4808884,123.45709
4889000000,9.1409254,123.33775
4890000000,10.523991,123.18555
4891000000,9.6502275,123.05142
4892000000,10.065688,122.6658
4893000000,10.274079,122.35892
4894000000,10.303674,122.0884
4895000000,12.283036,121.94585
4896000000,11.298364,121.70248
4897000000,11.814985,121.26939
4898000000,11.785913,121.13763
4899000000,12.17009,120.9808
4900000000,12.685112,120.71215
4901000000,12.333261,120.45312
4902000000,11.887715,120.06672
4903000000,12.810524,119.92873
4904000000,13.733219,119.88023
4905000000,13.76048,119.50284
4906000000,13.715413,119.08091
4907000000,13.906886,118.91998
4908000000,14.032432,118.63628
4909000000,15.085079,118.48619
4910000000,14.437238,118.21582
4911000000,15.634211,117.97976
4912000000,14.873316,117.62265
4913000000,15.574924,117.59298
4914000000,15.766901,117.2291
4915000000,15.353437,117.07955
4916000000,17.164253,116.94025
4917000000,16.658138,116.58414
4918000000,16.190418,116.35585
4919000000,16.327766,116.06717
4920000000,16.652863,115.78015
4921000000,16.431871,115.64324
4922000000,17.16935,115.35425
4923000000,17.079491,115.10963
4924000000,16.606789,114.7469
4925000000,17.411625,114.57035
4926000000,17.48716,114.23643
4927000000,18.066832,114.06615
4928000000,17.641537,113.86729
4929000000,18.030447,113.59867
4930000000,18.163673,113.3502
4931000000,18.274433,113.14071
4932000000,17.46242,112.90175
4933000000,18.760988,112.7559
4934000000,18.549118,112.44005
4935000000,18.160427,112.04601
4936000000,18.841503,111.93098
4937000000,18.191227,111.67641
4938000000,18.801649,111.50016
4939000000,19.385817,111.43451
4940000000,19.041626,110.98467
4941000000,18.674387,110.69785
4942000000,18.755852,110.60496
4943000000,18.830156,110.25069
4944000000,19.403448,110.21004
4945000000,19.046942,109.74737
4946000000,19.86655,109.51509
4947000000,18.949282,109.29519
4948000000,20.348875,109.00815
4949000000,20.375895,108.91473
4950000000,19.545248,108.53987
4951000000,19.625662,108.3365
4952000000,19.570997,107.9719
4953000000,20.14995,107.89915
4954000000,20.440966,107.71331
4955000000,20.154608,107.46728
4956000000,20.272213,107.15758
4957000000,20.230833,106.8315
4958000000,20.142103,106.76739
4959000000,20.60153,106.55688
4960000000,20.626255,106.25661
4961000000,20.737476,105.99823
4962000000,19.764841,105.55575
4963000000,20.339262,105.30503
4964000000,20.185537,105.22327
4965000000,20.812363,104.99356
4966000000,19.75,104.61867
4967000000,21.347897,104.6509
4968000000,20.942347,104.3937
4969000000,20.483032,103.90588
4970000000,20.66124,103.80174
4971000000,20.410723,103.57206
4972000000,21.45825,103.2694
4973000000,21.650553,103.12186
4974000000,21.137659,102.75563
4975000000,21.652769,102.54783
4976000000,21.243216,102.35729
4977000000,21.548,102.24383
4978000000,21.632412,101.91026
4979000000,21.045753,101.71722
4980000000,21.241167,101.39283
4981000000,21.593927,101.24257
4982000000,21.246489,100.97575
4983000000,21.573254,100.74633
4984000000,22.29565,100.57519
4985000000,20.544226,100.16202
4986000000,21.571257,100.07999
4987000000,21.172598,99.868378
4988000000,21.009167,99.495682
4989000000,22.291769,99.24794
4990000000,22.082491,99.156197
4991000000,21.407887,98.95192
4992000000,21.701683,98.643921
4993000000,21.800375,98.416992
4994000000,21.04735,98.233337
4995000000,21.727573,97.927444
4996000000,22.389191,97.788406
4997000000,21.999342,97.565758
4998000000,21.363358,97.227707
4999000000,22.663494,97.108704
5000000000,21.52923,96.718277
END

