!CSV A.01.01
!Agilent Technologies,E8362C,MY49020225,A.09.42.22
!Agilent E8362C: A.09.42.22
!Date: Friday, March 04, 2016 13:54:34
!Source: Standard

BEGIN CH1_DATA
Freq(Hz),S11 Phase(°),S21 Phase(°)
1000000000,-48.100376,-154.17543
1001000000,-48.311729,-154.17381
1002000000,-49.463772,-154.38792
1003000000,-49.570835,-154.64476
1004000000,-49.870777,-154.7458
1005000000,-50.2467,-154.88464
1006000000,-50.787979,-155.00989
1007000000,-51.595707,-155.08627
1008000000,-52.017139,-155.26732
1009000000,-51.889008,-155.58195
1010000000,-52.234501,-155.5737
1011000000,-52.784367,-155.80786
1012000000,-53.611813,-156.04523
1013000000,-53.807652,-156.15247
1014000000,-53.853096,-156.30428
1015000000,-54.734993,-156.56543
1016000000,-54.587692,-156.87401
1017000000,-55.690105,-156.90285
1018000000,-56.017345,-156.82579
1019000000,-56.175621,-156.91234
1020000000,-56.524612,-157.2301
1021000000,-57.230106,-157.32338
1022000000,-56.67197,-157.57182
1023000000,-57.599007,-157.65395
1024000000,-57.71133,-157.79907
1025000000,-58.281628,-157.88356
1026000000,-58.709774,-158.04762
1027000000,-59.203636,-158.40895
1028000000,-58.846363,-158.44341
1029000000,-59.898922,-158.63072
1030000000,-60.188824,-158.77457
1031000000,-60.301529,-158.98009
1032000000,-60.59705,-159.02353
1033000000,-60.977005,-159.19035
1034000000,-61.067856,-159.37849
1035000000,-61.182186,-159.5632
1036000000,-61.657089,-159.59514
1037000000,-62.122185,-159.70323
1038000000,-62.782883,-159.95859
1039000000,-62.877228,-160.29584
1040000000,-62.902081,-160.29839
1041000000,-63.688202,-160.5928
1042000000,-63.711445,-160.62123
1043000000,-64.166336,-160.78796
1044000000,-64.477966,-160.90114
1045000000,-64.700523,-161.07648
1046000000,-65.211838,-161.23549
1047000000,-65.346581,-161.63493
1048000000,-65.929863,-161.59917
1049000000,-66.237877,-161.74184
1050000000,-66.166443,-161.70052
1051000000,-66.764488,-161.91289
1052000000,-67.134644,-162.2063
1053000000,-67.577972,-162.25842
1054000000,-68.081436,-162.3129
1055000000,-68.547211,-162.39891
1056000000,-68.794136,-162.6423
1057000000,-69.167496,-162.91986
1058000000,-69.203156,-163.26468
1059000000,-69.718651,-163.27446
1060000000,-70.239006,-163.41832
1061000000,-70.545403,-163.32925
1062000000,-70.616089,-163.67645
1063000000,-70.499313,-163.80099
1064000000,-71.668228,-163.99716
1065000000,-71.891945,-164.01672
1066000000,-72.053658,-164.33875
1067000000,-72.194214,-164.40747
1068000000,-72.322952,-164.52026
1069000000,-73.184662,-164.94205
1070000000,-73.313019,-164.87457
1071000000,-73.581284,-165.16835
1072000000,-73.662247,-165.19276
1073000000,-74.4981,-165.6368
1074000000,-74.454765,-165.38686
1075000000,-74.882622,-165.64618
1076000000,-74.785904,-165.75441
1077000000,-75.526985,-165.75307
1078000000,-75.947762,-166.08186
1079000000,-76.085258,-166.3425
1080000000,-76.247818,-166.54662
1081000000,-76.710861,-166.61948
1082000000,-76.880119,-166.88753
1083000000,-77.377846,-166.94456
1084000000,-77.420296,-167.04604
1085000000,-77.685669,-167.02623
1086000000,-78.153305,-167.4446
1087000000,-78.527275,-167.45242
1088000000,-78.926636,-167.67763
1089000000,-78.973312,-167.73074
1090000000,-79.467392,-168.02567
1091000000,-79.696449,-167.96835
1092000000,-80.027847,-168.2953
1093000000,-80.397926,-168.39064
1094000000,-80.884178,-168.64711
1095000000,-81.08992,-168.84959
1096000000,-81.584625,-168.83073
1097000000,-81.80632,-169.13498
1098000000,-81.945442,-169.42787
1099000000,-82.488525,-169.25565
1100000000,-82.561584,-169.49043
1101000000,-83.234558,-169.7262
1102000000,-83.207176,-169.81248
1103000000,-83.672112,-170.10988
1104000000,-83.534729,-170.03107
1105000000,-84.219208,-170.33081
1106000000,-84.569916,-170.35468
1107000000,-84.87748,-170.61641
1108000000,-84.807838,-170.72859
1109000000,-85.190399,-170.82906
1110000000,-85.550255,-170.98943
1111000000,-85.76326,-171.23804
1112000000,-86.067444,-171.34319
1113000000,-86.502663,-171.56877
1114000000,-86.56916,-171.80084
1115000000,-86.891083,-171.75917
1116000000,-87.258339,-171.98874
1117000000,-87.537155,-172.23419
1118000000,-87.869705,-172.1367
1119000000,-87.95092,-172.43268
1120000000,-88.343636,-172.55669
1121000000,-88.687325,-172.66302
1122000000,-88.709946,-172.87973
1123000000,-89.253746,-172.87891
1124000000,-89.366417,-173.09657
1125000000,-89.671097,-173.32123
1126000000,-89.992676,-173.38708
1127000000,-90.1045,-173.51822
1128000000,-90.739105,-173.71774
1129000000,-90.879753,-173.942
1130000000,-91.099136,-174.22867
1131000000,-91.319427,-174.34506
1132000000,-91.686272,-174.58826
1133000000,-92.026993,-174.51964
1134000000,-92.064697,-174.64436
1135000000,-92.404381,-174.78429
1136000000,-92.935387,-175.14445
1137000000,-92.824776,-175.28094
1138000000,-93.41185,-175.4417
1139000000,-93.636368,-175.51329
1140000000,-94.07177,-175.63925
1141000000,-94.320808,-175.94441
1142000000,-94.28199,-176.10905
1143000000,-94.597321,-176.17696
1144000000,-95.152779,-176.34175
1145000000,-95.25898,-176.58858
1146000000,-95.623962,-176.70081
1147000000,-95.777878,-176.74013
1148000000,-95.983315,-177.0537
1149000000,-96.44162,-177.07072
1150000000,-96.651062,-177.13547
1151000000,-96.814468,-177.48747
1152000000,-97.167282,-177.38979
1153000000,-97.461769,-177.80508
1154000000,-97.598793,-177.61838
1155000000,-97.724785,-177.99097
1156000000,-98.161728,-178.21748
1157000000,-98.526009,-178.36488
1158000000,-98.485397,-178.31285
1159000000,-98.765816,-178.45222
1160000000,-99.078888,-178.48099
1161000000,-99.324615,-178.98026
1162000000,-99.605957,-179.06444
1163000000,-99.738297,-179.08031
1164000000,-100.10431,-179.23193
1165000000,-100.64323,-179.67412
1166000000,-100.62513,-179.62483
1167000000,-100.99305,-179.75038
1168000000,-101.23576,-179.99734
1169000000,-101.67094,179.82051
1170000000,-101.77071,179.67784
1171000000,-101.95696,179.61516
1172000000,-102.3828,179.44583
1173000000,-102.34649,179.38188
1174000000,-102.96024,179.22835
1175000000,-102.98317,179.07269
1176000000,-103.39984,178.78642
1177000000,-103.41989,178.5872
1178000000,-103.9901,178.5041
1179000000,-104.06206,178.45189
1180000000,-104.42258,178.18077
1181000000,-104.45087,178.16722
1182000000,-104.80188,178.09349
1183000000,-105.31068,177.62582
1184000000,-105.5448,177.72232
1185000000,-105.69343,177.39919
1186000000,-106.03649,177.31343
1187000000,-106.21329,177.18747
1188000000,-106.44614,177.03761
1189000000,-106.60074,176.80753
1190000000,-106.82105,176.7256
1191000000,-107.11996,176.60255
1192000000,-107.41601,176.3231
1193000000,-107.78934,176.17734
1194000000,-107.83689,176.01109
1195000000,-108.31247,175.75912
1196000000,-108.50384,175.72711
1197000000,-108.66764,175.64296
1198000000,-109.03237,175.57083
1199000000,-109.11116,175.32362
1200000000,-109.41788,175.05652
1201000000,-109.62214,174.97797
1202000000,-109.89935,174.83585
1203000000,-110.06695,174.73653
1204000000,-110.34155,174.69243
1205000000,-110.65029,174.45085
1206000000,-110.78143,174.44055
1207000000,-111.45184,174.0329
1208000000,-111.52668,173.86104
1209000000,-111.67316,173.87971
1210000000,-111.93765,173.68748
1211000000,-112.28108,173.45641
1212000000,-112.48262,173.17093
1213000000,-112.69785,173.20425
1214000000,-112.90813,173.17207
1215000000,-112.99607,172.92969
1216000000,-113.76423,172.45517
1217000000,-113.88425,172.60303
1218000000,-114.05155,172.37718
1219000000,-114.29523,172.35892
1220000000,-114.50578,172.17329
1221000000,-114.90649,171.92984
1222000000,-115.12212,171.81242
1223000000,-115.5362,171.6714
1224000000,-115.77834,171.3246
1225000000,-115.81744,171.25322
1226000000,-116.16884,171.1689
1227000000,-116.30326,171.04457
1228000000,-116.68459,170.86415
1229000000,-116.76498,170.78439
1230000000,-117.06156,170.51093
1231000000,-117.57321,170.45001
1232000000,-117.81945,170.12909
1233000000,-118.00971,169.98749
1234000000,-118.23412,169.78596
1235000000,-118.62891,169.89818
1236000000,-118.77116,169.716
1237000000,-119.11767,169.50787
1238000000,-119.38763,169.30652
1239000000,-119.54003,169.21042
1240000000,-119.82126,169.0656
1241000000,-120.17429,168.71634
1242000000,-120.37981,168.6535
1243000000,-120.70414,168.5488
1244000000,-120.87257,168.27309
1245000000,-121.14713,168.20096
1246000000,-121.33401,168.15317
1247000000,-121.35065,167.96304
1248000000,-121.88843,167.72173
1249000000,-122.17845,167.77565
1250000000,-122.26859,167.52975
1251000000,-122.76299,167.38318
1252000000,-123.00774,167.18558
1253000000,-123.16984,167.19002
1254000000,-123.32629,166.97758
1255000000,-123.90799,166.82288
1256000000,-123.88246,166.80888
1257000000,-124.45972,166.51907
1258000000,-124.37922,166.45067
1259000000,-125.19869,166.06247
1260000000,-125.26431,165.93935
1261000000,-125.3783,165.74355
1262000000,-125.81076,165.61746
1263000000,-125.78472,165.57829
1264000000,-126.25456,165.30446
1265000000,-126.3073,165.35823
1266000000,-126.65246,165.27318
1267000000,-127.2,164.79048
1268000000,-127.05455,164.91435
1269000000,-127.59808,164.60272
1270000000,-127.80623,164.39865
1271000000,-127.87893,164.39853
1272000000,-128.14095,164.21004
1273000000,-128.45384,163.96976
1274000000,-128.90552,163.75226
1275000000,-129.09981,163.61293
1276000000,-129.31709,163.34283
1277000000,-129.94594,163.16484
1278000000,-129.81386,163.22127
1279000000,-130.03917,162.99232
1280000000,-130.26227,162.80254
1281000000,-130.79396,162.69077
1282000000,-131.00113,162.69646
1283000000,-131.32388,162.37292
1284000000,-131.44815,162.24464
1285000000,-131.75562,161.89334
1286000000,-132.15829,161.95943
1287000000,-132.42903,161.82112
1288000000,-132.63405,161.63649
1289000000,-132.83167,161.50609
1290000000,-133.13269,161.41728
1291000000,-133.44537,161.1171
1292000000,-133.56064,161.07404
1293000000,-133.74573,160.9899
1294000000,-133.86607,160.7845
1295000000,-134.52444,160.41022
1296000000,-134.54308,160.39116
1297000000,-134.34923,160.30023
1298000000,-134.97519,160.23625
1299000000,-135.66383,159.81656
1300000000,-135.64836,159.82521
1301000000,-136.08528,159.60432
1302000000,-136.38744,159.54022
1303000000,-136.48239,159.42287
1304000000,-136.90819,159.29413
1305000000,-136.78105,159.19141
1306000000,-137.62727,158.81165
1307000000,-137.78906,158.75386
1308000000,-137.74644,158.59161
1309000000,-138.11313,158.50345
1310000000,-138.20528,158.31949
1311000000,-138.76773,157.91878
1312000000,-138.97156,158.08975
1313000000,-139.1667,157.73047
1314000000,-139.53114,157.66525
1315000000,-139.98566,157.53955
1316000000,-139.89143,157.35828
1317000000,-140.31975,157.24776
1318000000,-140.51608,157.03145
1319000000,-141.19284,156.73824
1320000000,-141.26268,156.71664
1321000000,-141.69221,156.56976
1322000000,-141.84308,156.31857
1323000000,-142.18204,156.36107
1324000000,-142.27228,156.28481
1325000000,-142.655,155.94125
1326000000,-142.85883,155.81355
1327000000,-143.34026,155.79771
1328000000,-143.49385,155.48851
1329000000,-143.46156,155.46335
1330000000,-143.93227,155.36845
1331000000,-144.39937,155.00261
1332000000,-144.38223,154.81073
1333000000,-144.98877,154.64081
1334000000,-145.28685,154.62318
1335000000,-145.81052,154.33487
1336000000,-145.81509,154.35847
1337000000,-146.06143,154.08446
1338000000,-146.20285,154.00154
1339000000,-146.49792,153.97139
1340000000,-146.82817,153.57211
1341000000,-147.07829,153.52731
1342000000,-147.59828,153.20714
1343000000,-147.75545,153.23016
1344000000,-147.85582,152.94754
1345000000,-148.34694,152.97635
1346000000,-148.94626,152.67024
1347000000,-148.82008,152.69649
1348000000,-149.09387,152.59045
1349000000,-149.36812,152.39322
1350000000,-149.73497,152.11517
1351000000,-149.94737,152.0417
1352000000,-150.62943,151.65356
1353000000,-150.48372,151.6987
1354000000,-151.02515,151.41664
1355000000,-151.15401,151.39653
1356000000,-151.62868,151.26968
1357000000,-151.5916,151.0528
1358000000,-152.37183,150.91263
1359000000,-152.22154,150.78571
1360000000,-152.68407,150.51894
1361000000,-152.62608,150.34142
1362000000,-153.05467,150.43718
1363000000,-153.3837,150.22684
1364000000,-153.75952,150.08098
1365000000,-153.51743,149.88818
1366000000,-154.70248,149.56412
1367000000,-154.61198,149.53839
1368000000,-155.02841,149.3503
1369000000,-155.11324,149.09383
1370000000,-155.35034,149.02087
1371000000,-155.55521,149.03027
1372000000,-155.96992,148.75407
1373000000,-156.52641,148.50157
1374000000,-156.69714,148.32797
1375000000,-156.36137,148.39589
1376000000,-156.93861,148.26169
1377000000,-157.60591,148.04268
1378000000,-157.72556,147.78879
1379000000,-157.93915,147.73178
1380000000,-158.00233,147.80194
1381000000,-158.87865,147.30899
1382000000,-158.75017,147.29733
1383000000,-159.70282,147.08498
1384000000,-159.55864,146.79906
1385000000,-159.87749,146.74887
1386000000,-160.57153,146.60335
1387000000,-160.32771,146.41035
1388000000,-160.92937,146.17487
1389000000,-161.16051,146.12213
1390000000,-161.15865,145.89313
1391000000,-161.69354,145.70897
1392000000,-161.87105,145.75928
1393000000,-162.47417,145.35837
1394000000,-162.1199,145.42799
1395000000,-162.26189,145.19698
1396000000,-163.26884,144.9213
1397000000,-163.06532,144.94806
1398000000,-163.98952,144.70634
1399000000,-163.9046,144.59438
1400000000,-164.30086,144.34416
1401000000,-164.37462,144.39629
1402000000,-164.52116,144.14807
1403000000,-165.03331,144.03494
1404000000,-165.48514,143.80075
1405000000,-165.7701,143.72807
1406000000,-166.21518,143.5072
1407000000,-166.39351,143.4769
1408000000,-165.99908,143.36739
1409000000,-166.88821,142.9279
1410000000,-167.14415,142.93237
1411000000,-167.55284,142.79379
1412000000,-167.41759,142.61726
1413000000,-168.00703,142.49768
1414000000,-168.2495,142.30371
1415000000,-168.69072,142.08499
1416000000,-168.95311,141.9164
1417000000,-169.15567,141.84233
1418000000,-169.99692,141.63351
1419000000,-170.12621,141.48402
1420000000,-170.61613,141.28014
1421000000,-170.6073,141.2588
1422000000,-170.94495,141.14146
1423000000,-171.33406,140.99248
1424000000,-171.67155,140.84685
1425000000,-171.92711,140.73662
1426000000,-172.04259,140.46654
1427000000,-172.56537,140.38948
1428000000,-173.09567,140.20056
1429000000,-173.26842,140.05864
1430000000,-173.70386,139.80759
1431000000,-174.01848,139.56442
1432000000,-174.48909,139.51083
1433000000,-174.48415,139.32352
1434000000,-174.9823,139.25078
1435000000,-174.87599,139.22856
1436000000,-175.64024,138.65314
1437000000,-176.2486,138.69974
1438000000,-176.74059,138.59764
1439000000,-176.5078,138.53647
1440000000,-176.75049,138.33846
1441000000,-177.24898,138.21939
1442000000,-177.403,137.90427
1443000000,-178.28831,137.82848
1444000000,-178.62154,137.57346
1445000000,-178.16171,137.59946
1446000000,-178.96693,137.24362
1447000000,-179.27776,137.0502
1448000000,-179.32327,137.12231
1449000000,-179.59499,137.12595
1450000000,-179.69949,136.8846
1451000000,179.89149,136.67772
1452000000,179.90321,136.57368
1453000000,178.88028,136.31795
1454000000,178.41251,136.18143
1455000000,178.22899,135.86389
1456000000,177.96513,135.91774
1457000000,177.8831,135.65276
1458000000,177.34535,135.5522
1459000000,177.02892,135.30853
1460000000,176.88242,135.25781
1461000000,176.30588,134.96127
1462000000,175.86147,134.80084
1463000000,175.52896,134.70322
1464000000,175.51781,134.78699
1465000000,175.40834,134.42119
1466000000,174.67111,134.60365
1467000000,174.39584,134.05463
1468000000,174.14526,134.04887
1469000000,173.43163,133.80298
1470000000,172.77792,133.66083
1471000000,172.25546,133.51761
1472000000,172.89388,133.30232
1473000000,171.84772,133.19601
1474000000,172.26373,133.09827
1475000000,171.5536,132.80679
1476000000,170.70874,132.66835
1477000000,170.77365,132.64487
1478000000,170.70851,132.40372
1479000000,170.00279,132.25137
1480000000,169.7527,132.11969
1481000000,169.41177,131.98177
1482000000,168.76016,131.79956
1483000000,168.20242,131.76895
1484000000,168.77563,131.50146
1485000000,167.74155,131.32768
1486000000,167.90732,131.38277
1487000000,166.95871,130.96391
1488000000,167.25136,130.88397
1489000000,166.59302,130.86064
1490000000,166.21133,130.62593
1491000000,165.61609,130.41122
1492000000,165.37421,130.49068
1493000000,165.09735,129.93985
1494000000,164.26155,129.99809
1495000000,164.35281,129.87761
1496000000,164.05055,129.71033
1497000000,163.65172,129.42786
1498000000,163.49069,129.37076
1499000000,163.21408,129.22957
1500000000,162.80434,129.112
1501000000,161.7453,128.77333
1502000000,162.3804,128.84041
1503000000,161.11343,128.39946
1504000000,161.02567,128.43082
1505000000,161.15138,128.36314
1506000000,161.03093,128.19025
1507000000,160.10904,127.96216
1508000000,159.71165,127.76862
1509000000,158.87166,127.58918
1510000000,159.44301,127.42416
1511000000,158.13794,127.25955
1512000000,157.93373,127.17128
1513000000,157.67407,127.05206
1514000000,156.62621,126.80447
1515000000,156.33603,126.63924
1516000000,156.56847,126.61076
1517000000,156.03024,126.46835
1518000000,155.31664,126.35111
1519000000,154.90543,126.04215
1520000000,155.28302,126.00607
1521000000,154.06035,125.69771
1522000000,153.67188,125.5896
1523000000,153.33868,125.59392
1524000000,153.03606,125.21032
1525000000,152.8242,125.07121
1526000000,152.57977,124.97556
1527000000,151.94972,125.06052
1528000000,152.2556,124.69147
1529000000,151.3963,124.53761
1530000000,150.90167,124.46002
1531000000,150.27429,124.21475
1532000000,150.30991,124.13866
1533000000,150.1104,123.90427
1534000000,149.61182,123.84914
1535000000,148.59467,123.55131
1536000000,148.5666,123.50664
1537000000,148.12267,123.24048
1538000000,147.83942,123.18394
1539000000,146.98959,123.0438
1540000000,146.4183,122.75938
1541000000,145.89784,122.72515
1542000000,146.72076,122.55235
1543000000,145.80771,122.33761
1544000000,145.02286,122.01229
1545000000,144.24657,121.9656
1546000000,144.50612,121.9584
1547000000,143.98381,121.82738
1548000000,143.18459,121.56069
1549000000,143.21312,121.43755
1550000000,142.25519,121.34337
1551000000,141.92853,120.99893
1552000000,142.20854,120.95686
1553000000,141.3472,120.79401
1554000000,141.26917,120.66992
1555000000,140.32129,120.44337
1556000000,139.47687,120.23272
1557000000,140.04366,120.32388
1558000000,139.17624,120.06913
1559000000,138.68311,119.9334
1560000000,138.27606,119.75203
1561000000,138.14975,119.81521
1562000000,137.85309,119.30786
1563000000,137.44803,119.37726
1564000000,136.72711,119.25911
1565000000,136.59924,118.91322
1566000000,135.34584,118.77142
1567000000,134.87474,118.58219
1568000000,135.06851,118.33291
1569000000,134.32256,118.20296
1570000000,133.46906,118.12708
1571000000,134.20224,117.99006
1572000000,133.23225,117.9908
1573000000,132.66792,117.85233
1574000000,132.04729,117.4468
1575000000,131.93057,117.31075
1576000000,130.80861,117.30832
1577000000,131.00183,117.19751
1578000000,129.95479,117.00809
1579000000,129.79701,116.85048
1580000000,129.627,116.67593
1581000000,128.94496,116.6067
1582000000,128.63451,116.32326
1583000000,127.76873,116.08915
1584000000,127.56734,116.0117
1585000000,127.03649,115.80476
1586000000,126.55703,115.82339
1587000000,126.46612,115.36975
1588000000,126.03609,115.45223
1589000000,125.20097,115.12923
1590000000,125.16183,115.2
1591000000,124.44595,115.16093
1592000000,124.10703,114.85555
1593000000,123.93601,114.70107
1594000000,122.9845,114.55803
1595000000,122.43565,114.37987
1596000000,122.24921,114.24309
1597000000,122.0039,114.12038
1598000000,121.44396,113.91396
1599000000,120.87914,113.69296
1600000000,120.08492,113.68887
1601000000,119.32271,113.39059
1602000000,119.37966,113.27646
1603000000,119.01938,113.14279
1604000000,118.17825,112.97801
1605000000,116.88806,112.80032
1606000000,117.65592,112.78946
1607000000,116.96105,112.62055
1608000000,116.35081,112.54479
1609000000,116.4735,112.09551
1610000000,115.25385,111.87601
1611000000,114.51191,111.86131
1612000000,114.13684,111.72303
1613000000,114.45498,111.60268
1614000000,113.55021,111.40934
1615000000,112.94653,111.3104
1616000000,112.9509,111.15148
1617000000,112.48068,110.99969
1618000000,111.45786,110.75922
1619000000,110.71606,110.802
1620000000,110.11031,110.44184
1621000000,110.58071,110.32806
1622000000,109.66354,110.1675
1623000000,109.36608,109.96181
1624000000,108.21258,109.92798
1625000000,108.56133,109.758
1626000000,107.66717,109.63813
1627000000,107.23991,109.33361
1628000000,106.32281,109.02857
1629000000,106.33472,108.93577
1630000000,105.75352,109.09821
1631000000,104.86541,108.7829
1632000000,105.74237,108.73138
1633000000,104.78714,108.63206
1634000000,104.12865,108.51829
1635000000,103.64757,108.18761
1636000000,102.7421,108.09402
1637000000,102.045,107.68735
1638000000,102.39025,107.834
1639000000,100.51386,107.4565
1640000000,100.69363,107.40671
1641000000,100.9958,107.07513
1642000000,99.606956,107.0603
1643000000,100.00518,107.0592
1644000000,99.175423,106.73692
1645000000,97.77626,106.51805
1646000000,98.314293,106.40554
1647000000,96.955292,106.39468
1648000000,97.313835,106.0574
1649000000,96.408089,106.0749
1650000000,96.285088,105.96081
1651000000,96.274292,105.7032
1652000000,95.14238,105.46786
1653000000,94.674973,105.41096
1654000000,94.428169,105.2665
1655000000,93.8899,105.20042
1656000000,93.153191,104.73553
1657000000,93.002052,104.93092
1658000000,91.845024,104.61476
1659000000,91.31469,104.4733
1660000000,91.424324,104.36721
1661000000,91.14444,103.97479
1662000000,90.426483,103.96191
1663000000,90.20388,103.73996
1664000000,89.786102,103.8678
1665000000,87.965477,103.44975
1666000000,88.686569,103.53453
1667000000,87.563576,103.06351
1668000000,87.430435,103.14672
1669000000,87.42952,102.84281
1670000000,86.522453,102.76448
1671000000,86.16288,102.56223
1672000000,85.245262,102.47276
1673000000,84.394844,102.41716
1674000000,84.793709,102.24812
1675000000,83.689178,101.92313
1676000000,83.662308,101.97851
1677000000,82.472763,101.76612
1678000000,82.961372,101.70118
1679000000,82.245316,101.44259
1680000000,80.635353,100.99668
1681000000,80.310051,101.11969
1682000000,80.579155,100.71224
1683000000,81.2658,100.76046
1684000000,80.009995,100.74683
1685000000,80.052963,100.28999
1686000000,78.67588,100.27036
1687000000,77.674965,100.26672
1688000000,78.229523,99.974815
1689000000,76.847954,99.792046
1690000000,76.84272,99.819069
1691000000,76.285484,99.398338
1692000000,76.297531,99.330315
1693000000,75.372421,99.252304
1694000000,74.27652,98.981842
1695000000,73.978836,98.768074
1696000000,74.393562,98.7314
1697000000,72.776718,98.661751
1698000000,72.607162,98.305763
1699000000,72.306183,98.287247
1700000000,72.222099,98.172424
1701000000,71.981956,97.967155
1702000000,71.037186,97.926064
1703000000,70.484512,97.584259
1704000000,70.549904,97.394501
1705000000,69.594345,97.34671
1706000000,68.902596,97.167862
1707000000,68.676231,97.027985
1708000000,67.845032,96.855293
1709000000,68.485489,96.747208
1710000000,67.747948,96.619911
1711000000,66.257996,96.36956
1712000000,66.741249,96.516624
1713000000,65.766647,95.947823
1714000000,65.593971,96.00119
1715000000,65.095131,95.886314
1716000000,64.028381,95.645523
1717000000,63.94939,95.534454
1718000000,63.59639,95.470367
1719000000,63.29081,95.149757
1720000000,63.563686,94.979912
1721000000,62.057747,94.877022
1722000000,62.308922,94.640495
1723000000,61.899361,94.566742
1724000000,60.79324,94.413078
1725000000,60.517395,94.342827
1726000000,60.037998,94.1959
1727000000,59.736126,93.888222
1728000000,59.281479,93.914955
1729000000,59.111996,93.520348
1730000000,58.51046,93.567139
1731000000,58.512085,93.314034
1732000000,58.338028,93.110062
1733000000,57.710762,93.179482
1734000000,56.831764,92.956795
1735000000,56.590027,92.711815
1736000000,55.95121,92.390442
1737000000,56.517185,92.280884
1738000000,54.798367,92.270767
1739000000,55.196335,92.167671
1740000000,54.419838,91.911171
1741000000,53.531036,91.655266
1742000000,53.019142,91.542244
1743000000,52.366573,91.420242
1744000000,52.421051,91.219498
1745000000,52.676613,91.257217
1746000000,52.144459,90.909119
1747000000,51.726925,90.789146
1748000000,50.952637,90.650917
1749000000,50.885685,90.57663
1750000000,50.106373,90.56456
1751000000,50.538658,90.317207
1752000000,48.785801,90.122498
1753000000,48.783241,89.87484
1754000000,49.220112,89.750755
1755000000,48.13755,89.575966
1756000000,47.429325,89.484741
1757000000,47.246056,89.32579
1758000000,46.805313,89.218323
1759000000,46.849354,89.181778
1760000000,46.513138,88.827942
1761000000,44.894836,88.743538
1762000000,44.698154,88.526917
1763000000,44.589191,88.397095
1764000000,43.658642,88.203377
1765000000,43.650192,88.117653
1766000000,43.577957,87.991173
1767000000,42.676155,87.57222
1768000000,42.57666,87.716591
1769000000,41.816616,87.339394
1770000000,41.122746,87.261757
1771000000,41.431427,87.321655
1772000000,40.445938,87.002296
1773000000,40.83971,86.992668
1774000000,40.513554,86.887749
1775000000,39.892685,86.701363
1776000000,39.60215,86.353561
1777000000,38.900761,86.074806
1778000000,38.560459,86.061691
1779000000,38.302639,86.016907
1780000000,37.592373,85.914948
1781000000,37.740337,85.669373
1782000000,36.485645,85.382393
1783000000,36.697899,85.338074
1784000000,36.453564,85.072594
1785000000,35.83712,84.997421
1786000000,35.466518,85.019615
1787000000,34.655613,84.818649
1788000000,34.979679,84.700928
1789000000,34.243313,84.380478
1790000000,33.929485,84.287613
1791000000,33.731644,84.131966
1792000000,32.670921,83.973991
1793000000,32.530453,83.842346
1794000000,32.553905,83.627823
1795000000,31.674143,83.288902
1796000000,31.240231,83.374451
1797000000,30.901798,83.331451
1798000000,30.381716,83.114799
1799000000,30.27994,82.892097
1800000000,29.92378,82.652145
1801000000,29.817539,82.720802
1802000000,29.083021,82.404259
1803000000,28.423756,82.182487
1804000000,28.659504,82.014061
1805000000,27.809408,82.018082
1806000000,27.820112,81.848312
1807000000,27.332926,81.619759
1808000000,26.851904,81.398262
1809000000,26.780825,81.261017
1810000000,26.36039,81.137001
1811000000,25.883608,80.97554
1812000000,24.986536,80.838699
1813000000,25.020126,80.708282
1814000000,23.932615,80.59568
1815000000,24.010792,80.396042
1816000000,23.858032,80.254005
1817000000,23.155315,80.141335
1818000000,23.098488,79.843109
1819000000,22.426624,79.792923
1820000000,22.386435,79.64653
1821000000,22.166851,79.457176
1822000000,21.867962,79.316063
1823000000,20.922487,79.262741
1824000000,20.870937,79.014145
1825000000,20.825502,78.748001
1826000000,20.181084,78.740257
1827000000,19.640419,78.639236
1828000000,19.695118,78.343704
1829000000,18.71777,78.2565
1830000000,18.508089,78.076347
1831000000,18.423962,77.871391
1832000000,17.519651,77.858055
1833000000,17.349659,77.594391
1834000000,17.625751,77.511696
1835000000,16.913424,77.353271
1836000000,16.686087,77.121269
1837000000,16.208736,76.999039
1838000000,16.265263,76.984756
1839000000,15.426739,76.691841
1840000000,15.140562,76.540611
1841000000,14.5612,76.493332
1842000000,14.309179,76.191467
1843000000,13.873269,76.004486
1844000000,12.961248,75.876984
1845000000,13.044206,75.730865
1846000000,13.02632,75.679634
1847000000,12.656399,75.456795
1848000000,12.329534,75.464989
1849000000,11.999682,75.139366
1850000000,11.295095,74.997406
1851000000,10.438732,74.798866
1852000000,10.127067,74.875732
1853000000,10.18102,74.676353
1854000000,10.517959,74.556732
1855000000,9.6949034,74.304001
1856000000,8.7495556,74.026878
1857000000,8.579545,73.938271
1858000000,8.8536844,73.992439
1859000000,7.8641739,73.704094
1860000000,8.0235739,73.565681
1861000000,7.4638839,73.303993
1862000000,7.3066745,73.223099
1863000000,6.6385956,72.978935
1864000000,6.3175807,72.944077
1865000000,6.3168192,72.752075
1866000000,5.7540455,72.595085
1867000000,5.5068278,72.470497
1868000000,4.9362669,72.214394
1869000000,4.9375768,72.053391
1870000000,4.44665,71.946274
1871000000,4.4895692,71.730888
1872000000,3.5161233,71.630653
1873000000,3.4746149,71.551704
1874000000,3.121196,71.497223
1875000000,2.3643854,71.253006
1876000000,2.7322667,70.976219
1877000000,1.4716762,70.830147
1878000000,1.8370401,70.742218
1879000000,1.1424689,70.584221
1880000000,1.052843,70.569061
1881000000,0.59810251,70.40728
1882000000,0.4293063,70.064232
1883000000,-0.14117897,69.925072
1884000000,-0.37511039,69.898178
1885000000,-0.71721327,69.711205
1886000000,-0.72727901,69.532669
1887000000,-1.2710986,69.219284
1888000000,-1.3094431,69.201759
1889000000,-1.6929028,68.943878
1890000000,-2.4332058,68.976196
1891000000,-3.1411693,68.772148
1892000000,-2.7146342,68.699409
1893000000,-3.0387673,68.489372
1894000000,-3.6749551,68.25618
1895000000,-3.7652349,68.471725
1896000000,-4.336585,67.809753
1897000000,-4.286376,67.947617
1898000000,-4.7042613,67.52565
1899000000,-5.1194196,67.494499
1900000000,-5.4352403,67.385796
1901000000,-5.7600441,67.306198
1902000000,-6.286283,67.057556
1903000000,-6.8789153,66.777573
1904000000,-7.1235352,66.63485
1905000000,-7.1592226,66.767601
1906000000,-6.9249187,66.423615
1907000000,-8.2996531,66.350883
1908000000,-7.8120632,66.100403
1909000000,-8.4059391,66.037842
1910000000,-9.4482832,65.78495
1911000000,-9.0875998,65.496765
1912000000,-9.1406307,65.45916
1913000000,-9.9521685,65.162193
1914000000,-10.081111,65.149208
1915000000,-10.337244,65.047554
1916000000,-10.618341,64.785599
1917000000,-10.831452,64.773842
1918000000,-11.522244,64.590446
1919000000,-11.828057,64.416901
1920000000,-12.441536,64.171204
1921000000,-11.865585,64.251427
1922000000,-12.824217,63.679932
1923000000,-12.945611,63.852299
1924000000,-13.208406,63.617279
1925000000,-13.645905,63.495632
1926000000,-14.41778,63.311954
1927000000,-14.213571,63.18552
1928000000,-14.36342,62.985336
1929000000,-15.242691,62.713409
1930000000,-15.495281,62.718376
1931000000,-15.413312,62.446316
1932000000,-15.628807,62.371014
1933000000,-15.817737,62.377167
1934000000,-17.044376,62.0131
1935000000,-17.264202,62.103542
1936000000,-17.361719,61.604305
1937000000,-17.020632,61.558746
1938000000,-17.445063,61.56958
1939000000,-17.983229,61.353657
1940000000,-18.067816,61.136089
1941000000,-18.733816,60.906322
1942000000,-18.875715,60.839268
1943000000,-18.753958,60.82048
1944000000,-20.022291,60.497227
1945000000,-19.80987,60.459934
1946000000,-20.284252,60.280933
1947000000,-20.424417,60.150799
1948000000,-20.787821,59.955017
1949000000,-21.083427,59.764347
1950000000,-21.259113,59.637806
1951000000,-21.393141,59.608593
1952000000,-21.513353,59.400108
1953000000,-22.200623,59.358574
1954000000,-22.341394,59.008244
1955000000,-22.298719,58.894627
1956000000,-23.295012,58.586201
1957000000,-23.093103,58.49725
1958000000,-23.623604,58.306805
1959000000,-23.734804,58.208778
1960000000,-24.571007,58.317146
1961000000,-24.776571,57.829506
1962000000,-24.574814,57.893635
1963000000,-25.339645,57.524387
1964000000,-25.783241,57.43877
1965000000,-26.103188,57.237656
1966000000,-26.426983,57.201637
1967000000,-26.283792,57.105923
1968000000,-26.671978,56.898258
1969000000,-27.287073,56.599155
1970000000,-27.460249,56.608528
1971000000,-27.727913,56.441227
1972000000,-27.777033,56.217178
1973000000,-28.70779,55.837681
1974000000,-28.763033,56.142052
1975000000,-29.05719,55.670181
1976000000,-29.338398,55.654858
1977000000,-29.870918,55.475338
1978000000,-30.10116,55.013954
1979000000,-30.307934,55.12011
1980000000,-30.557894,54.834728
1981000000,-30.977877,54.658524
1982000000,-31.597187,54.597061
1983000000,-31.648792,54.409706
1984000000,-31.965675,54.407528
1985000000,-32.048302,54.253696
1986000000,-32.738796,54.263165
1987000000,-33.0863,53.967209
1988000000,-33.514313,53.822056
1989000000,-33.529053,53.707737
1990000000,-33.811802,53.480244
1991000000,-34.078152,53.44157
1992000000,-33.759163,53.225395
1993000000,-34.20504,53.089531
1994000000,-35.324821,52.882526
1995000000,-34.883968,52.6577
1996000000,-35.706829,52.603073
1997000000,-35.428871,52.495068
1998000000,-36.384258,52.1852
1999000000,-36.754932,52.114365
2000000000,-37.198421,51.867119
2001000000,-37.524349,51.770451
2002000000,-37.776493,51.485008
2003000000,-37.398384,51.476646
2004000000,-38.201126,51.215126
2005000000,-38.581722,51.198902
2006000000,-38.963421,50.939068
2007000000,-39.643547,50.719269
2008000000,-39.076141,50.659237
2009000000,-39.506794,50.465248
2010000000,-40.069798,50.20779
2011000000,-40.102539,50.139072
2012000000,-40.679676,50.006191
2013000000,-40.764683,49.872475
2014000000,-41.202858,49.506081
2015000000,-41.317566,49.626289
2016000000,-41.389912,49.489174
2017000000,-42.098637,49.337921
2018000000,-42.216228,49.305534
2019000000,-42.966995,48.899227
2020000000,-43.339455,49.006012
2021000000,-43.443573,48.548706
2022000000,-43.790554,48.516335
2023000000,-44.258389,48.334358
2024000000,-44.164593,48.259109
2025000000,-44.772251,48.020859
2026000000,-45.057999,47.986191
2027000000,-46.08168,47.579044
2028000000,-45.876629,47.417095
2029000000,-46.180065,47.609787
2030000000,-46.48032,47.399174
2031000000,-46.764633,46.99971
2032000000,-46.963932,47.18158
2033000000,-47.288479,46.904411
2034000000,-47.736141,46.744896
2035000000,-48.15477,46.340057
2036000000,-48.159531,46.338242
2037000000,-48.480774,46.144245
2038000000,-49.378319,46.024677
2039000000,-49.163189,45.853077
2040000000,-49.093254,45.727478
2041000000,-50.068569,45.374409
2042000000,-49.916901,45.51712
2043000000,-50.507168,45.281933
2044000000,-50.447834,45.011307
2045000000,-51.1614,45.048546
2046000000,-50.955589,44.875118
2047000000,-51.612686,44.587601
2048000000,-52.113335,44.706203
2049000000,-52.570137,44.238125
2050000000,-52.673489,44.2906
2051000000,-53.194485,44.132248
2052000000,-52.908005,43.917103
2053000000,-53.404453,43.615456
2054000000,-54.163971,43.561543
2055000000,-54.176285,43.485817
2056000000,-54.302761,43.492485
2057000000,-54.869186,43.059406
2058000000,-55.042282,42.935257
2059000000,-55.585087,42.599266
2060000000,-56.078835,42.712162
2061000000,-56.273159,42.367588
2062000000,-56.226482,42.410252
2063000000,-56.999985,42.178745
2064000000,-57.220413,41.88459
2065000000,-57.216953,41.87574
2066000000,-57.566364,41.81781
2067000000,-58.184101,41.613495
2068000000,-58.002159,41.438213
2069000000,-58.548901,41.362621
2070000000,-58.819077,41.104969
2071000000,-59.461075,40.902096
2072000000,-59.868774,40.717823
2073000000,-60.281544,40.505283
2074000000,-60.01556,40.625477
2075000000,-60.915787,40.425446
2076000000,-60.815418,40.185497
2077000000,-61.03059,40.273979
2078000000,-61.533142,40.028698
2079000000,-62.323898,39.479954
2080000000,-62.138714,39.681355
2081000000,-62.632851,39.596848
2082000000,-63.115128,39.257206
2083000000,-63.614525,39.056595
2084000000,-64.156342,38.818176
2085000000,-63.6446,39.016254
2086000000,-64.688156,38.633575
2087000000,-64.317139,38.636517
2088000000,-64.521133,38.540997
2089000000,-65.510834,38.096195
2090000000,-65.68129,38.248096
2091000000,-66.199448,37.794415
2092000000,-66.655998,37.747589
2093000000,-66.101257,37.787235
2094000000,-66.867744,37.440723
2095000000,-67.540909,37.289803
2096000000,-67.670067,37.01564
2097000000,-67.643776,37.091442
2098000000,-68.685654,36.921165
2099000000,-68.901817,36.676865
2100000000,-68.842003,36.436268
2101000000,-69.530006,36.4828
2102000000,-69.708908,36.229984
2103000000,-70.066368,36.002399
2104000000,-70.74379,35.870808
2105000000,-70.781281,35.646275
2106000000,-71.276123,35.712425
2107000000,-71.314644,35.548222
2108000000,-71.622543,35.305641
2109000000,-72.286194,35.060135
2110000000,-72.467628,35.004982
2111000000,-72.963615,34.908707
2112000000,-73.184814,34.693687
2113000000,-73.413437,34.425255
2114000000,-73.981812,34.261665
2115000000,-73.898674,34.135571
2116000000,-74.249825,34.085476
2117000000,-74.250137,34.098186
2118000000,-75.084602,33.583969
2119000000,-75.048683,33.731171
2120000000,-75.871086,33.470829
2121000000,-76.532715,33.103313
2122000000,-76.524361,33.050823
2123000000,-77.010315,32.906364
2124000000,-77.195724,32.920013
2125000000,-77.697464,32.597206
2126000000,-77.861115,32.555008
2127000000,-78.132515,32.487862
2128000000,-78.64563,32.321747
2129000000,-78.580879,32.21339
2130000000,-79.530029,31.897429
2131000000,-79.721725,31.753
2132000000,-80.030159,31.61326
2133000000,-80.793922,31.451727
2134000000,-81.120438,31.225231
2135000000,-81.272858,31.234299
2136000000,-81.258934,31.127434
2137000000,-82.226334,30.726713
2138000000,-82.298477,30.61739
2139000000,-83.113747,30.36754
2140000000,-83.257401,30.254398
2141000000,-83.775612,30.098509
2142000000,-83.820358,30.001143
2143000000,-84.067543,29.870638
2144000000,-84.603569,29.747314
2145000000,-84.871292,29.633043
2146000000,-85.070496,29.359549
2147000000,-85.090118,29.384619
2148000000,-86.211502,29.020603
2149000000,-86.338356,28.939953
2150000000,-86.087296,28.879328
2151000000,-87.168488,28.725033
2152000000,-86.9608,28.788572
2153000000,-87.71019,28.46682
2154000000,-88.156876,28.214371
2155000000,-88.702026,28.127346
2156000000,-88.674171,27.80312
2157000000,-89.38517,27.742321
2158000000,-89.254341,27.746038
2159000000,-90.092743,27.28126
2160000000,-90.320625,27.138319
2161000000,-90.526054,27.159519
2162000000,-91.151871,27.057352
2163000000,-91.866905,26.784412
2164000000,-91.590508,26.933903
2165000000,-92.333427,26.459728
2166000000,-92.630074,26.297125
2167000000,-93.0653,26.308754
2168000000,-93.244781,26.146418
2169000000,-93.675301,26.094296
2170000000,-94.030563,25.743101
2171000000,-94.577599,25.727345
2172000000,-94.731354,25.500916
2173000000,-95.141327,25.28694
2174000000,-95.865761,25.108564
2175000000,-96.365372,24.913824
2176000000,-97.172455,24.59049
2177000000,-96.857933,24.710567
2178000000,-97.039619,24.493275
2179000000,-97.861649,24.36507
2180000000,-97.960342,24.281553
2181000000,-99.25486,23.919336
2182000000,-99.27739,23.804602
2183000000,-99.686806,23.738119
2184000000,-100.03391,23.718391
2185000000,-100.02213,23.519999
2186000000,-100.48721,23.348373
2187000000,-100.81747,23.095779
2188000000,-101.14595,23.151653
2189000000,-102.09142,22.844261
2190000000,-101.80722,22.821529
2191000000,-102.91431,22.434752
2192000000,-103.68202,22.227758
2193000000,-103.66629,22.145256
2194000000,-103.82744,22.295017
2195000000,-104.71877,21.841257
2196000000,-105.03738,21.610363
2197000000,-105.32761,21.650423
2198000000,-105.98923,21.405895
2199000000,-106.57285,21.257345
2200000000,-106.71391,21.121119
2201000000,-107.25739,20.940804
2202000000,-108.13392,20.746672
2203000000,-107.84705,20.783522
2204000000,-108.17068,20.558378
2205000000,-109.53568,20.305874
2206000000,-109.4254,20.320761
2207000000,-109.65319,20.134357
2208000000,-110.47108,19.871262
2209000000,-110.87083,19.706369
2210000000,-111.01659,19.653326
2211000000,-111.98912,19.313658
2212000000,-112.13307,19.102703
2213000000,-112.49094,19.063766
2214000000,-112.78064,19.046583
2215000000,-113.73241,18.653416
2216000000,-113.67243,18.592007
2217000000,-113.85904,18.513647
2218000000,-114.20019,18.511629
2219000000,-115.21439,18.135946
2220000000,-115.34865,18.239939
2221000000,-115.58376,17.895235
2222000000,-115.91763,17.947657
2223000000,-116.28472,17.554268
2224000000,-116.70611,17.332966
2225000000,-117.87974,17.092768
2226000000,-117.98174,17.009356
2227000000,-118.31075,17.025694
2228000000,-118.84965,16.827879
2229000000,-119.40787,16.688595
2230000000,-119.61221,16.433374
2231000000,-120.25195,16.228104
2232000000,-120.48746,16.125113
2233000000,-120.78217,16.141924
2234000000,-121.7602,15.716701
2235000000,-121.80772,15.715495
2236000000,-122.23843,15.744568
2237000000,-122.99735,15.31145
2238000000,-123.67425,15.156994
2239000000,-124.54931,14.93795
2240000000,-124.15611,14.992789
2241000000,-124.92818,14.683624
2242000000,-125.26116,14.687486
2243000000,-126.05677,14.342532
2244000000,-126.22932,14.352866
2245000000,-126.58147,14.156513
2246000000,-127.39735,14.055213
2247000000,-127.49181,13.936744
2248000000,-128.31383,13.77299
2249000000,-128.88084,13.41502
2250000000,-128.7325,13.41297
2251000000,-129.94617,13.176009
2252000000,-130.38286,13.172341
2253000000,-130.99045,12.796914
2254000000,-131.14053,12.72669
2255000000,-131.46436,12.729724
2256000000,-132.6458,12.352042
2257000000,-132.77145,12.492987
2258000000,-133.1711,12.116321
2259000000,-133.85199,11.895114
2260000000,-133.14871,12.149078
2261000000,-134.42365,11.815502
2262000000,-134.69196,11.591488
2263000000,-136.03954,11.204679
2264000000,-135.17924,11.300959
2265000000,-136.52238,10.938232
2266000000,-136.5873,10.956974
2267000000,-137.5508,10.689467
2268000000,-137.05267,10.825639
2269000000,-138.67249,10.365885
2270000000,-138.87785,10.235414
2271000000,-138.31718,10.382528
2272000000,-139.24944,10.108135
2273000000,-139.91483,9.9643593
2274000000,-139.98149,9.8723564
2275000000,-141.32722,9.4327164
2276000000,-141.81293,9.2484846
2277000000,-142.42119,9.1999226
2278000000,-142.54422,9.0868397
2279000000,-143.04897,8.996645
2280000000,-143.34221,8.8039875
2281000000,-144.46875,8.4343596
2282000000,-144.44666,8.5461779
2283000000,-145.27739,8.2366409
2284000000,-145.68965,8.1789732
2285000000,-146.00737,8.0709562
2286000000,-146.80045,7.8012815
2287000000,-147.95161,7.5341845
2288000000,-147.61024,7.5144515
2289000000,-148.47871,7.226902
2290000000,-148.63545,7.1811337
2291000000,-149.09097,7.094645
2292000000,-149.52805,6.8546629
2293000000,-150.20737,6.8482699
2294000000,-150.0887,6.8868403
2295000000,-151.00079,6.5928674
2296000000,-151.76878,6.3627262
2297000000,-152.80168,6.0873375
2298000000,-153.02692,6.0015187
2299000000,-153.72588,5.6809769
2300000000,-154.37624,5.6160707
2301000000,-154.7681,5.6271696
2302000000,-155.1403,5.5107436
2303000000,-156.3047,4.9732032
2304000000,-156.13441,5.0333652
2305000000,-156.51645,5.0659814
2306000000,-157.83813,4.7126746
2307000000,-158.1532,4.5361295
2308000000,-157.93982,4.6043825
2309000000,-158.86598,4.3462119
2310000000,-159.851,3.9795341
2311000000,-159.9325,3.9145932
2312000000,-160.36678,3.996135
2313000000,-161.24553,3.6216993
2314000000,-161.22809,3.5898404
2315000000,-161.74153,3.383199
2316000000,-162.72116,3.005281
2317000000,-163.32643,2.898838
2318000000,-163.97766,2.5538373
2319000000,-163.7442,2.8073988
2320000000,-164.93297,2.4243305
2321000000,-164.88448,2.5614479
2322000000,-166.0752,2.0249922
2323000000,-165.72949,2.2045255
2324000000,-166.17688,2.0430968
2325000000,-166.77646,1.9111428
2326000000,-167.55779,1.7757096
2327000000,-168.04831,1.4123762
2328000000,-169.10599,1.152986
2329000000,-169.30319,1.1782945
2330000000,-169.81377,1.0127456
2331000000,-170.2923,0.75756139
2332000000,-170.44609,0.87127393
2333000000,-171.5787,0.5995065
2334000000,-171.43408,0.51489186
2335000000,-172.28262,0.27571175
2336000000,-173.08748,-0.11160966
2337000000,-173.02063,0.020225126
2338000000,-173.95569,-0.20904292
2339000000,-174.30646,-0.44434494
2340000000,-174.62723,-0.34882802
2341000000,-175.86366,-0.84872282
2342000000,-176.35104,-0.97549307
2343000000,-177.47812,-1.0292389
2344000000,-177.42604,-1.3687983
2345000000,-177.66701,-1.302664
2346000000,-178.06387,-1.3748503
2347000000,-178.52486,-1.6700339
2348000000,-179.4778,-1.9205551
2349000000,-179.89511,-1.9907455
2350000000,179.62468,-2.136678
2351000000,179.1089,-2.1611476
2352000000,178.45148,-2.4638259
2353000000,177.95232,-2.5525782
2354000000,178.07133,-2.364526
2355000000,176.75789,-3.1131392
2356000000,176.68163,-2.9920533
2357000000,175.75604,-3.3467002
2358000000,175.35295,-3.3822005
2359000000,175.23305,-3.4516582
2360000000,174.59792,-3.572114
2361000000,173.40959,-3.8279967
2362000000,173.5323,-3.7830203
2363000000,172.87216,-3.9885607
2364000000,172.12476,-4.247654
2365000000,171.21269,-4.5548596
2366000000,170.84721,-4.6555619
2367000000,170.69859,-4.7219229
2368000000,170.24777,-4.7577209
2369000000,169.58716,-5.0633497
2370000000,169.39569,-5.2982149
2371000000,168.70871,-5.1355653
2372000000,168.67427,-5.4537101
2373000000,167.9644,-5.6731944
2374000000,167.19197,-5.9188132
2375000000,166.57568,-6.0320044
2376000000,166.02875,-6.2004395
2377000000,165.59085,-6.3442602
2378000000,165.01141,-6.3811784
2379000000,165.2294,-6.3228068
2380000000,163.96671,-6.9065776
2381000000,163.63483,-6.9874887
2382000000,162.96529,-7.1943083
2383000000,162.12625,-7.42205
2384000000,161.96971,-7.5052781
2385000000,161.72029,-7.6828361
2386000000,162.11313,-7.5162773
2387000000,160.52989,-7.8873482
2388000000,160.42853,-7.9148617
2389000000,159.72627,-8.3811951
2390000000,159.29202,-8.1890459
2391000000,158.68385,-8.5363369
2392000000,158.61301,-8.6837082
2393000000,157.60379,-8.8812666
2394000000,157.33131,-8.9999762
2395000000,157.36589,-9.0124683
2396000000,155.95462,-9.3944902
2397000000,155.33897,-9.3286819
2398000000,155.2894,-9.4274225
2399000000,154.76555,-9.7802486
2400000000,154.36189,-9.9909754
2401000000,153.49979,-10.16925
2402000000,153.53717,-10.177397
2403000000,152.95854,-10.336418
2404000000,152.1468,-10.557412
2405000000,151.73302,-10.834872
2406000000,151.672,-10.651083
2407000000,150.47356,-10.957075
2408000000,149.99327,-11.37087
2409000000,149.69595,-11.340552
2410000000,149.41898,-11.596232
2411000000,149.11316,-11.536547
2412000000,148.33139,-11.755156
2413000000,147.6608,-11.892781
2414000000,147.24908,-12.122244
2415000000,146.41599,-12.371569
2416000000,146.33359,-12.350904
2417000000,145.60786,-12.573679
2418000000,145.44025,-12.522655
2419000000,145.57176,-12.790369
2420000000,144.18649,-12.925339
2421000000,143.61998,-13.18868
2422000000,144.07712,-13.515643
2423000000,143.17839,-13.532676
2424000000,142.74654,-13.781575
2425000000,142.30025,-13.724578
2426000000,141.68219,-14.10566
2427000000,141.52011,-13.968184
2428000000,141.04729,-14.24578
2429000000,140.78459,-14.315928
2430000000,140.53867,-14.568717
2431000000,139.39847,-14.661421
2432000000,138.67189,-14.917876
2433000000,138.90254,-15.088449
2434000000,138.72681,-15.120356
2435000000,137.44278,-15.31591
2436000000,137.89174,-15.496199
2437000000,137.40163,-15.567581
2438000000,136.85066,-15.633616
2439000000,135.7773,-16.074785
2440000000,135.48712,-16.254492
2441000000,135.09167,-16.250856
2442000000,134.30356,-16.441238
2443000000,134.44618,-16.63921
2444000000,134.04878,-16.666552
2445000000,132.79506,-16.924587
2446000000,132.91161,-17.188536
2447000000,132.53465,-17.179031
2448000000,132.16656,-17.243095
2449000000,131.04376,-17.610039
2450000000,131.20183,-17.699224
2451000000,130.80772,-17.690609
2452000000,130.05875,-18.100939
2453000000,130.01727,-17.946009
2454000000,129.1503,-18.306194
2455000000,128.94484,-18.408987
2456000000,128.50026,-18.477619
2457000000,128.12369,-18.726376
2458000000,127.45831,-18.932556
2459000000,126.90907,-18.877375
2460000000,127.10813,-19.125046
2461000000,126.42273,-19.555481
2462000000,126.00597,-19.502085
2463000000,125.29659,-19.859409
2464000000,124.73663,-20.11208
2465000000,124.88886,-19.933933
2466000000,123.92451,-20.209932
2467000000,123.90771,-20.313353
2468000000,123.6042,-20.40596
2469000000,122.92723,-20.523972
2470000000,122.53712,-20.772774
2471000000,122.35841,-20.784048
2472000000,122.20434,-21.032928
2473000000,121.53517,-21.440144
2474000000,121.36464,-21.370171
2475000000,120.70543,-21.543615
2476000000,120.34702,-21.699377
2477000000,119.88418,-21.875427
2478000000,119.59847,-22.040144
2479000000,119.05237,-22.243868
2480000000,118.85873,-22.287416
2481000000,118.1367,-22.566431
2482000000,118.26007,-22.608854
2483000000,117.69498,-22.644228
2484000000,117.18828,-22.986778
2485000000,116.76292,-23.152697
2486000000,116.39058,-23.143116
2487000000,115.88586,-23.341932
2488000000,115.65596,-23.658352
2489000000,115.6049,-23.484495
2490000000,115.00568,-23.866514
2491000000,114.94317,-23.892086
2492000000,114.15614,-24.342615
2493000000,113.57037,-24.392588
2494000000,113.4402,-24.410709
2495000000,112.91572,-24.78688
2496000000,112.6664,-24.926609
2497000000,112.27579,-25.026308
2498000000,111.4304,-25.155052
2499000000,111.30216,-25.344982
2500000000,111.15689,-25.46752
2501000000,110.13689,-25.630373
2502000000,110.31572,-25.720182
2503000000,110.05624,-25.862038
2504000000,109.67198,-26.058952
2505000000,109.02933,-26.176491
2506000000,108.9227,-26.205484
2507000000,108.02101,-26.567467
2508000000,107.93411,-26.806278
2509000000,108.20456,-26.578745
2510000000,107.12039,-26.786396
2511000000,106.69717,-27.12998
2512000000,106.93399,-27.338093
2513000000,106.39306,-27.408745
2514000000,105.89056,-27.47253
2515000000,105.31317,-27.938177
2516000000,104.92795,-27.741085
2517000000,105.01491,-27.994715
2518000000,104.45878,-28.305563
2519000000,104.31022,-28.341091
2520000000,103.51841,-28.642849
2521000000,103.46242,-28.688133
2522000000,102.98574,-28.643921
2523000000,102.71389,-29.069941
2524000000,102.14521,-29.232527
2525000000,101.79757,-29.627134
2526000000,101.41965,-29.495981
2527000000,101.20324,-29.617575
2528000000,101.2207,-29.793247
2529000000,100.35894,-29.938103
2530000000,100.29916,-29.944874
2531000000,99.625175,-30.142872
2532000000,99.513062,-30.324196
2533000000,99.272972,-30.549257
2534000000,98.755859,-30.559841
2535000000,98.434593,-30.838507
2536000000,98.124283,-30.853542
2537000000,97.805817,-30.895931
2538000000,97.327026,-31.2547
2539000000,97.2556,-31.408895
2540000000,96.32415,-31.546585
2541000000,96.326187,-31.684343
2542000000,96.237106,-31.876596
2543000000,95.529907,-32.421696
2544000000,95.538361,-32.372883
2545000000,95.272087,-32.390205
2546000000,94.557999,-32.629383
2547000000,94.641716,-32.682453
2548000000,94.258812,-33.010853
2549000000,93.678474,-33.106796
2550000000,93.350754,-33.103947
2551000000,93.367432,-33.162086
2552000000,92.818398,-33.533051
2553000000,92.290939,-33.704872
2554000000,91.605476,-34.033581
2555000000,91.842224,-33.964752
2556000000,91.62812,-33.924274
2557000000,90.959839,-34.14846
2558000000,90.836746,-34.334122
2559000000,90.407631,-34.6091
2560000000,90.12899,-34.733143
2561000000,89.851532,-34.741131
2562000000,89.49044,-35.03714
2563000000,89.306313,-35.103333
2564000000,89.06086,-35.380627
2565000000,88.494598,-35.359612
2566000000,88.178497,-35.656445
2567000000,87.729042,-35.865406
2568000000,87.290741,-35.852257
2569000000,87.628532,-36.16861
2570000000,86.869827,-36.14378
2571000000,86.385567,-36.504192
2572000000,86.139824,-36.724327
2573000000,85.852272,-36.470409
2574000000,85.497177,-36.747284
2575000000,85.355408,-37.065128
2576000000,84.991638,-37.368549
2577000000,84.384369,-37.323433
2578000000,84.218201,-37.619884
2579000000,83.829185,-37.575531
2580000000,83.575699,-37.599895
2581000000,83.288811,-37.79472
2582000000,83.0355,-38.294815
2583000000,82.389595,-38.576759
2584000000,82.297638,-38.559261
2585000000,82.11805,-38.585674
2586000000,81.93103,-38.80814
2587000000,81.388512,-38.872646
2588000000,81.281387,-38.923939
2589000000,81.157402,-39.31424
2590000000,80.587891,-39.322777
2591000000,80.119553,-39.457092
2592000000,79.981735,-39.680786
2593000000,79.828209,-39.739655
2594000000,79.56675,-39.985851
2595000000,79.220032,-40.28376
2596000000,78.691605,-40.324883
2597000000,78.572899,-40.662483
2598000000,78.357895,-40.550522
2599000000,77.717476,-40.726532
2600000000,77.466431,-40.74757
2601000000,77.342743,-41.089149
2602000000,76.909409,-41.092434
2603000000,76.49659,-41.619972
2604000000,76.300491,-41.577797
2605000000,76.375053,-41.767555
2606000000,75.778709,-41.906326
2607000000,75.551399,-41.90377
2608000000,75.221169,-42.045609
2609000000,75.060158,-42.262966
2610000000,74.521294,-42.421185
2611000000,74.146187,-42.661648
2612000000,73.908318,-42.74305
2613000000,73.827881,-42.939934
2614000000,73.425735,-43.079517
2615000000,73.055191,-43.301094
2616000000,72.918785,-43.374924
2617000000,72.538109,-43.420177
2618000000,72.109245,-43.683277
2619000000,72.049759,-43.774967
2620000000,71.732597,-44.088928
2621000000,71.295311,-44.236912
2622000000,70.748253,-44.185211
2623000000,70.808151,-44.469635
2624000000,70.166069,-44.540421
2625000000,69.850533,-44.766483
2626000000,69.795952,-45.119381
2627000000,69.863258,-45.082535
2628000000,69.361923,-45.28616
2629000000,68.665039,-45.299664
2630000000,68.376411,-45.375504
2631000000,68.268883,-45.620861
2632000000,67.651718,-45.854382
2633000000,68.08049,-45.980881
2634000000,67.293266,-46.129505
2635000000,66.949249,-46.358643
2636000000,66.845222,-46.334991
2637000000,66.550713,-46.484058
2638000000,66.52919,-46.744984
2639000000,65.815109,-47.089642
2640000000,65.860626,-47.145275
2641000000,65.432175,-47.215237
2642000000,65.19239,-47.128345
2643000000,65.014664,-47.596397
2644000000,64.746849,-47.680412
2645000000,64.378822,-47.82637
2646000000,63.863281,-48.060192
2647000000,63.436989,-48.28619
2648000000,63.637299,-48.152962
2649000000,62.973892,-48.634651
2650000000,62.722565,-48.638363
2651000000,62.753448,-48.773621
2652000000,62.54763,-48.897808
2653000000,62.154659,-49.111172
2654000000,61.934101,-49.190685
2655000000,61.157829,-49.383064
2656000000,60.859882,-49.585022
2657000000,60.780182,-49.506638
2658000000,60.687309,-49.806705
2659000000,60.056107,-49.990246
2660000000,59.670506,-50.286091
2661000000,59.375122,-50.686573
2662000000,59.38726,-50.415974
2663000000,58.91996,-50.467907
2664000000,58.855667,-50.778061
2665000000,58.672871,-50.756756
2666000000,58.259151,-51.058342
2667000000,57.961102,-51.306465
2668000000,57.885307,-51.615074
2669000000,57.168766,-51.406376
2670000000,56.701077,-51.741112
2671000000,56.648319,-51.872272
2672000000,56.39098,-52.086605
2673000000,56.179649,-52.194839
2674000000,55.841789,-52.300938
2675000000,55.578922,-52.374084
2676000000,55.345909,-52.573914
2677000000,54.956772,-52.651966
2678000000,54.683022,-52.928459
2679000000,54.110165,-53.001976
2680000000,53.964581,-53.181019
2681000000,53.941673,-53.424534
2682000000,53.467655,-53.722076
2683000000,53.779976,-53.793953
2684000000,53.132545,-53.749886
2685000000,52.675056,-53.961399
2686000000,52.676456,-54.312645
2687000000,52.444099,-54.271355
2688000000,52.044804,-54.558952
2689000000,51.913589,-54.584248
2690000000,51.703915,-54.715721
2691000000,51.194805,-54.938728
2692000000,50.749168,-55.051838
2693000000,50.828484,-55.349449
2694000000,50.535229,-55.391621
2695000000,50.114365,-55.563938
2696000000,49.593227,-55.754147
2697000000,49.384438,-55.654232
2698000000,49.214977,-56.173416
2699000000,48.991726,-56.131577
2700000000,48.911674,-56.228661
2701000000,48.324158,-56.260857
2702000000,47.701881,-56.639931
2703000000,48.102638,-56.765163
2704000000,47.407074,-56.912773
2705000000,47.126717,-57.059277
2706000000,47.561085,-57.124863
2707000000,46.579239,-57.540432
2708000000,46.400356,-57.768047
2709000000,46.052361,-57.950195
2710000000,45.669487,-57.840694
2711000000,45.76239,-57.930386
2712000000,45.578323,-58.011856
2713000000,45.341759,-58.24424
2714000000,44.745739,-58.494698
2715000000,44.657097,-58.526722
2716000000,44.398357,-58.749825
2717000000,44.234318,-58.972904
2718000000,43.769279,-58.993355
2719000000,43.767509,-59.265831
2720000000,43.343086,-59.221722
2721000000,43.051266,-59.790737
2722000000,42.808315,-59.569885
2723000000,42.684441,-59.755817
2724000000,42.099594,-59.948795
2725000000,41.952114,-60.027809
2726000000,41.568325,-60.243443
2727000000,41.135292,-60.441929
2728000000,40.919224,-60.580883
2729000000,40.749649,-60.696926
2730000000,40.29372,-60.876732
2731000000,39.727657,-61.036079
2732000000,39.975784,-61.247326
2733000000,39.813911,-61.399612
2734000000,39.495239,-61.494209
2735000000,38.92313,-61.717384
2736000000,38.677299,-61.983749
2737000000,39.030907,-61.894402
2738000000,38.386463,-62.145958
2739000000,38.089672,-62.145733
2740000000,37.453171,-62.457512
2741000000,37.626427,-62.475822
2742000000,37.226486,-62.636379
2743000000,36.849796,-62.887703
2744000000,36.429779,-63.198792
2745000000,36.56002,-63.247444
2746000000,36.02771,-63.522228
2747000000,36.056107,-63.685749
2748000000,35.58847,-63.585857
2749000000,35.655342,-63.849518
2750000000,35.36026,-63.88121
2751000000,34.751652,-64.145699
2752000000,35.139172,-64.300346
2753000000,34.496208,-64.45919
2754000000,33.924801,-64.686554
2755000000,33.820469,-64.876862
2756000000,33.988235,-65.008492
2757000000,33.302513,-64.996849
2758000000,32.875793,-65.154182
2759000000,32.809753,-65.143623
2760000000,32.911213,-65.45005
2761000000,32.278591,-65.656616
2762000000,32.009636,-65.723167
2763000000,32.118698,-65.830727
2764000000,31.399708,-66.206963
2765000000,31.219162,-66.160172
2766000000,30.962149,-66.548325
2767000000,30.578094,-66.59745
2768000000,30.452852,-66.808594
2769000000,30.023397,-66.951767
2770000000,30.062124,-66.920471
2771000000,29.9618,-67.212532
2772000000,29.547365,-67.403503
2773000000,29.147461,-67.538826
2774000000,28.638754,-67.641563
2775000000,28.875521,-67.668449
2776000000,28.383192,-67.921066
2777000000,28.211432,-68.164024
2778000000,27.587654,-68.235573
2779000000,27.522821,-68.417549
2780000000,27.276758,-68.550682
2781000000,27.139795,-68.569489
2782000000,26.768911,-68.856071
2783000000,25.946714,-69.106636
2784000000,26.102095,-69.329758
2785000000,25.912853,-69.367638
2786000000,25.58951,-69.233963
2787000000,25.476942,-69.795929
2788000000,25.126259,-70.00502
2789000000,25.054819,-69.87101
2790000000,24.516661,-69.977974
2791000000,24.144653,-70.089104
2792000000,23.959854,-70.40815
2793000000,23.186634,-70.664024
2794000000,23.685404,-70.677216
2795000000,23.597942,-70.948296
2796000000,22.721775,-70.956215
2797000000,22.604935,-71.193886
2798000000,22.431097,-71.251686
2799000000,22.334209,-71.419365
2800000000,21.854389,-71.70446
2801000000,21.661697,-71.711258
2802000000,21.336603,-71.814522
2803000000,21.072704,-72.126228
2804000000,20.721891,-72.268501
2805000000,20.225151,-72.518295
2806000000,20.670633,-72.600334
2807000000,20.02354,-72.840439
2808000000,20.112619,-72.806175
2809000000,19.424446,-72.901337
2810000000,19.226765,-73.218887
2811000000,18.890572,-73.22892
2812000000,18.52174,-73.401619
2813000000,18.265991,-73.656708
2814000000,18.329626,-73.785301
2815000000,17.942982,-73.981377
2816000000,17.722036,-74.177551
2817000000,17.294662,-74.124352
2818000000,16.895082,-74.374931
2819000000,16.792454,-74.644951
2820000000,16.654013,-74.650955
2821000000,16.245285,-74.886833
2822000000,16.195915,-74.716118
2823000000,15.867668,-75.25914
2824000000,15.44543,-75.471924
2825000000,14.941882,-75.651161
2826000000,14.855045,-75.615967
2827000000,14.894283,-75.708649
2828000000,14.110313,-76.090393
2829000000,14.075183,-76.126907
2830000000,13.768712,-76.194809
2831000000,13.769684,-76.326385
2832000000,13.226176,-76.608337
2833000000,12.822729,-76.700218
2834000000,12.730576,-76.817238
2835000000,12.293704,-76.928604
2836000000,12.390096,-77.248016
2837000000,11.696146,-77.368401
2838000000,11.287362,-77.418617
2839000000,11.348135,-77.573204
2840000000,11.142467,-77.752937
2841000000,10.906284,-77.885712
2842000000,10.752083,-78.00354
2843000000,10.224229,-78.236984
2844000000,9.7340574,-78.492836
2845000000,9.6370115,-78.556992
2846000000,9.4760094,-78.616096
2847000000,8.8253298,-78.882576
2848000000,8.755702,-79.028343
2849000000,8.4376059,-79.199722
2850000000,8.1845322,-79.459328
2851000000,7.9147525,-79.423355
2852000000,7.7553391,-79.609879
2853000000,7.7326894,-79.774994
2854000000,7.2310753,-79.723717
2855000000,6.7988205,-80.076912
2856000000,6.5164557,-80.188904
2857000000,6.7327509,-80.383957
2858000000,6.1922116,-80.640137
2859000000,6.3651633,-80.624039
2860000000,5.5155196,-80.830246
2861000000,5.5899506,-81.059082
2862000000,5.260201,-81.195473
2863000000,4.5366149,-81.52285
2864000000,4.450458,-81.409592
2865000000,4.442596,-81.535667
2866000000,4.1902361,-81.661438
2867000000,3.4662848,-82.03775
2868000000,3.1506429,-82.204384
2869000000,3.1070712,-82.250298
2870000000,2.8078008,-82.263557
2871000000,2.4271722,-82.645943
2872000000,1.9084582,-83.070526
2873000000,1.8315947,-82.933754
2874000000,1.9978803,-82.829575
2875000000,1.4441388,-83.301201
2876000000,1.0544106,-83.23571
2877000000,0.79816461,-83.560768
2878000000,0.24952488,-83.698502
2879000000,0.03800239,-83.715302
2880000000,-0.61900663,-84.225929
2881000000,-0.11525454,-84.035553
2882000000,-0.36455858,-84.323967
2883000000,-0.54840773,-84.301781
2884000000,-1.0780658,-84.597969
2885000000,-1.5823981,-84.697884
2886000000,-1.7890488,-84.952629
2887000000,-1.7136308,-85.106506
2888000000,-2.073504,-85.147346
2889000000,-2.5700121,-85.567177
2890000000,-2.2343729,-85.467087
2891000000,-3.5041854,-85.688499
2892000000,-3.2071772,-85.803711
2893000000,-3.4962156,-86.007195
2894000000,-3.7006252,-86.083275
2895000000,-4.127151,-86.277962
2896000000,-4.5755997,-86.454811
2897000000,-5.1837611,-86.56559
2898000000,-5.0839314,-86.679993
2899000000,-5.2936873,-87.064201
2900000000,-5.3626757,-86.977951
2901000000,-5.8860168,-87.170029
2902000000,-6.1404357,-87.228516
2903000000,-6.2423329,-87.368805
2904000000,-6.6472902,-87.648277
2905000000,-7.2571058,-87.749527
2906000000,-7.2759924,-87.923866
2907000000,-7.5952902,-88.058998
2908000000,-8.2332573,-88.305893
2909000000,-7.9994888,-88.363441
2910000000,-8.2887392,-88.511017
2911000000,-8.4265738,-88.659554
2912000000,-8.8949585,-88.927742
2913000000,-9.2831707,-88.976616
2914000000,-9.2861433,-89.050087
2915000000,-10.021332,-89.577248
2916000000,-10.421705,-89.611153
2917000000,-10.413696,-89.672508
2918000000,-10.666924,-89.740364
2919000000,-10.974487,-89.859764
2920000000,-11.533942,-90.157936
2921000000,-11.333985,-90.512398
2922000000,-11.475398,-90.419373
2923000000,-11.824655,-90.402359
2924000000,-12.428797,-90.753403
2925000000,-12.413431,-90.835922
2926000000,-12.630944,-91.007988
2927000000,-12.962708,-91.050011
2928000000,-12.961635,-91.111656
2929000000,-14.179221,-91.61422
2930000000,-13.884007,-91.62809
2931000000,-14.161449,-91.816414
2932000000,-14.652822,-91.93129
2933000000,-15.037133,-91.985619
2934000000,-14.781109,-92.114922
2935000000,-15.408994,-92.361794
2936000000,-15.842915,-92.623413
2937000000,-15.653293,-92.701721
2938000000,-16.358753,-92.82177
2939000000,-16.469681,-92.886429
2940000000,-16.744215,-93.4142
2941000000,-17.315432,-93.365547
2942000000,-17.696123,-93.670723
2943000000,-17.800081,-93.641235
2944000000,-18.238495,-93.876152
2945000000,-18.988985,-94.183083
2946000000,-18.928049,-93.954865
2947000000,-19.1068,-94.1399
2948000000,-19.344841,-94.425201
2949000000,-19.727152,-94.912743
2950000000,-20.237606,-94.768799
2951000000,-20.134567,-94.771202
2952000000,-20.446325,-95.266891
2953000000,-21.101536,-95.271072
2954000000,-20.738384,-95.350693
2955000000,-21.502174,-95.431076
2956000000,-21.904064,-95.74324
2957000000,-21.753601,-95.811852
2958000000,-22.280571,-95.953461
2959000000,-22.426693,-96.248947
2960000000,-22.750626,-96.259026
2961000000,-22.705439,-96.31913
2962000000,-22.802671,-96.442604
2963000000,-23.417448,-96.853317
2964000000,-23.884853,-96.858147
2965000000,-23.729536,-97.074142
2966000000,-24.503704,-97.180847
2967000000,-24.923367,-97.43187
2968000000,-24.699127,-97.32135
2969000000,-25.412613,-97.667389
2970000000,-26.020739,-97.846771
2971000000,-26.250631,-98.204025
2972000000,-26.73295,-98.145607
2973000000,-26.429922,-98.342789
2974000000,-26.96406,-98.440308
2975000000,-27.318756,-98.730644
2976000000,-27.988855,-98.900711
2977000000,-27.662476,-98.877831
2978000000,-27.816093,-99.019814
2979000000,-28.00453,-99.354698
2980000000,-29.125067,-99.505486
2981000000,-29.093697,-99.649712
2982000000,-29.556431,-99.66832
2983000000,-29.713932,-99.819046
2984000000,-29.903296,-99.956482
2985000000,-30.029959,-100.17218
2986000000,-30.848034,-100.20552
2987000000,-30.523046,-100.58513
2988000000,-31.456953,-100.50484
2989000000,-31.016842,-100.4837
2990000000,-31.783031,-101.00723
2991000000,-32.185085,-101.15893
2992000000,-32.309761,-101.12128
2993000000,-32.848244,-101.29275
2994000000,-32.952522,-101.47873
2995000000,-33.206341,-101.78401
2996000000,-33.33593,-101.79801
2997000000,-33.592079,-101.64244
2998000000,-34.159328,-102.36954
2999000000,-34.195343,-102.18207
3000000000,-35.101349,-102.45072
3001000000,-35.225872,-102.68124
3002000000,-35.365208,-102.84082
3003000000,-36.016033,-102.88486
3004000000,-35.849655,-103.10342
3005000000,-36.506687,-103.29016
3006000000,-36.458435,-103.43243
3007000000,-36.826115,-103.52207
3008000000,-37.146,-103.75916
3009000000,-37.488754,-103.87335
3010000000,-37.969055,-103.95576
3011000000,-38.205532,-104.05762
3012000000,-38.526089,-104.1666
3013000000,-39.224148,-104.51881
3014000000,-38.480953,-104.4968
3015000000,-39.590202,-104.98214
3016000000,-39.52261,-104.91164
3017000000,-40.019459,-105.11304
3018000000,-40.223614,-105.1804
3019000000,-40.572727,-105.41885
3020000000,-40.714825,-105.65536
3021000000,-41.606758,-105.74276
3022000000,-41.858707,-105.82104
3023000000,-41.507061,-106.04607
3024000000,-41.928993,-106.0093
3025000000,-42.368042,-106.2769
3026000000,-42.751415,-106.43755
3027000000,-42.700592,-106.68533
3028000000,-43.259407,-106.73559
3029000000,-43.570736,-106.98202
3030000000,-44.055519,-107.12807
3031000000,-43.83543,-107.12543
3032000000,-44.654213,-107.46735
3033000000,-45.023453,-107.47182
3034000000,-45.07666,-107.77827
3035000000,-44.847942,-107.69299
3036000000,-45.70163,-108.08144
3037000000,-46.530205,-108.26855
3038000000,-46.577873,-108.56065
3039000000,-47.238811,-108.56822
3040000000,-47.614914,-108.89242
3041000000,-47.839249,-108.67884
3042000000,-47.607552,-109.1315
3043000000,-47.855061,-109.29922
3044000000,-48.086182,-109.32961
3045000000,-48.846428,-109.54692
3046000000,-49.059101,-109.438
3047000000,-49.336929,-109.60859
3048000000,-49.865601,-109.99329
3049000000,-50.055222,-110.10251
3050000000,-50.257965,-110.2223
3051000000,-50.734707,-110.49638
3052000000,-51.565716,-110.54243
3053000000,-51.509853,-110.96233
3054000000,-51.235107,-110.69769
3055000000,-52.327312,-110.91735
3056000000,-52.795094,-111.12553
3057000000,-51.995579,-111.10197
3058000000,-52.921169,-111.49474
3059000000,-53.557961,-111.6085
3060000000,-53.814991,-111.75265
3061000000,-54.191067,-111.91486
3062000000,-53.797096,-112.00504
3063000000,-54.278248,-112.25063
3064000000,-54.592747,-112.31216
3065000000,-55.162445,-112.49734
3066000000,-55.487305,-112.56615
3067000000,-56.143494,-112.87874
3068000000,-56.589245,-113.28109
3069000000,-56.188137,-113.09074
3070000000,-56.664402,-113.47869
3071000000,-56.925632,-113.54196
3072000000,-57.516319,-113.70106
3073000000,-57.57534,-113.82703
3074000000,-58.467049,-114.0388
3075000000,-58.296486,-114.13976
3076000000,-59.293644,-114.28836
3077000000,-59.325344,-114.31768
3078000000,-59.954628,-114.59451
3079000000,-59.890385,-114.72559
3080000000,-60.674812,-114.88369
3081000000,-60.810501,-115.04219
3082000000,-60.773037,-115.10898
3083000000,-61.109264,-115.38198
3084000000,-61.960732,-115.71497
3085000000,-61.927551,-115.63725
3086000000,-62.149818,-115.75273
3087000000,-62.734394,-115.9734
3088000000,-63.435528,-116.16496
3089000000,-63.697056,-116.31541
3090000000,-63.627426,-116.54308
3091000000,-64.459648,-116.52504
3092000000,-64.440994,-116.57825
3093000000,-64.484505,-116.84999
3094000000,-64.631966,-117.10153
3095000000,-65.316536,-117.14993
3096000000,-66.084656,-117.26105
3097000000,-66.10099,-117.54197
3098000000,-66.722229,-117.7963
3099000000,-66.685638,-117.81724
3100000000,-67.196556,-117.84877
3101000000,-67.481987,-118.21162
3102000000,-68.139412,-118.25346
3103000000,-68.06601,-118.32655
3104000000,-68.777168,-118.69805
3105000000,-68.770836,-118.7674
3106000000,-69.234497,-118.91393
3107000000,-69.647034,-119.11736
3108000000,-70.093864,-119.29687
3109000000,-70.84433,-119.53042
3110000000,-70.584045,-119.42004
3111000000,-70.618233,-119.54401
3112000000,-71.374695,-119.73126
3113000000,-71.94384,-120.04079
3114000000,-72.278587,-120.07876
3115000000,-71.916649,-120.02331
3116000000,-72.564568,-120.35244
3117000000,-72.733185,-120.58938
3118000000,-73.003387,-120.75676
3119000000,-73.029594,-120.74947
3120000000,-73.883354,-121.03985
3121000000,-74.389404,-121.40574
3122000000,-74.933502,-121.25478
3123000000,-75.619171,-121.62066
3124000000,-75.245934,-121.67354
3125000000,-76.229813,-121.91788
3126000000,-76.593925,-122.00583
3127000000,-76.589249,-122.26841
3128000000,-76.522682,-122.23192
3129000000,-77.275711,-122.49571
3130000000,-77.780174,-122.54787
3131000000,-78.224907,-122.72546
3132000000,-78.196968,-123.06442
3133000000,-78.119781,-122.90562
3134000000,-78.411751,-123.07023
3135000000,-79.569725,-123.27435
3136000000,-79.892326,-123.56602
3137000000,-80.301994,-123.59736
3138000000,-79.546463,-123.51456
3139000000,-81.073463,-124.01151
3140000000,-81.448799,-124.06061
3141000000,-81.108536,-124.37015
3142000000,-82.085701,-124.62676
3143000000,-82.408005,-124.62725
3144000000,-83.441368,-124.84631
3145000000,-83.026642,-124.79843
3146000000,-83.456657,-125.23984
3147000000,-83.686226,-125.12112
3148000000,-84.273628,-125.49998
3149000000,-84.491997,-125.54392
3150000000,-85.152969,-125.86237
3151000000,-85.755646,-125.88795
3152000000,-85.635765,-125.95255
3153000000,-86.382591,-126.13585
3154000000,-86.416344,-126.4971
3155000000,-86.924294,-126.38075
3156000000,-87.564751,-126.658
3157000000,-86.891655,-126.60764
3158000000,-87.742897,-126.78207
3159000000,-87.538498,-127.15015
3160000000,-88.713058,-127.1011
3161000000,-88.794121,-127.37044
3162000000,-90.236763,-127.56973
3163000000,-90.055511,-127.74511
3164000000,-90.132751,-127.64436
3165000000,-90.728104,-128.23375
3166000000,-90.490852,-128.23242
3167000000,-91.250175,-128.29308
3168000000,-91.594238,-128.49873
3169000000,-91.89576,-128.8463
3170000000,-92.446068,-128.93127
3171000000,-92.457809,-128.95877
3172000000,-93.047478,-129.32286
3173000000,-93.172333,-129.26762
3174000000,-93.271164,-129.51987
3175000000,-94.336937,-129.70691
3176000000,-95.002571,-129.93291
3177000000,-94.557854,-129.96318
3178000000,-95.215157,-130.28844
3179000000,-95.100212,-130.0975
3180000000,-95.688728,-130.46877
3181000000,-96.097221,-130.44791
3182000000,-96.794487,-130.60818
3183000000,-96.540092,-130.7541
3184000000,-97.256248,-130.86053
3185000000,-97.447655,-131.12187
3186000000,-97.404953,-131.1304
3187000000,-98.573204,-131.45515
3188000000,-98.947678,-131.59962
3189000000,-98.859894,-131.61086
3190000000,-99.301949,-131.83861
3191000000,-99.887794,-132.11774
3192000000,-100.39504,-131.93878
3193000000,-100.54964,-132.17198
3194000000,-101.33624,-132.63924
3195000000,-101.49427,-132.71935
3196000000,-102.2794,-132.97777
3197000000,-102.07774,-132.90338
3198000000,-102.60992,-133.27652
3199000000,-102.60684,-133.32224
3200000000,-103.06363,-133.5415
3201000000,-103.66315,-133.57863
3202000000,-104.22659,-133.7807
3203000000,-104.39854,-133.97292
3204000000,-104.55157,-134.10173
3205000000,-105.72998,-134.24713
3206000000,-106.16022,-134.42096
3207000000,-105.48041,-134.51884
3208000000,-106.67152,-134.89554
3209000000,-107.09408,-135.0397
3210000000,-107.80346,-135.08278
3211000000,-108.1593,-135.28711
3212000000,-108.17599,-135.50397
3213000000,-108.55671,-135.4828
3214000000,-108.86533,-135.85236
3215000000,-109.18266,-135.72807
3216000000,-109.48321,-135.89546
3217000000,-109.73344,-136.07178
3218000000,-110.08565,-136.26025
3219000000,-110.27097,-136.42253
3220000000,-111.48196,-136.65297
3221000000,-111.46849,-136.92281
3222000000,-111.8878,-136.82875
3223000000,-112.2402,-137.02559
3224000000,-111.75707,-137.0979
3225000000,-112.42909,-137.35172
3226000000,-113.28098,-137.50511
3227000000,-113.71353,-137.74783
3228000000,-113.80161,-137.72034
3229000000,-115.15842,-138.09087
3230000000,-114.75988,-138.31931
3231000000,-115.23427,-138.34102
3232000000,-115.22159,-138.34537
3233000000,-116.20526,-138.78336
3234000000,-116.85963,-138.68536
3235000000,-116.68242,-138.79584
3236000000,-116.74235,-138.96541
3237000000,-117.4201,-139.25702
3238000000,-117.98911,-139.46967
3239000000,-118.29015,-139.50217
3240000000,-119.07388,-139.52277
3241000000,-119.28435,-139.69304
3242000000,-119.61164,-140.09865
3243000000,-120.00115,-140.19792
3244000000,-119.89168,-140.27283
3245000000,-120.77729,-140.7379
3246000000,-120.7114,-140.64476
3247000000,-121.57027,-140.62721
3248000000,-122.59554,-140.9446
3249000000,-122.91933,-141.12692
3250000000,-122.19501,-141.25658
3251000000,-122.87798,-141.38512
3252000000,-123.72607,-141.68712
3253000000,-124.0815,-141.91594
3254000000,-123.69531,-141.87326
3255000000,-125.53434,-142.07698
3256000000,-125.45443,-142.34
3257000000,-125.31963,-142.29445
3258000000,-125.58087,-142.62392
3259000000,-126.28094,-142.92169
3260000000,-126.91298,-142.84364
3261000000,-126.88107,-142.93092
3262000000,-127.75646,-143.31293
3263000000,-127.71851,-143.23936
3264000000,-127.8586,-143.20872
3265000000,-128.74088,-143.6055
3266000000,-128.72466,-143.84702
3267000000,-128.93279,-143.79617
3268000000,-129.92633,-144.0121
3269000000,-130.12566,-144.20029
3270000000,-130.74483,-144.5304
3271000000,-130.63017,-144.53276
3272000000,-130.90244,-144.44269
3273000000,-131.62482,-144.74956
3274000000,-132.08331,-144.83017
3275000000,-131.94612,-145.24228
3276000000,-132.42375,-145.1409
3277000000,-133.19696,-145.55293
3278000000,-133.715,-145.60236
3279000000,-134.3392,-145.96883
3280000000,-133.91341,-145.9895
3281000000,-134.88382,-146.19907
3282000000,-135.24326,-146.15591
3283000000,-135.14256,-146.3242
3284000000,-135.62938,-146.65491
3285000000,-136.80772,-146.66426
3286000000,-136.90646,-146.94035
3287000000,-136.68843,-146.79283
3288000000,-136.94389,-147.16908
3289000000,-138.0963,-147.48576
3290000000,-138.76123,-147.70157
3291000000,-138.72278,-147.56026
3292000000,-139.27676,-147.91313
3293000000,-139.59187,-147.7726
3294000000,-140.20621,-148.11349
3295000000,-140.60884,-148.38148
3296000000,-141.02686,-148.3799
3297000000,-141.40741,-148.51263
3298000000,-141.0999,-148.64471
3299000000,-141.37764,-148.93356
3300000000,-142.43523,-148.93843
3301000000,-141.85776,-149.25854
3302000000,-143.01758,-149.19888
3303000000,-143.7717,-149.58192
3304000000,-143.76552,-149.70691
3305000000,-144.91069,-149.9994
3306000000,-144.43358,-150.14296
3307000000,-144.80205,-149.98503
3308000000,-145.47331,-150.43964
3309000000,-145.09662,-150.66084
3310000000,-146.07588,-150.47057
3311000000,-146.48969,-150.79677
3312000000,-146.63213,-150.94606
3313000000,-147.38062,-151.27753
3314000000,-147.67265,-151.1682
3315000000,-148.1243,-151.27148
3316000000,-148.23152,-151.53375
3317000000,-148.84743,-151.5981
3318000000,-149.44035,-151.74815
3319000000,-149.00221,-151.94778
3320000000,-150.27452,-152.27971
3321000000,-150.6882,-152.30861
3322000000,-150.82167,-152.44598
3323000000,-150.70766,-152.85277
3324000000,-151.35178,-152.70439
3325000000,-151.54262,-152.7878
3326000000,-151.93539,-153.05429
3327000000,-152.57878,-153.26169
3328000000,-153.00252,-153.22229
3329000000,-153.30649,-153.57851
3330000000,-153.56726,-153.74805
3331000000,-154.12117,-153.58864
3332000000,-154.38814,-153.94159
3333000000,-154.84932,-154.32991
3334000000,-155.03093,-154.21408
3335000000,-155.16975,-154.70065
3336000000,-155.67805,-154.67339
3337000000,-156.32127,-154.91562
3338000000,-156.54811,-154.9827
3339000000,-156.55176,-155.15257
3340000000,-157.58018,-155.31577
3341000000,-158.01544,-155.42902
3342000000,-158.51474,-155.6279
3343000000,-158.41252,-155.78096
3344000000,-158.71039,-155.73787
3345000000,-159.59077,-156.08426
3346000000,-159.81204,-156.29521
3347000000,-159.6205,-156.21883
3348000000,-160.81779,-156.52957
3349000000,-160.67026,-156.64851
3350000000,-161.97525,-156.77299
3351000000,-161.60011,-157.02054
3352000000,-162.37041,-157.24883
3353000000,-163.15657,-157.35318
3354000000,-163.18935,-157.50656
3355000000,-163.36731,-157.76105
3356000000,-163.42155,-157.67218
3357000000,-163.42186,-157.91028
3358000000,-164.2581,-158.01736
3359000000,-164.99268,-158.37366
3360000000,-165.23659,-158.50459
3361000000,-165.38113,-158.66353
3362000000,-166.2449,-158.49478
3363000000,-166.49272,-158.93889
3364000000,-166.51099,-158.97258
3365000000,-166.36719,-159.02461
3366000000,-167.21405,-159.39305
3367000000,-168.10614,-159.4346
3368000000,-168.47897,-159.69249
3369000000,-168.47304,-159.59712
3370000000,-168.30058,-159.811
3371000000,-169.53038,-159.88586
3372000000,-169.43767,-160.33232
3373000000,-169.66814,-160.45175
3374000000,-170.36177,-160.84512
3375000000,-171.14342,-160.6848
3376000000,-171.83018,-160.82953
3377000000,-171.65045,-161.13472
3378000000,-171.41113,-161.06836
3379000000,-172.02808,-161.26175
3380000000,-172.42363,-161.67496
3381000000,-173.07623,-161.5838
3382000000,-172.92908,-161.87726
3383000000,-173.55704,-162.20845
3384000000,-174.05276,-162.05515
3385000000,-174.58301,-162.52554
3386000000,-174.76846,-162.33154
3387000000,-174.82292,-162.71066
3388000000,-175.0701,-162.58371
3389000000,-176.00159,-163.00838
3390000000,-176.17229,-163.11855
3391000000,-176.60333,-163.15569
3392000000,-176.98407,-163.3745
3393000000,-177.42555,-163.50241
3394000000,-177.50327,-163.66684
3395000000,-177.79433,-163.6871
3396000000,-178.88176,-164.06863
3397000000,-178.76563,-164.2663
3398000000,-178.82388,-164.31761
3399000000,-179.43179,-164.5731
3400000000,-179.70206,-164.7301
3401000000,179.85136,-164.7198
3402000000,179.34875,-164.9789
3403000000,178.9335,-165.1472
3404000000,179.15419,-165.21281
3405000000,178.42053,-165.48761
3406000000,177.80646,-165.44432
3407000000,178.37646,-165.71048
3408000000,177.67126,-165.94406
3409000000,177.13657,-166.15341
3410000000,176.14413,-166.17149
3411000000,176.18359,-166.23497
3412000000,175.91731,-166.42183
3413000000,175.78545,-166.71178
3414000000,175.54041,-166.77504
3415000000,175.23964,-166.97226
3416000000,174.67126,-167.03008
3417000000,174.8342,-167.30777
3418000000,174.02504,-167.47247
3419000000,174.00618,-167.78331
3420000000,174.04214,-167.67676
3421000000,173.21243,-167.75238
3422000000,172.15565,-168.12962
3423000000,171.99887,-168.04887
3424000000,172.40651,-168.40575
3425000000,171.48744,-168.51476
3426000000,171.4482,-168.63248
3427000000,170.81371,-168.83434
3428000000,170.74707,-169.04997
3429000000,170.22099,-169.25589
3430000000,169.87447,-169.16096
3431000000,169.58441,-169.49899
3432000000,169.49878,-169.71596
3433000000,168.87384,-169.87761
3434000000,168.67215,-169.79456
3435000000,168.22243,-170.16156
3436000000,167.97586,-170.33978
3437000000,167.24716,-170.33673
3438000000,167.03279,-170.45554
3439000000,166.79114,-170.66116
3440000000,166.41458,-170.5683
3441000000,165.94038,-170.87563
3442000000,165.85786,-171.13963
3443000000,165.51746,-171.21304
3444000000,165.23264,-171.47366
3445000000,164.93089,-171.82988
3446000000,164.38007,-171.66792
3447000000,164.09441,-172.1783
3448000000,163.73511,-172.09515
3449000000,163.50917,-172.32574
3450000000,163.06004,-172.33061
3451000000,162.78143,-172.28709
3452000000,162.18474,-172.72415
3453000000,161.94531,-173.01031
3454000000,161.55141,-173.0692
3455000000,161.18658,-172.88496
3456000000,160.6134,-173.49994
3457000000,160.86697,-173.40599
3458000000,160.45195,-173.56114
3459000000,160.0197,-173.7247
3460000000,159.82187,-174.0825
3461000000,159.58153,-174.26917
3462000000,158.61247,-174.33061
3463000000,158.69621,-174.60881
3464000000,158.05234,-174.56743
3465000000,158.01537,-174.70862
3466000000,157.7202,-175.01357
3467000000,157.26831,-174.95711
3468000000,156.84468,-174.94063
3469000000,156.74631,-175.48679
3470000000,156.052,-175.53326
3471000000,156.1577,-175.74899
3472000000,155.43799,-175.93098
3473000000,155.13326,-175.94943
3474000000,154.83615,-176.23358
3475000000,154.28922,-176.25002
3476000000,154.09898,-176.29071
3477000000,153.88901,-176.46875
3478000000,153.78226,-176.9321
3479000000,153.25175,-176.92659
3480000000,152.78439,-176.99203
3481000000,152.5899,-177.15941
3482000000,152.15527,-177.1582
3483000000,151.99283,-177.59612
3484000000,151.55806,-177.58366
3485000000,151.02286,-177.77077
3486000000,150.9346,-178.03624
3487000000,150.93527,-178.17921
3488000000,150.02229,-178.21794
3489000000,149.82944,-178.34195
3490000000,149.46126,-178.58955
3491000000,149.48087,-178.75858
3492000000,148.87915,-178.87663
3493000000,148.88797,-179.10959
3494000000,148.15286,-179.07765
3495000000,147.99123,-179.40392
3496000000,147.54709,-179.39961
3497000000,147.20973,-179.52493
3498000000,146.92043,-179.70863
3499000000,146.66948,179.90306
3500000000,146.44481,179.90761
3501000000,145.82941,179.72934
3502000000,145.72052,179.3842
3503000000,145.16919,179.4935
3504000000,144.96135,179.14279
3505000000,144.81009,179.03201
3506000000,144.17566,178.76633
3507000000,144.01779,178.68004
3508000000,143.52074,178.69197
3509000000,143.43175,178.43774
3510000000,143.06699,178.33116
3511000000,142.70395,178.16542
3512000000,142.43968,178.0327
3513000000,141.95753,177.7509
3514000000,141.50195,177.67429
3515000000,141.63548,177.24495
3516000000,141.08412,177.23013
3517000000,140.78091,177.2998
3518000000,140.2979,177.0359
3519000000,139.84216,176.89128
3520000000,139.53899,176.67741
3521000000,139.38785,176.81155
3522000000,138.71576,176.73438
3523000000,138.96114,176.24622
3524000000,138.39056,176.15477
3525000000,138.12656,176.08092
3526000000,138.00903,175.77867
3527000000,136.97766,175.74489
3528000000,136.71057,175.57922
3529000000,136.46727,175.32487
3530000000,136.55652,175.18338
3531000000,136.07036,174.97749
3532000000,135.96944,175.09537
3533000000,135.38898,174.79883
3534000000,135.52301,174.41264
3535000000,134.96286,174.34264
3536000000,134.70876,174.27032
3537000000,134.22714,174.11047
3538000000,134.13185,174.09698
3539000000,133.53372,173.84706
3540000000,133.59444,173.67192
3541000000,133.3674,173.49696
3542000000,132.77664,173.22673
3543000000,132.62741,173.14905
3544000000,132.1525,172.96422
3545000000,131.97455,172.90175
3546000000,131.70229,172.69644
3547000000,131.22548,172.37808
3548000000,130.88197,172.26538
3549000000,130.32138,172.26149
3550000000,129.73,172.14873
3551000000,129.68593,171.88791
3552000000,129.47432,171.81508
3553000000,129.13336,171.68672
3554000000,128.89417,171.48111
3555000000,128.35001,171.26059
3556000000,128.2659,171.18071
3557000000,128.12787,171.14572
3558000000,127.36524,170.85175
3559000000,127.30232,170.71803
3560000000,126.97186,170.63132
3561000000,126.51098,170.51947
3562000000,126.44856,170.13632
3563000000,125.93592,170.09941
3564000000,125.64419,169.91743
3565000000,125.36128,169.78963
3566000000,125.24619,169.52966
3567000000,124.42524,169.48395
3568000000,124.32022,169.341
3569000000,123.99715,169.18991
3570000000,123.78327,169.00745
3571000000,123.51646,168.89198
3572000000,123.14141,168.74797
3573000000,122.65215,168.70451
3574000000,122.78872,168.43391
3575000000,122.22746,168.08664
3576000000,122.22558,167.91794
3577000000,121.49553,167.82817
3578000000,120.98941,167.90115
3579000000,120.98222,167.57104
3580000000,120.73483,167.30234
3581000000,120.53809,167.10086
3582000000,120.11778,167.30771
3583000000,119.81236,166.88774
3584000000,119.42665,166.73418
3585000000,118.96175,166.61058
3586000000,118.64029,166.48537
3587000000,118.35878,166.45139
3588000000,118.22389,166.23294
3589000000,117.53887,166.10651
3590000000,117.61732,165.73056
3591000000,116.82884,165.80544
3592000000,116.65287,165.53796
3593000000,116.14789,165.4938
3594000000,115.79494,165.321
3595000000,115.83609,165.04063
3596000000,115.17009,165.06985
3597000000,114.94457,164.75276
3598000000,114.65654,164.6568
3599000000,114.2569,164.55586
3600000000,114.36633,164.47267
3601000000,113.58508,164.22983
3602000000,113.64334,163.99062
3603000000,113.34201,163.98326
3604000000,112.87646,163.64461
3605000000,112.71825,163.51132
3606000000,111.91647,163.40828
3607000000,111.66119,163.21916
3608000000,111.47099,163.0188
3609000000,111.08867,163.07095
3610000000,110.60319,162.73375
3611000000,110.21249,162.60175
3612000000,110.22147,162.32373
3613000000,109.74837,162.28365
3614000000,109.52933,162.1066
3615000000,109.20039,161.90324
3616000000,109.01188,161.88214
3617000000,108.1773,161.79584
3618000000,108.2772,161.41612
3619000000,107.8401,161.39977
3620000000,107.40197,161.3604
3621000000,107.09738,161.12172
3622000000,106.69481,160.93828
3623000000,106.15615,160.82811
3624000000,106.27964,160.37454
3625000000,105.74948,160.48291
3626000000,105.16521,160.34369
3627000000,105.03802,160.23062
3628000000,104.60132,160.03084
3629000000,104.40736,159.86957
3630000000,104.2469,159.66293
3631000000,104.2167,159.50314
3632000000,103.48173,159.28862
3633000000,103.36808,159.43306
3634000000,103.06335,158.93619
3635000000,102.57456,158.8849
3636000000,102.39851,158.75937
3637000000,102.03055,158.40112
3638000000,101.51938,158.40367
3639000000,101.13635,158.38393
3640000000,100.98754,158.09319
3641000000,100.70009,157.92365
3642000000,99.731308,157.86008
3643000000,99.647247,157.63416
3644000000,99.77272,157.36057
3645000000,99.537628,157.33362
3646000000,98.465599,157.15846
3647000000,99.070648,157.17775
3648000000,98.155266,156.99908
3649000000,97.519218,156.58401
3650000000,97.397049,156.44458
3651000000,97.576904,156.49846
3652000000,97.010468,156.34404
3653000000,96.261818,156.26668
3654000000,96.022408,156.13582
3655000000,96.156097,155.8139
3656000000,95.824287,155.58078
3657000000,95.147758,155.41525
3658000000,95.007751,155.25836
3659000000,94.8451,155.11465
3660000000,94.131386,155.03235
3661000000,93.756432,154.85361
3662000000,93.419876,154.91447
3663000000,93.389122,154.55862
3664000000,92.386978,154.47173
3665000000,92.583237,154.03999
3666000000,91.821083,154.04668
3667000000,91.679634,154.06357
3668000000,91.401756,153.80769
3669000000,91.132607,153.65239
3670000000,90.947853,153.55405
3671000000,90.46907,153.29147
3672000000,90.384689,153.17229
3673000000,89.592705,153.13934
3674000000,89.349289,152.87686
3675000000,88.988441,152.60863
3676000000,89.168404,152.50339
3677000000,87.926079,152.36852
3678000000,88.091957,152.11401
3679000000,87.701393,151.97823
3680000000,87.063179,151.81386
3681000000,87.12809,151.71811
3682000000,86.038345,151.522
3683000000,86.042854,151.47403
3684000000,85.784149,151.34166
3685000000,85.640518,151.14496
3686000000,84.942131,151.05527
3687000000,84.708153,150.81444
3688000000,84.071632,150.6385
3689000000,83.906715,150.45622
3690000000,83.861504,150.30782
3691000000,83.22094,150.25407
3692000000,83.451317,150.17529
3693000000,82.182373,149.9418
3694000000,83.010635,149.72504
3695000000,82.001137,149.53934
3696000000,81.543091,149.56506
3697000000,81.467278,149.19531
3698000000,80.904411,149.29286
3699000000,80.170692,149.07388
3700000000,80.219818,148.83727
3701000000,79.371284,148.63037
3702000000,79.245277,148.33617
3703000000,78.643494,148.37759
3704000000,78.412552,148.24387
3705000000,78.479805,148.00317
3706000000,77.889763,147.86903
3707000000,77.609497,147.84554
3708000000,77.47953,147.53899
3709000000,76.847343,147.47366
3710000000,76.197525,147.05878
3711000000,75.671288,147.02177
3712000000,75.844704,146.75299
3713000000,75.282486,146.88654
3714000000,75.424446,146.70276
3715000000,74.144196,146.4369
3716000000,74.228867,146.31741
3717000000,73.647415,146.15715
3718000000,73.56813,146.09328
3719000000,72.652054,145.92905
3720000000,72.82122,145.77664
3721000000,72.123444,145.6445
3722000000,71.829819,145.56621
3723000000,71.139648,145.18442
3724000000,70.999084,145.16737
3725000000,71.06356,144.9446
3726000000,70.56691,144.69899
3727000000,69.85405,144.57048
3728000000,69.132195,144.41943
3729000000,68.793625,144.38747
3730000000,68.070702,144.16238
3731000000,68.35997,144.0912
3732000000,67.837479,143.87216
3733000000,67.534798,143.78699
3734000000,67.3722,143.67715
3735000000,66.249207,143.29947
3736000000,66.145477,143.21992
3737000000,65.987175,143.10165
3738000000,65.79248,142.93437
3739000000,65.125038,142.83382
3740000000,64.57299,142.62654
3741000000,64.226448,142.4505
3742000000,64.206688,142.28854
3743000000,63.350872,142.16643
3744000000,62.8004,141.86403
3745000000,62.910557,141.83345
3746000000,61.944607,141.44527
3747000000,61.833054,141.24831
3748000000,61.29002,141.36707
3749000000,61.335251,141.14754
3750000000,61.13261,141.05209
3751000000,59.761429,140.93829
3752000000,59.094742,140.47652
3753000000,59.108997,140.57353
3754000000,59.306156,140.35028
3755000000,58.084831,140.14914
3756000000,57.79192,140.05147
3757000000,57.430725,139.76608
3758000000,57.321907,139.72514
3759000000,57.613049,139.66872
3760000000,56.34811,139.42813
3761000000,55.862751,139.08748
3762000000,56.221527,139.06416
3763000000,54.410969,138.89619
3764000000,54.602131,138.71342
3765000000,54.71196,138.61316
3766000000,53.954494,138.45393
3767000000,52.93531,138.22809
3768000000,52.681107,138.06082
3769000000,52.634449,137.94211
3770000000,52.105904,137.81741
3771000000,52.511135,137.89307
3772000000,50.89872,137.52808
3773000000,51.021896,137.30629
3774000000,49.911686,137.19258
3775000000,50.057556,137.08736
3776000000,49.407036,137.0029
3777000000,49.037201,136.89278
3778000000,48.560883,136.60135
3779000000,47.90551,136.51723
3780000000,48.554344,136.35576
3781000000,47.154823,136.04593
3782000000,46.992657,135.98921
3783000000,46.12561,135.71631
3784000000,46.61729,135.72845
3785000000,45.734203,135.5029
3786000000,45.322559,135.24496
3787000000,44.712421,135.15257
3788000000,44.031765,135.11403
3789000000,44.507053,134.79041
3790000000,43.433834,134.59996
3791000000,43.508797,134.60283
3792000000,42.747536,134.40976
3793000000,42.692669,134.43578
3794000000,42.308754,134.17856
3795000000,42.024975,133.89861
3796000000,41.072289,133.7653
3797000000,40.217941,133.46704
3798000000,40.009941,133.59544
3799000000,40.193653,133.29729
3800000000,38.601707,133.29588
3801000000,38.615513,133.00919
3802000000,38.642471,132.99268
3803000000,38.089542,132.88109
3804000000,37.718445,132.79872
3805000000,37.055435,132.5766
3806000000,36.148602,132.25572
3807000000,35.245804,132.09697
3808000000,35.27602,131.91942
3809000000,35.513588,131.74948
3810000000,34.591457,131.8744
3811000000,33.787022,131.38954
3812000000,33.071274,131.34779
3813000000,32.945686,131.13512
3814000000,32.241154,130.86485
3815000000,32.285088,130.61726
3816000000,31.147066,130.67049
3817000000,30.922895,130.57066
3818000000,30.441942,130.37515
3819000000,30.348682,130.16258
3820000000,28.908882,129.96364
3821000000,29.096678,129.84778
3822000000,28.677017,129.71112
3823000000,28.149408,129.72498
3824000000,27.563499,129.3414
3825000000,26.354513,129.13054
3826000000,26.198378,129.13889
3827000000,26.783054,129.06679
3828000000,25.639198,128.79266
3829000000,24.907898,128.63332
3830000000,24.808002,128.44479
3831000000,24.799511,128.4222
3832000000,23.538277,128.19984
3833000000,22.872787,127.98928
3834000000,22.325878,127.91537
3835000000,23.003347,127.63712
3836000000,21.332989,127.52664
3837000000,21.126497,127.10561
3838000000,20.593462,127.20229
3839000000,20.227053,126.95145
3840000000,19.69552,126.81939
3841000000,19.544941,126.60004
3842000000,18.497643,126.43298
3843000000,18.453869,126.38573
3844000000,18.026043,126.1341
3845000000,17.502943,126.1013
3846000000,17.0625,125.89974
3847000000,16.389645,125.89376
3848000000,15.96061,125.66289
3849000000,15.208902,125.29527
3850000000,14.601073,125.42236
3851000000,14.365108,125.15668
3852000000,13.771008,125.02708
3853000000,11.955182,124.60909
3854000000,12.505037,124.87329
3855000000,11.067984,124.43565
3856000000,11.224735,124.37821
3857000000,11.05417,124.18513
3858000000,10.597683,124.09891
3859000000,9.9554491,123.98138
3860000000,7.7444663,123.50916
3861000000,8.6714716,123.54117
3862000000,7.7625031,123.13719
3863000000,7.5557499,123.26846
3864000000,7.2349973,123.00394
3865000000,7.465601,123.00422
3866000000,6.7734847,122.57323
3867000000,6.4408975,122.67429
3868000000,5.0299716,122.42245
3869000000,3.4152701,122.02887
3870000000,3.3615868,122.09554
3871000000,2.4419417,121.87623
3872000000,2.6305482,121.67748
3873000000,2.8501179,121.69612
3874000000,3.2012045,121.53968
3875000000,1.8625971,121.41452
3876000000,-0.35749882,121.13137
3877000000,-0.23500851,120.99181
3878000000,-0.42321086,120.76206
3879000000,-0.46217787,120.6586
3880000000,-1.3852912,120.53307
3881000000,-1.2942199,120.27041
3882000000,-2.2007141,120.03457
3883000000,-3.6452613,120.08279
3884000000,-3.217788,119.84403
3885000000,-3.9908233,119.73042
3886000000,-4.7535014,119.41833
3887000000,-5.8724995,119.26805
3888000000,-4.8359046,119.23134
3889000000,-6.2802505,118.95919
3890000000,-6.0900636,118.94776
3891000000,-6.7293134,118.77027
3892000000,-7.8070755,118.64485
3893000000,-8.2602701,118.42208
3894000000,-8.5327082,118.24926
3895000000,-9.0040665,118.10268
3896000000,-10.218566,118.09132
3897000000,-9.9136171,117.86053
3898000000,-11.025345,117.48901
3899000000,-11.976806,117.40455
3900000000,-12.200692,117.29021
3901000000,-12.481117,117.10409
3902000000,-13.281566,116.99766
3903000000,-13.936926,116.87507
3904000000,-13.377183,116.88201
3905000000,-14.448883,116.3377
3906000000,-14.431927,116.3949
3907000000,-15.068272,116.25336
3908000000,-17.518309,115.90924
3909000000,-17.848658,115.87945
3910000000,-17.466446,115.91238
3911000000,-18.311968,115.52395
3912000000,-18.52985,115.34445
3913000000,-18.917439,115.27222
3914000000,-20.469553,115.07757
3915000000,-19.397314,115.04417
3916000000,-20.625265,114.74809
3917000000,-20.282076,114.75941
3918000000,-21.691841,114.49431
3919000000,-21.608551,114.42429
3920000000,-22.102615,114.16473
3921000000,-23.252502,113.97787
3922000000,-24.189936,113.6526
3923000000,-25.004856,113.79127
3924000000,-25.343924,113.37618
3925000000,-25.816668,113.35385
3926000000,-26.737833,113.06234
3927000000,-27.34038,112.80337
3928000000,-26.904127,112.94946
3929000000,-28.019024,112.57635
3930000000,-28.60643,112.664
3931000000,-28.37285,112.43525
3932000000,-29.760706,112.19077
3933000000,-29.817453,112.00811
3934000000,-30.212717,112.01002
3935000000,-30.561565,111.8045
3936000000,-30.415655,111.64345
3937000000,-32.412022,111.51056
3938000000,-32.556831,111.39553
3939000000,-32.903305,111.21159
3940000000,-33.878529,110.95365
3941000000,-34.052925,110.80081
3942000000,-34.812416,110.58118
3943000000,-34.877659,110.62946
3944000000,-34.526962,110.31628
3945000000,-34.554054,110.17905
3946000000,-36.871426,109.95907
3947000000,-36.811764,109.75703
3948000000,-36.320385,109.78673
3949000000,-38.36055,109.50707
3950000000,-38.056778,109.20445
3951000000,-38.366085,109.18898
3952000000,-39.778984,109.23071
3953000000,-39.816029,108.84242
3954000000,-40.260612,108.64845
3955000000,-40.806812,108.65334
3956000000,-41.119118,108.35798
3957000000,-41.695549,108.4465
3958000000,-42.958431,108.11198
3959000000,-42.476036,108.08741
3960000000,-43.446602,107.88145
3961000000,-43.271008,107.74116
3962000000,-43.150459,107.53871
3963000000,-44.495522,107.30384
3964000000,-44.466377,107.21932
3965000000,-45.144287,107.13131
3966000000,-47.298538,106.82594
3967000000,-46.854752,106.76162
3968000000,-47.664852,106.54977
3969000000,-47.497829,106.24804
3970000000,-48.416039,106.33762
3971000000,-49.45937,106.0298
3972000000,-49.322308,106.10924
3973000000,-48.417591,105.95676
3974000000,-50.136032,105.60501
3975000000,-51.912865,105.28482
3976000000,-51.211349,105.24729
3977000000,-51.699341,105.22361
3978000000,-53.427349,104.95367
3979000000,-53.331535,104.85427
3980000000,-53.500446,104.5339
3981000000,-54.049183,104.45992
3982000000,-53.612659,104.29997
3983000000,-53.907516,104.01836
3984000000,-56.17091,103.92061
3985000000,-55.769299,103.8271
3986000000,-56.152645,103.53358
3987000000,-55.964565,103.60914
3988000000,-56.296959,103.34647
3989000000,-57.437317,103.25698
3990000000,-58.105896,103.15511
3991000000,-57.384251,102.84306
3992000000,-59.399921,102.77543
3993000000,-58.920845,102.501
3994000000,-59.035416,102.44933
3995000000,-59.711536,102.31718
3996000000,-60.952526,101.95441
3997000000,-61.205536,101.86271
3998000000,-60.727306,101.90875
3999000000,-62.15089,101.57745
4000000000,-61.979946,101.54386
4001000000,-63.307835,101.11325
4002000000,-63.303005,101.05173
4003000000,-63.368992,101.035
4004000000,-64.673073,100.66675
4005000000,-64.813927,100.6619
4006000000,-65.074722,100.47165
4007000000,-64.732887,100.36096
4008000000,-65.105011,100.23673
4009000000,-66.787468,100.06241
4010000000,-66.895004,100.13767
4011000000,-66.841408,99.901329
4012000000,-67.628471,99.385147
4013000000,-68.582932,99.309326
4014000000,-69.0466,99.317299
4015000000,-68.464752,99.065857
4016000000,-69.489326,98.986649
4017000000,-70.396385,98.844727
4018000000,-70.010208,98.714928
4019000000,-70.776665,98.526558
4020000000,-71.360054,98.343712
4021000000,-70.539291,98.091042
4022000000,-72.619179,97.801926
4023000000,-72.160713,97.743225
4024000000,-72.560127,97.690323
4025000000,-73.838875,97.498497
4026000000,-74.767586,97.22625
4027000000,-74.200844,97.154282
4028000000,-74.421074,97.083946
4029000000,-75.885132,96.891319
4030000000,-76.306557,96.6409
4031000000,-75.442337,96.580704
4032000000,-76.410179,96.233528
4033000000,-76.65799,96.233673
4034000000,-77.259651,96.050186
4035000000,-78.306313,96.103477
4036000000,-77.140259,95.819946
4037000000,-77.901764,95.637794
4038000000,-78.240982,95.451233
4039000000,-79.338249,95.31237
4040000000,-80.537033,95.08847
4041000000,-79.653038,94.980659
4042000000,-80.206787,94.810349
4043000000,-80.83007,94.903038
4044000000,-80.726089,94.433434
4045000000,-80.731224,94.434883
4046000000,-81.361572,94.179306
4047000000,-82.335487,94.112617
4048000000,-81.988678,93.963539
4049000000,-83.583504,93.814003
4050000000,-82.947525,93.481422
4051000000,-84.014137,93.314888
4052000000,-83.591187,93.335648
4053000000,-84.045113,93.118301
4054000000,-84.619209,92.881355
4055000000,-84.951172,92.88768
4056000000,-85.442245,92.607025
4057000000,-85.349304,92.652176
4058000000,-85.788475,92.301735
4059000000,-86.555702,92.182419
4060000000,-87.151619,92.098183
4061000000,-87.499725,91.799194
4062000000,-87.574013,91.617737
4063000000,-88.782829,91.503784
4064000000,-87.937531,91.507095
4065000000,-88.53244,91.318703
4066000000,-88.828903,91.155724
4067000000,-88.974678,91.100967
4068000000,-89.48777,90.934158
4069000000,-90.114792,90.464432
4070000000,-90.342537,90.385757
4071000000,-90.993103,90.325691
4072000000,-90.736122,90.137901
4073000000,-91.678497,90.023811
4074000000,-91.712708,89.879288
4075000000,-93.591537,89.634605
4076000000,-92.287415,89.423981
4077000000,-93.105469,89.426315
4078000000,-93.544456,89.247566
4079000000,-93.85994,89.244774
4080000000,-94.100067,88.939362
4081000000,-94.633675,88.618408
4082000000,-95.36496,88.496681
4083000000,-95.04615,88.257202
4084000000,-95.740273,88.107178
4085000000,-95.51609,88.28347
4086000000,-95.140144,87.998062
4087000000,-95.629417,87.709694
4088000000,-96.347839,87.619141
4089000000,-96.90007,87.518051
4090000000,-97.073502,87.190147
4091000000,-97.926178,87.140907
4092000000,-98.468925,86.962097
4093000000,-98.935226,86.907768
4094000000,-98.642082,86.789337
4095000000,-99.143509,86.533577
4096000000,-99.504608,86.509262
4097000000,-99.758148,86.2183
4098000000,-99.98835,86.075409
4099000000,-100.29456,86.022049
4100000000,-100.36212,85.644379
4101000000,-101.20632,85.67289
4102000000,-101.44644,85.470177
4103000000,-101.17439,85.370354
4104000000,-102.34768,85.195755
4105000000,-102.29945,84.958817
4106000000,-103.11389,84.862366
4107000000,-102.99049,84.617157
4108000000,-103.11687,84.479431
4109000000,-103.37396,84.358246
4110000000,-104.14451,84.096741
4111000000,-103.8914,84.025848
4112000000,-104.33439,83.876709
4113000000,-104.94723,83.742714
4114000000,-104.71348,83.646347
4115000000,-105.43388,83.584213
4116000000,-105.08183,83.170197
4117000000,-105.88316,83.247887
4118000000,-105.94293,82.974373
4119000000,-107.27494,82.86718
4120000000,-106.80089,82.646675
4121000000,-106.41908,82.566452
4122000000,-107.21797,82.463585
4123000000,-107.28797,82.279388
4124000000,-108.32221,81.959114
4125000000,-108.12458,82.107437
4126000000,-108.7276,81.730347
4127000000,-109.34462,81.618134
4128000000,-109.95178,81.194099
4129000000,-109.76726,81.324677
4130000000,-109.5024,81.04834
4131000000,-110.69643,81.146751
4132000000,-110.76667,80.756104
4133000000,-110.96779,80.569313
4134000000,-111.51508,80.559479
4135000000,-111.86233,80.425018
4136000000,-111.78695,80.214081
4137000000,-112.41196,80.008148
4138000000,-112.74174,79.824966
4139000000,-112.83619,79.708107
4140000000,-113.31042,79.582436
4141000000,-113.57251,79.352547
4142000000,-114.61252,79.245598
4143000000,-113.92127,79.066322
4144000000,-114.38195,78.996658
4145000000,-114.96751,78.575844
4146000000,-115.06816,78.6203
4147000000,-115.06673,78.596649
4148000000,-115.94902,78.130577
4149000000,-116.12688,78.027176
4150000000,-116.01697,77.861671
4151000000,-116.96181,77.849968
4152000000,-116.14768,77.685608
4153000000,-116.69384,77.532684
4154000000,-117.32574,77.396523
4155000000,-117.69717,77.25856
4156000000,-118.52045,77.113678
4157000000,-117.57896,76.91362
4158000000,-118.29934,76.883591
4159000000,-118.35307,76.511383
4160000000,-118.55293,76.451149
4161000000,-119.29188,76.20034
4162000000,-119.35141,76.064812
4163000000,-119.70848,76.083954
4164000000,-119.2775,75.782318
4165000000,-119.97667,75.682739
4166000000,-120.89153,75.510178
4167000000,-120.57451,75.492699
4168000000,-121.18548,75.26474
4169000000,-121.21297,74.942345
4170000000,-121.66379,74.818314
4171000000,-121.44343,74.714325
4172000000,-122.63274,74.52198
4173000000,-122.52734,74.490372
4174000000,-123.03339,74.289101
4175000000,-123.07854,74.1241
4176000000,-123.67991,73.896713
4177000000,-123.83264,73.831032
4178000000,-124.16901,73.597649
4179000000,-124.09998,73.516075
4180000000,-124.76741,73.353348
4181000000,-125.05293,73.086792
4182000000,-124.96961,73.082077
4183000000,-125.68179,72.656685
4184000000,-125.53027,72.817093
4185000000,-126.19421,72.600464
4186000000,-126.57725,72.312744
4187000000,-127.18853,72.168488
4188000000,-127.37421,72.00798
4189000000,-127.03889,72.066544
4190000000,-127.61182,71.76886
4191000000,-127.73305,71.359741
4192000000,-128.29588,71.597244
4193000000,-128.09753,71.27195
4194000000,-128.85013,71.195992
4195000000,-129.03049,70.979088
4196000000,-129.46892,70.690002
4197000000,-129.74316,70.582077
4198000000,-129.03372,70.612938
4199000000,-130.18042,70.394943
4200000000,-129.97943,70.142502
4201000000,-130.51161,70.135063
4202000000,-130.76819,69.957527
4203000000,-131.67598,69.820602
4204000000,-131.43117,69.680901
4205000000,-131.84692,69.590179
4206000000,-132.1797,69.109505
4207000000,-132.35623,69.099655
4208000000,-132.28281,69.188461
4209000000,-132.42033,68.837799
4210000000,-132.98752,68.640564
4211000000,-133.25813,68.465691
4212000000,-133.46762,68.273865
4213000000,-133.84276,68.224319
4214000000,-133.94576,67.911926
4215000000,-133.94566,67.806671
4216000000,-134.47594,67.803719
4217000000,-134.3425,67.611526
4218000000,-134.77783,67.251534
4219000000,-135,67.387421
4220000000,-135.58841,67.141251
4221000000,-135.86287,67.056335
4222000000,-135.98119,66.870949
4223000000,-136.524,66.720154
4224000000,-136.78517,66.622467
4225000000,-136.96431,66.239014
4226000000,-137.35297,66.103203
4227000000,-137.27798,66.094505
4228000000,-137.82338,65.805428
4229000000,-137.91722,65.575508
4230000000,-138.24806,65.542206
4231000000,-138.77843,65.454399
4232000000,-138.97177,65.211983
4233000000,-139.44389,64.965263
4234000000,-139.48758,64.990524
4235000000,-140.01237,64.644226
4236000000,-140.49049,64.536034
4237000000,-140.31805,64.262627
4238000000,-140.69298,64.289398
4239000000,-140.89088,64.227005
4240000000,-141.34186,63.979771
4241000000,-141.93156,63.858971
4242000000,-141.67538,63.74408
4243000000,-141.67757,63.418446
4244000000,-142.28871,63.499947
4245000000,-142.59241,63.210682
4246000000,-142.82634,62.875469
4247000000,-142.99904,62.730083
4248000000,-143.01141,62.784801
4249000000,-143.23648,62.803501
4250000000,-143.34081,62.406734
4251000000,-143.88242,62.49419
4252000000,-144.30009,61.892593
4253000000,-144.34882,62.037025
4254000000,-144.95998,61.941868
4255000000,-145.12677,61.521767
4256000000,-145.6409,61.619019
4257000000,-145.17484,61.344109
4258000000,-146.22482,61.089035
4259000000,-146.26332,61.104607
4260000000,-146.7366,60.890003
4261000000,-146.95428,60.829208
4262000000,-146.61057,60.651112
4263000000,-147.25494,60.298672
4264000000,-147.32584,60.347401
4265000000,-147.78416,60.007938
4266000000,-148.16438,59.960735
4267000000,-148.20856,59.750641
4268000000,-148.36339,59.616421
4269000000,-149.02359,59.419033
4270000000,-149.22545,59.310654
4271000000,-149.20445,59.054764
4272000000,-149.48312,58.940266
4273000000,-150.06448,58.879181
4274000000,-149.94867,58.779762
4275000000,-150.67085,58.492279
4276000000,-150.66682,58.322323
4277000000,-150.82599,58.088097
4278000000,-151.42783,58.039021
4279000000,-151.42648,57.954826
4280000000,-151.77319,57.594082
4281000000,-151.84944,57.526031
4282000000,-152.19643,57.481331
4283000000,-152.38275,57.280418
4284000000,-152.80446,57.112164
4285000000,-153.19119,56.92247
4286000000,-153.40976,56.889633
4287000000,-153.94722,56.562717
4288000000,-153.67262,56.330017
4289000000,-153.94005,56.258835
4290000000,-154.00935,56.156277
4291000000,-154.69168,55.965626
4292000000,-155.24133,55.872379
4293000000,-155.2401,55.709415
4294000000,-155.11409,55.552589
4295000000,-155.55014,55.332893
4296000000,-156.21756,55.314144
4297000000,-156.08069,54.988747
4298000000,-156.31258,55.026836
4299000000,-156.85715,54.702358
4300000000,-156.9095,54.542252
4301000000,-157.20302,54.472919
4302000000,-157.6895,54.352356
4303000000,-157.50061,54.244579
4304000000,-158.229,54.177422
4305000000,-158.14079,53.794495
4306000000,-158.42636,53.745155
4307000000,-159.30676,53.476288
4308000000,-158.90929,53.347595
4309000000,-159.57425,53.227612
4310000000,-159.82301,53.048702
4311000000,-160.15173,52.794147
4312000000,-159.71693,52.621395
4313000000,-160.58261,52.57526
4314000000,-160.72145,52.316895
4315000000,-161.02696,52.425465
4316000000,-161.0948,52.157272
4317000000,-161.27788,51.881359
4318000000,-161.78705,51.858818
4319000000,-162.17619,51.61964
4320000000,-162.40941,51.682571
4321000000,-162.67998,51.259941
4322000000,-162.7774,51.247986
4323000000,-162.83221,51.035366
4324000000,-162.88217,50.900162
4325000000,-163.34532,50.530628
4326000000,-163.50951,50.545177
4327000000,-163.80113,50.123093
4328000000,-163.93152,50.564926
4329000000,-164.58479,50.013378
4330000000,-164.27354,49.774757
4331000000,-165.2762,49.671619
4332000000,-165.12378,49.613625
4333000000,-165.01622,49.400826
4334000000,-165.46739,49.163197
4335000000,-165.68083,49.121864
4336000000,-166.02618,49.00312
4337000000,-166.13576,48.912975
4338000000,-166.22351,48.590595
4339000000,-166.70604,48.342003
4340000000,-167.08136,48.235573
4341000000,-167.20482,48.21624
4342000000,-167.5562,47.907993
4343000000,-167.80649,47.882954
4344000000,-168.19853,47.896778
4345000000,-168.42917,47.515163
4346000000,-168.47639,47.560055
4347000000,-168.8412,47.285572
4348000000,-169.40573,47.076424
4349000000,-169.27927,47.087067
4350000000,-169.49998,46.791176
4351000000,-169.86789,46.528107
4352000000,-169.97452,46.545513
4353000000,-170.86778,46.407288
4354000000,-171.13435,46.103043
4355000000,-171.13916,46.005325
4356000000,-171.23088,45.746895
4357000000,-171.46959,45.691422
4358000000,-171.85995,45.550598
4359000000,-172.1906,45.495903
4360000000,-172.30533,45.188309
4361000000,-172.80547,45.216965
4362000000,-173.11835,45.009277
4363000000,-173.04628,45.032536
4364000000,-173.53673,44.620918
4365000000,-173.66797,44.380707
4366000000,-174.44409,44.190472
4367000000,-174.34335,44.291401
4368000000,-173.96115,44.134792
4369000000,-174.39914,43.957336
4370000000,-174.87695,43.752621
4371000000,-174.94104,43.59449
4372000000,-175.10423,43.365437
4373000000,-175.56335,43.074387
4374000000,-175.68495,43.26849
4375000000,-175.85231,43.101181
4376000000,-176.26324,42.611732
4377000000,-176.70369,42.641296
4378000000,-176.36526,42.25238
4379000000,-177.07985,42.232109
4380000000,-177.61169,42.174088
4381000000,-177.71251,42.104488
4382000000,-177.69144,41.858349
4383000000,-178.18974,41.649807
4384000000,-178.41644,41.527279
4385000000,-178.75098,41.475605
4386000000,-178.95506,41.212288
4387000000,-178.90465,41.05405
4388000000,-179.25868,40.733974
4389000000,-179.40546,40.727333
4390000000,-179.8903,40.595673
4391000000,-179.89906,40.417763
4392000000,179.90442,40.292347
4393000000,179.28439,40.16737
4394000000,179.36688,39.902206
4395000000,179.1337,39.821331
4396000000,178.27391,39.51292
4397000000,178.09778,39.392399
4398000000,177.85989,39.443043
4399000000,178.26131,39.244038
4400000000,177.64348,38.902924
4401000000,177.18144,38.824295
4402000000,176.86108,38.663445
4403000000,176.75969,38.576771
4404000000,176.7326,38.682587
4405000000,176.09123,38.264091
4406000000,175.799,38.163181
4407000000,175.7372,37.931892
4408000000,175.5195,37.67815
4409000000,175.26825,37.634983
4410000000,175.07951,37.578724
4411000000,175.03735,37.275913
4412000000,174.51608,37.317383
4413000000,174.06595,36.908783
4414000000,174.1534,36.824574
4415000000,173.77538,36.606247
4416000000,173.23006,36.492821
4417000000,173.4369,36.341358
4418000000,172.77162,36.161037
4419000000,172.87074,36.169685
4420000000,172.35255,35.894302
4421000000,172.42455,35.905365
4422000000,172.02837,35.587357
4423000000,171.63673,35.612225
4424000000,171.34006,35.189438
4425000000,171.20366,35.127796
4426000000,170.89821,35.057602
4427000000,170.80379,34.982204
4428000000,170.30826,34.609386
4429000000,169.8903,34.44125
4430000000,169.77345,34.418747
4431000000,169.70547,34.181568
4432000000,169.41013,33.975407
4433000000,169.24432,33.89093
4434000000,169.07944,33.770447
4435000000,168.5851,33.510414
4436000000,168.56296,33.491047
4437000000,168.19592,33.384541
4438000000,167.63777,33.064598
4439000000,167.89967,33.037613
4440000000,167.38414,32.821827
4441000000,166.86703,32.686695
4442000000,166.51482,32.50304
4443000000,166.43983,32.448936
4444000000,166.13109,32.369926
4445000000,165.79588,32.232464
4446000000,165.79269,31.873137
4447000000,165.53806,31.86857
4448000000,165.39261,31.563066
4449000000,165.11165,31.353653
4450000000,164.33954,31.251671
4451000000,164.15395,30.911009
4452000000,163.59427,30.908796
4453000000,163.23988,30.768637
4454000000,163.57936,30.592623
4455000000,163.34306,30.507921
4456000000,162.96689,30.159554
4457000000,163.24475,30.222908
4458000000,162.28545,30.023138
4459000000,161.89723,29.896145
4460000000,162.39563,29.631929
4461000000,161.51212,29.457602
4462000000,161.36098,29.395536
4463000000,160.7128,29.278114
4464000000,160.73656,29.007093
4465000000,160.61659,28.971043
4466000000,160.61955,28.815014
4467000000,159.77376,28.58713
4468000000,159.89857,28.39431
4469000000,159.37288,28.130404
4470000000,159.10374,28.093208
4471000000,159.18507,28.084206
4472000000,158.88884,27.816107
4473000000,159.11041,27.747553
4474000000,158.36594,27.535254
4475000000,158.09451,27.28784
4476000000,156.98126,27.042055
4477000000,157.19179,27.074146
4478000000,157.1403,26.873877
4479000000,157.29401,26.677225
4480000000,156.68907,26.54558
4481000000,156.25821,26.445293
4482000000,156.21503,26.318193
4483000000,155.73349,26.122593
4484000000,155.68964,25.825029
4485000000,155.65494,25.902779
4486000000,155.34836,25.698959
4487000000,154.6452,25.428457
4488000000,154.59502,25.364441
4489000000,154.15111,25.061108
4490000000,154.04913,25.164614
4491000000,153.90215,24.652817
4492000000,153.45639,24.741896
4493000000,152.7977,24.393946
4494000000,152.58344,24.414074
4495000000,152.83374,24.382
4496000000,152.18517,23.93635
4497000000,151.7753,23.747417
4498000000,151.65266,23.686613
4499000000,151.5215,23.587986
4500000000,151.25566,23.492496
4501000000,150.65651,23.154791
4502000000,151.07054,23.167389
4503000000,150.76067,23.176069
4504000000,149.71719,22.821402
4505000000,149.28006,22.534531
4506000000,149.42821,22.459335
4507000000,149.0798,22.25543
4508000000,148.68648,22.21398
4509000000,148.56261,22.019083
4510000000,148.07745,21.814608
4511000000,147.87996,21.588474
4512000000,147.31587,21.469398
4513000000,147.33524,21.412615
4514000000,146.57056,21.236544
4515000000,146.62468,21.012756
4516000000,146.4838,21.010103
4517000000,145.98137,20.702332
4518000000,145.96872,20.410713
4519000000,145.60263,20.582144
4520000000,145.21661,20.1133
4521000000,144.81145,20.037058
4522000000,144.76421,19.958462
4523000000,144.01381,19.710604
4524000000,143.68431,19.624166
4525000000,143.88567,19.454115
4526000000,143.17511,19.316074
4527000000,142.7318,19.204803
4528000000,142.86584,19.130203
4529000000,142.29958,18.763382
4530000000,141.91995,18.725937
4531000000,141.8822,18.612825
4532000000,140.96364,18.293003
4533000000,140.78224,18.235649
4534000000,140.8251,17.981855
4535000000,140.94315,17.842793
4536000000,140.11169,17.773937
4537000000,139.97841,17.530077
4538000000,139.61876,17.238964
4539000000,139.30383,17.263765
4540000000,139.02394,17.055471
4541000000,139.30374,17.014679
4542000000,138.41658,16.686251
4543000000,137.85263,16.643217
4544000000,138.36674,16.684889
4545000000,137.06267,16.197817
4546000000,137.18744,16.227255
4547000000,136.52495,15.908779
4548000000,136.97549,15.732158
4549000000,135.9579,15.594313
4550000000,136.2195,15.704584
4551000000,135.62245,15.337829
4552000000,135.61163,15.362871
4553000000,135.02066,15.044407
4554000000,134.92236,14.891342
4555000000,134.39928,14.80205
4556000000,133.76968,14.47912
4557000000,134.14609,14.488993
4558000000,133.35599,14.216756
4559000000,132.74719,14.018541
4560000000,132.73976,14.018285
4561000000,132.58229,13.787414
4562000000,132.20799,13.506625
4563000000,131.95372,13.588023
4564000000,131.14621,13.35862
4565000000,130.88123,13.19135
4566000000,130.56429,12.998928
4567000000,130.32985,12.912048
4568000000,130.09969,12.718321
4569000000,129.64018,12.539568
4570000000,129.53059,12.410055
4571000000,128.83766,12.145864
4572000000,128.31435,12.01613
4573000000,127.9853,11.835313
4574000000,128.35115,11.716479
4575000000,127.80946,11.716462
4576000000,127.09329,11.427941
4577000000,127.07608,11.154365
4578000000,126.50121,11.166378
4579000000,126.01262,10.996411
4580000000,126.17179,11.03169
4581000000,125.33923,10.480513
4582000000,124.67583,10.4527
4583000000,124.61766,10.419898
4584000000,124.63862,10.130554
4585000000,124.28101,10.087914
4586000000,123.35521,9.9093208
4587000000,123.45386,9.7425785
4588000000,122.74715,9.6636229
4589000000,122.75473,9.49891
4590000000,122.36937,9.1656752
4591000000,122.52844,9.0963163
4592000000,121.42738,8.9888391
4593000000,121.49337,8.8264866
4594000000,121.1524,8.6950617
4595000000,120.72428,8.6892061
4596000000,119.60514,8.2371006
4597000000,119.31422,8.0581646
4598000000,119.0078,7.9322772
4599000000,118.80852,7.838017
4600000000,118.17571,7.7281399
4601000000,118.22527,7.7258773
4602000000,117.24241,7.3224282
4603000000,117.69492,7.2583175
4604000000,116.70718,7.1352124
4605000000,116.59788,6.926734
4606000000,116.34019,6.8341703
4607000000,115.87132,6.551559
4608000000,114.81599,6.6508274
4609000000,115.13036,6.3665528
4610000000,114.31639,6.112813
4611000000,114.43887,6.0618086
4612000000,112.93382,5.6864457
4613000000,114.15395,5.7581191
4614000000,112.76915,5.4562216
4615000000,112.73536,5.3154087
4616000000,111.71446,5.05724
4617000000,111.21323,4.9415212
4618000000,111.31096,4.7372217
4619000000,111.07472,4.7848253
4620000000,110.44884,4.6092286
4621000000,109.64285,4.4185829
4622000000,110.30844,4.3643889
4623000000,108.80728,4.2216454
4624000000,108.21687,3.9454849
4625000000,107.88903,3.7404156
4626000000,107.85458,3.6197174
4627000000,106.78598,3.4607038
4628000000,106.40578,3.2009065
4629000000,106.48919,3.189141
4630000000,106.03204,3.027652
4631000000,105.17191,2.9034152
4632000000,105.34457,2.8137472
4633000000,104.27065,2.4018688
4634000000,103.47411,2.356889
4635000000,103.50426,2.1982129
4636000000,102.9745,2.0348539
4637000000,102.90694,1.8808843
4638000000,102.39459,1.7613146
4639000000,101.64828,1.5537806
4640000000,101.15886,1.4463791
4641000000,100.62204,1.3508511
4642000000,99.88102,0.92681205
4643000000,99.052841,0.7717675
4644000000,99.803329,0.91091841
4645000000,99.492844,0.76943153
4646000000,98.603767,0.50030351
4647000000,98.290031,0.4323501
4648000000,97.516159,0.15666455
4649000000,96.210747,-0.11386839
4650000000,96.794579,-0.13214748
4651000000,95.941956,-0.24575728
4652000000,95.419495,-0.39560744
4653000000,95.155533,-0.557069
4654000000,94.590576,-0.82922518
4655000000,94.401169,-0.99039292
4656000000,93.811523,-1.0980297
4657000000,92.850868,-1.373011
4658000000,93.124306,-1.2578174
4659000000,91.967796,-1.5875884
4660000000,91.213531,-1.7302719
4661000000,91.075218,-1.7910383
4662000000,90.234467,-2.213999
4663000000,90.305649,-2.1227765
4664000000,89.968208,-2.2347212
4665000000,89.52784,-2.4623685
4666000000,88.581779,-2.7696159
4667000000,88.217644,-2.8321242
4668000000,86.454109,-2.974674
4669000000,87.118118,-3.0903964
4670000000,85.964088,-3.2779732
4671000000,85.826714,-3.4700756
4672000000,85.119789,-3.6169877
4673000000,84.406898,-3.838022
4674000000,84.240555,-4.0664334
4675000000,83.536079,-4.0507412
4676000000,83.157669,-4.2156477
4677000000,81.784515,-4.5118427
4678000000,81.847023,-4.5187917
4679000000,81.372604,-4.7718725
4680000000,80.992706,-4.8868642
4681000000,80.628052,-5.1055431
4682000000,79.096832,-5.1858253
4683000000,79.027283,-5.2820616
4684000000,78.358826,-5.4909711
4685000000,78.633591,-5.7008381
4686000000,77.800255,-5.9434891
4687000000,76.983841,-5.9914217
4688000000,76.776405,-6.1415854
4689000000,76.209213,-6.2925682
4690000000,76.076874,-6.4278593
4691000000,75.119431,-6.5365639
4692000000,75.396828,-6.5901928
4693000000,74.011238,-6.9503493
4694000000,73.301956,-7.1056428
4695000000,72.144165,-7.3745914
4696000000,72.071762,-7.3908558
4697000000,72.960655,-7.3797464
4698000000,71.543159,-7.780097
4699000000,70.590157,-7.9895148
4700000000,69.965416,-7.9741445
4701000000,69.337776,-8.1365547
4702000000,69.42601,-8.2993889
4703000000,68.785278,-8.4007406
4704000000,67.728577,-8.6932058
4705000000,67.034218,-8.885972
4706000000,67.018364,-8.9586172
4707000000,66.813057,-9.0767345
4708000000,65.988449,-9.195961
4709000000,64.853561,-9.5041313
4710000000,64.120132,-9.7158566
4711000000,64.204277,-9.820075
4712000000,63.715214,-9.8536205
4713000000,62.525799,-10.116078
4714000000,62.134636,-10.34025
4715000000,60.314415,-10.586704
4716000000,61.302608,-10.545352
4717000000,60.670898,-10.765821
4718000000,59.139065,-10.941378
4719000000,59.368839,-11.289022
4720000000,58.355927,-11.14958
4721000000,58.178055,-11.516857
4722000000,56.535938,-11.634574
4723000000,57.40765,-11.511281
4724000000,56.0466,-11.855227
4725000000,55.842506,-11.937425
4726000000,54.372017,-12.207901
4727000000,55.132797,-12.235992
4728000000,53.048923,-12.437673
4729000000,52.859516,-12.4888
4730000000,52.466942,-12.825874
4731000000,51.966007,-12.858514
4732000000,51.413124,-12.988837
4733000000,49.990116,-13.524664
4734000000,50.852978,-13.234587
4735000000,49.283482,-13.564909
4736000000,49.646355,-13.679274
4737000000,48.286106,-13.877248
4738000000,48.186085,-14.068656
4739000000,46.249771,-14.345922
4740000000,46.480392,-14.280886
4741000000,45.801792,-14.585529
4742000000,45.605309,-14.571435
4743000000,44.591244,-14.787288
4744000000,43.69722,-14.934235
4745000000,43.043919,-15.252129
4746000000,43.314804,-15.253194
4747000000,42.253544,-15.434307
4748000000,41.148361,-15.598283
4749000000,40.768593,-15.829056
4750000000,40.232609,-15.939033
4751000000,39.650475,-16.21558
4752000000,39.286118,-16.317499
4753000000,39.441891,-16.362144
4754000000,38.016468,-16.694401
4755000000,38.198692,-16.686209
4756000000,36.672871,-16.964684
4757000000,36.50251,-17.094944
4758000000,35.229729,-17.456215
4759000000,34.927906,-17.448328
4760000000,34.702293,-17.566961
4761000000,34.513718,-17.697027
4762000000,33.164692,-17.801178
4763000000,32.772438,-18.009802
4764000000,31.071993,-18.20874
4765000000,31.35346,-18.437576
4766000000,31.386707,-18.527414
4767000000,30.602715,-18.838175
4768000000,30.293993,-18.817558
4769000000,29.293394,-18.992266
4770000000,28.841894,-19.116327
4771000000,28.718904,-19.259428
4772000000,27.56741,-19.441774
4773000000,27.202993,-19.524981
4774000000,26.62631,-19.799311
4775000000,25.927139,-19.899355
4776000000,25.149824,-20.078625
4777000000,25.504442,-20.364237
4778000000,24.647408,-20.511589
4779000000,23.960735,-20.445553
4780000000,23.736208,-20.863905
4781000000,22.671919,-20.970755
4782000000,21.897728,-21.152639
4783000000,22.689077,-21.221977
4784000000,21.142851,-21.514885
4785000000,20.495089,-21.568661
4786000000,20.727165,-21.719324
4787000000,19.13945,-21.816967
4788000000,19.051054,-22.003639
4789000000,18.434202,-22.233681
4790000000,18.08774,-22.416616
4791000000,17.180822,-22.525927
4792000000,16.84001,-22.685371
4793000000,16.440495,-22.983265
4794000000,16.019468,-22.956697
4795000000,15.953234,-23.134163
4796000000,15.507587,-23.296644
4797000000,14.34584,-23.428556
4798000000,13.975995,-23.595093
4799000000,13.386212,-23.769814
4800000000,13.280712,-23.783125
4801000000,12.499994,-24.138689
4802000000,12.606162,-24.3722
4803000000,11.536618,-24.391464
4804000000,10.751168,-24.687298
4805000000,10.349934,-24.858082
4806000000,9.9606218,-24.853439
4807000000,9.7290325,-24.995897
4808000000,9.5903206,-25.083502
4809000000,8.1081066,-25.347757
4810000000,7.5477004,-25.65806
4811000000,7.8377523,-25.70048
4812000000,6.9782357,-25.918673
4813000000,7.0949349,-26.055521
4814000000,6.0435796,-26.115953
4815000000,4.8873968,-26.313189
4816000000,6.4853296,-26.198559
4817000000,4.4625616,-26.712173
4818000000,4.234468,-26.809036
4819000000,3.9055398,-26.951612
4820000000,3.6515789,-27.174248
4821000000,3.2790997,-27.354069
4822000000,2.5350945,-27.484066
4823000000,1.609482,-27.364449
4824000000,1.6657031,-27.844313
4825000000,1.3847558,-27.807322
4826000000,0.73853958,-27.987068
4827000000,0.18841445,-28.296345
4828000000,-0.70343703,-28.305439
4829000000,-1.0642858,-28.46406
4830000000,-1.3156124,-28.653736
4831000000,-1.3217515,-29.016373
4832000000,-2.5424554,-29.002558
4833000000,-2.504395,-29.280672
4834000000,-3.8695076,-29.419333
4835000000,-3.5269608,-29.640699
4836000000,-4.0567341,-29.60355
4837000000,-3.9786706,-29.695425
4838000000,-4.7102852,-30.04073
4839000000,-4.8396988,-30.180367
4840000000,-5.3473005,-30.303371
4841000000,-5.7357926,-30.478039
4842000000,-5.8035655,-30.767609
4843000000,-7.4139628,-30.8465
4844000000,-6.383111,-30.739985
4845000000,-7.1645236,-31.068325
4846000000,-8.0432453,-31.257036
4847000000,-8.025836,-31.460558
4848000000,-8.261322,-31.646965
4849000000,-9.135273,-31.565382
4850000000,-9.4423513,-31.756914
4851000000,-10.270092,-32.012089
4852000000,-9.5880871,-32.210972
4853000000,-10.69261,-32.158192
4854000000,-10.457341,-32.407516
4855000000,-10.859005,-32.715744
4856000000,-11.622811,-32.750214
4857000000,-11.908595,-33.038742
4858000000,-12.382593,-33.102879
4859000000,-12.711884,-33.457481
4860000000,-13.027593,-33.445187
4861000000,-13.275327,-33.798717
4862000000,-14.298162,-33.915733
4863000000,-14.18426,-33.957455
4864000000,-14.828967,-34.095516
4865000000,-15.636752,-34.208038
4866000000,-15.396626,-34.375648
4867000000,-15.434011,-34.645378
4868000000,-15.538559,-34.499363
4869000000,-16.080778,-34.933025
4870000000,-16.787504,-35.108692
4871000000,-16.627228,-35.330357
4872000000,-16.897377,-35.370541
4873000000,-17.956247,-35.536457
4874000000,-17.920935,-35.784061
4875000000,-18.644432,-35.79546
4876000000,-18.702799,-35.890182
4877000000,-19.588871,-36.123726
4878000000,-19.649611,-36.3927
4879000000,-19.624243,-36.489925
4880000000,-19.639687,-36.759037
4881000000,-20.558609,-36.891418
4882000000,-20.738245,-36.950619
4883000000,-21.47731,-37.240704
4884000000,-21.921558,-37.370842
4885000000,-22.346489,-37.585384
4886000000,-22.651606,-37.6768
4887000000,-22.149216,-37.756496
4888000000,-22.403055,-37.895947
4889000000,-23.378977,-38.128407
4890000000,-23.540554,-38.327747
4891000000,-23.569622,-38.318562
4892000000,-24.463749,-38.600075
4893000000,-24.292004,-38.707466
4894000000,-24.689587,-38.892426
4895000000,-24.980431,-38.911846
4896000000,-26.237392,-39.372044
4897000000,-25.657131,-39.305828
4898000000,-26.817745,-39.538292
4899000000,-25.938238,-39.792892
4900000000,-26.257328,-39.863918
4901000000,-26.888649,-39.820278
4902000000,-27.69191,-40.213764
4903000000,-27.016653,-40.155575
4904000000,-27.653097,-40.334568
4905000000,-28.278763,-40.554684
4906000000,-28.309601,-40.91716
4907000000,-28.3169,-40.992947
4908000000,-29.329788,-41.042034
4909000000,-29.104479,-41.2038
4910000000,-29.441185,-41.207848
4911000000,-30.602755,-41.662121
4912000000,-29.559464,-41.720573
4913000000,-30.095116,-41.917976
4914000000,-29.750654,-41.951332
4915000000,-30.907463,-42.208447
4916000000,-31.630859,-42.23811
4917000000,-30.969826,-42.506374
4918000000,-31.646351,-42.627899
4919000000,-32.147938,-43.038475
4920000000,-32.942806,-43.014954
4921000000,-33.037006,-43.12907
4922000000,-33.579906,-43.328224
4923000000,-32.896206,-43.473969
4924000000,-33.92313,-43.722725
4925000000,-33.981258,-43.900669
4926000000,-34.34103,-44.004349
4927000000,-34.456036,-44.274494
4928000000,-35.230568,-44.405777
4929000000,-34.74081,-44.640995
4930000000,-35.431602,-44.664852
4931000000,-35.204876,-44.905182
4932000000,-35.386169,-44.869823
4933000000,-36.257671,-45.07539
4934000000,-36.250809,-45.24609
4935000000,-36.986385,-45.389355
4936000000,-36.889854,-45.554321
4937000000,-37.504375,-45.702003
4938000000,-37.919937,-45.921387
4939000000,-37.362446,-45.898037
4940000000,-37.544037,-46.25367
4941000000,-37.806759,-46.435825
4942000000,-39.147018,-46.52198
4943000000,-38.369492,-46.612831
4944000000,-38.738392,-46.842499
4945000000,-38.905014,-46.893761
4946000000,-39.425926,-47.202999
4947000000,-39.609325,-47.346313
4948000000,-40.249245,-47.397514
4949000000,-39.98111,-47.707062
4950000000,-40.502853,-47.860664
4951000000,-40.505688,-47.948624
4952000000,-40.457783,-48.054222
4953000000,-41.513405,-48.228737
4954000000,-41.245651,-48.371574
4955000000,-41.419727,-48.704212
4956000000,-41.473866,-48.717972
4957000000,-41.833347,-48.787338
4958000000,-42.282097,-49.074486
4959000000,-42.227295,-49.245079
4960000000,-42.569424,-49.412807
4961000000,-42.893181,-49.531094
4962000000,-43.083599,-49.635483
4963000000,-43.267063,-49.77747
4964000000,-43.576344,-50.087051
4965000000,-44.049839,-50.093941
4966000000,-43.672321,-50.232605
4967000000,-44.554604,-50.541965
4968000000,-44.468197,-50.630314
4969000000,-45.490696,-50.833035
4970000000,-45.363155,-50.856003
4971000000,-45.409374,-51.160717
4972000000,-45.468674,-51.05978
4973000000,-45.867867,-51.413937
4974000000,-45.554699,-51.705292
4975000000,-46.227863,-51.742825
4976000000,-46.090153,-51.86578
4977000000,-46.835503,-52.045383
4978000000,-46.851837,-52.112148
4979000000,-46.712185,-52.208454
4980000000,-47.331867,-52.515053
4981000000,-47.729,-52.79987
4982000000,-47.477291,-52.983028
4983000000,-47.718662,-52.924862
4984000000,-48.219769,-53.260117
4985000000,-48.365822,-53.366768
4986000000,-48.707558,-53.633778
4987000000,-48.512688,-53.619045
4988000000,-49.510586,-53.813168
4989000000,-49.260574,-53.978889
4990000000,-49.376534,-54.209522
4991000000,-49.738842,-54.268497
4992000000,-49.645161,-54.582424
4993000000,-50.472607,-54.573261
4994000000,-50.203888,-54.733269
4995000000,-50.922443,-55.010872
4996000000,-51.51976,-55.062599
4997000000,-50.485485,-55.323143
4998000000,-51.156464,-55.412586
4999000000,-51.879368,-55.6063
5000000000,-51.968643,-55.663166
END

