!CSV A.01.01
!Agilent Technologies,E8362C,MY49020225,A.09.42.22
!Agilent E8362C: A.09.42.22
!Date: Wednesday, March 02, 2016 17:28:48
!Source: Standard

BEGIN CH1_DATA
Freq(Hz),S11 Phase(°),S21 Phase(°)
1000000000,37.462032,174.40431
1001000000,36.175385,174.16985
1002000000,35.438435,173.98433
1003000000,34.089108,173.7395
1004000000,32.020561,173.57254
1005000000,30.667912,173.41875
1006000000,29.278761,173.35175
1007000000,27.959023,173.10144
1008000000,26.456327,172.85326
1009000000,24.75231,172.64752
1010000000,23.029678,172.70694
1011000000,21.096794,172.42877
1012000000,19.215115,171.81596
1013000000,17.220486,171.9487
1014000000,15.186796,171.46109
1015000000,12.246976,171.35037
1016000000,10.719145,171.51105
1017000000,7.4987965,171.11751
1018000000,5.3924737,170.97308
1019000000,3.3609231,170.8535
1020000000,-0.67660183,170.74626
1021000000,-0.79566342,170.35696
1022000000,-5.4854875,169.92412
1023000000,-6.8867135,169.92212
1024000000,-12.725633,169.90216
1025000000,-15.705453,169.58098
1026000000,-17.990345,169.51799
1027000000,-19.677219,169.13661
1028000000,-22.730484,168.87201
1029000000,-26.707645,168.68457
1030000000,-30.027388,168.53108
1031000000,-35.384159,168.44234
1032000000,-38.915775,168.21899
1033000000,-40.016628,168.09454
1034000000,-43.523994,167.80609
1035000000,-45.27087,167.62335
1036000000,-48.787647,167.45374
1037000000,-50.961472,167.09486
1038000000,-54.260784,167.07072
1039000000,-56.013073,166.77145
1040000000,-59.023819,166.55722
1041000000,-60.68576,166.46461
1042000000,-62.851509,166.22868
1043000000,-65.349327,166.10094
1044000000,-67.613251,165.8403
1045000000,-69.040924,165.50261
1046000000,-71.360283,165.26218
1047000000,-73.223877,165.37825
1048000000,-74.790848,164.90105
1049000000,-75.780022,164.93709
1050000000,-77.394768,164.48524
1051000000,-78.401749,164.29082
1052000000,-80.926552,164.33592
1053000000,-81.1306,164.03775
1054000000,-82.01992,163.83656
1055000000,-83.7817,163.67081
1056000000,-84.397575,163.18317
1057000000,-86.444962,163.22881
1058000000,-87.144081,162.97559
1059000000,-87.470085,162.63718
1060000000,-90.272064,162.71255
1061000000,-90.742584,162.48613
1062000000,-91.202377,162.02762
1063000000,-93.235336,161.8866
1064000000,-93.964539,161.77411
1065000000,-94.798172,161.73482
1066000000,-94.965889,161.60536
1067000000,-94.767639,161.26207
1068000000,-97.108315,161.17278
1069000000,-97.554977,160.84146
1070000000,-98.63369,160.57361
1071000000,-98.866104,160.49336
1072000000,-99.369217,160.31113
1073000000,-100.67834,160.00146
1074000000,-100.40295,159.88431
1075000000,-100.81568,159.86609
1076000000,-101.7808,159.49736
1077000000,-102.45593,159.28706
1078000000,-102.76658,159.01447
1079000000,-103.67779,158.7195
1080000000,-104.05193,158.5647
1081000000,-105.36251,158.42433
1082000000,-105.96676,158.09984
1083000000,-106.08673,157.92349
1084000000,-106.17844,158.14694
1085000000,-107.0562,157.67519
1086000000,-107.47887,157.61583
1087000000,-107.58434,157.22473
1088000000,-108.60381,157.15758
1089000000,-108.72498,156.84314
1090000000,-108.80087,156.97487
1091000000,-110.52133,156.47337
1092000000,-110.25478,156.22408
1093000000,-110.76039,156.22159
1094000000,-110.67522,155.73386
1095000000,-111.67162,155.56137
1096000000,-111.63876,155.40862
1097000000,-112.27461,155.30258
1098000000,-112.17261,155.14801
1099000000,-113.70061,154.85791
1100000000,-113.93079,154.67732
1101000000,-114.05644,154.50401
1102000000,-114.45182,154.62689
1103000000,-114.782,154.13048
1104000000,-115.46692,153.76753
1105000000,-115.89742,153.75587
1106000000,-116.02377,153.48738
1107000000,-116.08378,153.24435
1108000000,-117.36851,153.02185
1109000000,-116.98655,152.96107
1110000000,-117.94456,152.67369
1111000000,-117.56741,152.44363
1112000000,-118.73866,152.30505
1113000000,-118.5333,152.09885
1114000000,-118.57871,151.97864
1115000000,-119.12633,151.77899
1116000000,-119.54842,151.46999
1117000000,-119.9224,151.26917
1118000000,-119.53429,151.28838
1119000000,-120.43401,150.75456
1120000000,-120.65796,150.73106
1121000000,-121.1496,150.66525
1122000000,-121.2262,150.35365
1123000000,-121.63891,150.0535
1124000000,-122.68169,149.851
1125000000,-122.10644,149.54431
1126000000,-122.51104,149.49051
1127000000,-123.19595,149.24229
1128000000,-123.46317,149.22401
1129000000,-123.74564,148.88477
1130000000,-123.9986,148.57312
1131000000,-123.83385,148.47778
1132000000,-124.46505,148.41521
1133000000,-124.49731,148.16554
1134000000,-124.99305,147.97391
1135000000,-125.33307,147.74898
1136000000,-125.24626,147.36836
1137000000,-125.90427,147.21788
1138000000,-126.18497,147.16985
1139000000,-126.3015,146.95747
1140000000,-126.56842,146.71996
1141000000,-126.81405,146.44843
1142000000,-127.24623,146.21844
1143000000,-127.43538,146.23332
1144000000,-128.015,145.81248
1145000000,-127.81422,145.63141
1146000000,-128.38,145.46297
1147000000,-128.78397,145.14307
1148000000,-128.85905,145.08636
1149000000,-129.49838,144.81921
1150000000,-129.42952,144.58958
1151000000,-129.7131,144.52583
1152000000,-130.18698,144.18291
1153000000,-130.18657,144.21208
1154000000,-130.63719,143.96909
1155000000,-130.7953,143.74207
1156000000,-130.69446,143.46864
1157000000,-131.46884,143.2739
1158000000,-131.98874,142.89702
1159000000,-131.73364,142.88405
1160000000,-132.00163,142.64786
1161000000,-132.21466,142.59709
1162000000,-132.18712,142.28207
1163000000,-132.92328,142.12361
1164000000,-132.79755,141.92241
1165000000,-132.97464,141.63571
1166000000,-133.53731,141.48497
1167000000,-134.02275,141.28783
1168000000,-134.23018,141.04718
1169000000,-134.13968,140.7796
1170000000,-134.3723,140.58492
1171000000,-134.54654,140.45171
1172000000,-135.06932,140.33588
1173000000,-135.19177,140.17339
1174000000,-135.63855,139.99669
1175000000,-135.80618,139.68683
1176000000,-135.85916,139.49715
1177000000,-136.20909,139.3735
1178000000,-136.14822,138.99634
1179000000,-136.4371,139.02713
1180000000,-136.54832,138.67261
1181000000,-137.18636,138.57149
1182000000,-137.89784,138.09906
1183000000,-137.48387,138.21027
1184000000,-138.58658,137.73056
1185000000,-138.47095,137.87056
1186000000,-138.5654,137.56189
1187000000,-138.2533,137.33818
1188000000,-139.00195,137.18919
1189000000,-139.28575,136.90732
1190000000,-140.06357,136.5161
1191000000,-140.03008,136.47926
1192000000,-140.0139,136.37692
1193000000,-140.24016,135.96263
1194000000,-140.51787,135.95053
1195000000,-140.63359,135.6953
1196000000,-141.04892,135.41113
1197000000,-141.49022,135.34863
1198000000,-141.48988,135.12152
1199000000,-141.38748,135.05615
1200000000,-142.01918,134.79753
1201000000,-142.42317,134.51617
1202000000,-142.88571,134.33832
1203000000,-142.72641,134.26379
1204000000,-142.92833,133.90312
1205000000,-143.35234,133.61264
1206000000,-143.30562,133.52536
1207000000,-143.23871,133.50656
1208000000,-144.25145,133.23962
1209000000,-144.69151,132.72299
1210000000,-144.21698,132.78342
1211000000,-144.78217,132.51183
1212000000,-145.16638,132.27385
1213000000,-145.37445,132.03621
1214000000,-145.27222,131.9823
1215000000,-145.95769,131.71254
1216000000,-146.14674,131.48567
1217000000,-146.02876,131.35249
1218000000,-146.3421,131.12529
1219000000,-146.19104,130.90103
1220000000,-147.41451,130.77733
1221000000,-147.34225,130.5405
1222000000,-147.53864,130.4099
1223000000,-147.59331,130.07393
1224000000,-148.31984,129.91551
1225000000,-148.55934,129.52773
1226000000,-148.56973,129.30975
1227000000,-148.85197,129.3445
1228000000,-148.87679,129.12787
1229000000,-149.47902,128.74516
1230000000,-149.63986,128.83582
1231000000,-149.68137,128.66095
1232000000,-150.18378,128.0932
1233000000,-150.31256,127.95982
1234000000,-150.12772,127.90697
1235000000,-150.83099,127.7664
1236000000,-150.80649,127.55744
1237000000,-151.28845,127.47897
1238000000,-151.56081,126.96854
1239000000,-151.86652,126.81267
1240000000,-152.24799,126.54972
1241000000,-152.27066,126.49023
1242000000,-152.47015,126.33601
1243000000,-152.83289,126.02423
1244000000,-153.07719,125.82404
1245000000,-153.25995,125.72537
1246000000,-153.59425,125.52213
1247000000,-153.76506,125.29655
1248000000,-153.65179,125.23695
1249000000,-153.89293,124.95495
1250000000,-154.1176,124.82545
1251000000,-154.37526,124.56144
1252000000,-155.01447,124.10092
1253000000,-154.96001,123.97225
1254000000,-155.44388,123.93748
1255000000,-155.65353,123.73945
1256000000,-156.0406,123.48727
1257000000,-155.99492,123.34531
1258000000,-156.20836,123.1159
1259000000,-156.31924,122.86187
1260000000,-156.47702,122.80471
1261000000,-156.77661,122.61562
1262000000,-157.29134,122.1711
1263000000,-157.46716,122.19337
1264000000,-157.60469,121.98084
1265000000,-157.66188,121.70988
1266000000,-158.34532,121.50343
1267000000,-158.76207,121.21088
1268000000,-158.7468,121.07813
1269000000,-159.08728,120.99273
1270000000,-159.01585,120.70315
1271000000,-159.54071,120.37276
1272000000,-159.40999,120.31052
1273000000,-159.85109,120.08829
1274000000,-159.78566,119.96274
1275000000,-160.15701,119.68868
1276000000,-160.51794,119.56555
1277000000,-160.42006,119.46741
1278000000,-160.9769,119.18406
1279000000,-161.62794,118.75362
1280000000,-161.19612,118.91685
1281000000,-161.55095,118.63532
1282000000,-161.99496,118.29262
1283000000,-162.15016,118.04935
1284000000,-162.36964,117.95578
1285000000,-162.87199,117.71042
1286000000,-162.75101,117.30092
1287000000,-163.27884,117.03857
1288000000,-163.2838,117.22845
1289000000,-163.50293,116.8895
1290000000,-163.79076,116.57036
1291000000,-163.86441,116.52399
1292000000,-164.80011,116.18305
1293000000,-164.4061,115.94907
1294000000,-164.82266,115.69167
1295000000,-164.9933,115.58766
1296000000,-165.22292,115.64346
1297000000,-165.46193,115.13134
1298000000,-165.62181,114.92072
1299000000,-165.5959,114.91824
1300000000,-166.29381,114.65688
1301000000,-166.45662,114.54163
1302000000,-166.99432,114.30259
1303000000,-166.54892,114.05038
1304000000,-166.84013,113.86343
1305000000,-167.07767,113.50117
1306000000,-167.40311,113.59388
1307000000,-167.61139,113.10136
1308000000,-167.88705,113.09657
1309000000,-168.51817,112.7077
1310000000,-168.80431,112.60222
1311000000,-168.60963,112.54317
1312000000,-168.64081,112.33382
1313000000,-169.47166,112.13279
1314000000,-169.18173,111.77392
1315000000,-169.18861,111.75332
1316000000,-169.67953,111.44038
1317000000,-170.1554,111.21277
1318000000,-169.99519,111.11193
1319000000,-170.22017,110.89593
1320000000,-170.77425,110.52362
1321000000,-170.7509,110.45201
1322000000,-171.15344,110.15412
1323000000,-171.18251,110.10223
1324000000,-171.8136,109.63754
1325000000,-171.72369,109.64532
1326000000,-172.21643,109.52911
1327000000,-172.60431,109.00362
1328000000,-172.43687,108.91509
1329000000,-172.80284,108.91273
1330000000,-172.98492,108.43587
1331000000,-173.51651,108.23458
1332000000,-173.26163,108.08612
1333000000,-173.40041,107.97209
1334000000,-174.10252,107.65751
1335000000,-174.3351,107.51803
1336000000,-174.48344,107.41341
1337000000,-174.28363,107.20228
1338000000,-174.8685,107.14083
1339000000,-174.91441,106.81796
1340000000,-175.11075,106.77075
1341000000,-175.41718,106.33132
1342000000,-175.87183,106.00256
1343000000,-176.14275,105.91596
1344000000,-176.1927,105.71936
1345000000,-176.21242,105.68919
1346000000,-177.0688,105.3637
1347000000,-176.80054,105.28163
1348000000,-177.0825,104.95732
1349000000,-177.16965,104.95615
1350000000,-177.45248,104.62415
1351000000,-177.90857,104.37524
1352000000,-177.89787,104.02055
1353000000,-178.15132,103.90555
1354000000,-178.28343,103.67743
1355000000,-178.45007,103.73741
1356000000,-179.15201,103.37817
1357000000,-179.05669,103.37616
1358000000,-179.5112,103.02776
1359000000,-179.38606,102.78226
1360000000,179.89307,102.48605
1361000000,179.74651,102.32071
1362000000,179.85228,102.35126
1363000000,179.16202,101.91396
1364000000,179.28722,101.64987
1365000000,179.05524,101.46251
1366000000,178.70894,101.22929
1367000000,178.60875,101.20995
1368000000,178.38652,100.9147
1369000000,177.89728,100.73959
1370000000,177.7701,100.47482
1371000000,177.27408,100.2853
1372000000,177.53558,100.18483
1373000000,177.03217,99.931664
1374000000,176.79955,99.649521
1375000000,176.82025,99.531403
1376000000,176.62486,99.396248
1377000000,176.38512,99.204689
1378000000,175.82835,98.777863
1379000000,175.67155,98.667809
1380000000,175.47275,98.544456
1381000000,175.02812,98.174492
1382000000,174.964,97.968925
1383000000,175.03751,97.838875
1384000000,174.6158,97.742737
1385000000,174.28363,97.541946
1386000000,174.06128,97.18354
1387000000,173.8035,97.196449
1388000000,173.26462,96.732292
1389000000,173.47923,96.746307
1390000000,172.98645,96.473488
1391000000,172.91463,96.160217
1392000000,172.52184,96.038528
1393000000,171.99443,95.809006
1394000000,172.01485,95.791725
1395000000,172.04382,95.536911
1396000000,171.51604,95.231873
1397000000,171.59206,95.088882
1398000000,171.349,94.958168
1399000000,171.00809,94.549156
1400000000,170.73186,94.281929
1401000000,170.42441,94.202187
1402000000,170.06993,93.912224
1403000000,169.94424,93.876968
1404000000,169.90231,93.662064
1405000000,169.90279,93.525589
1406000000,169.69748,93.400948
1407000000,168.92795,93.038437
1408000000,168.76768,92.756691
1409000000,168.21362,92.476166
1410000000,168.18202,92.362572
1411000000,167.69666,92.081001
1412000000,168.05972,92.00415
1413000000,167.4241,91.678925
1414000000,167.52066,91.608231
1415000000,167.11716,91.286118
1416000000,167.18092,91.382362
1417000000,166.7392,91.041573
1418000000,166.27309,90.85096
1419000000,166.06599,90.498276
1420000000,165.96443,90.429489
1421000000,165.64526,90.154137
1422000000,165.19942,89.867973
1423000000,164.97025,89.690971
1424000000,164.72755,89.425003
1425000000,164.28162,89.264519
1426000000,164.33456,89.140373
1427000000,164.3739,88.972061
1428000000,164.02336,88.968826
1429000000,163.53767,88.531288
1430000000,162.91524,88.228897
1431000000,163.1758,88.033791
1432000000,163.00923,87.954941
1433000000,162.27455,87.671593
1434000000,162.63045,87.495049
1435000000,162.19363,87.339119
1436000000,162.06328,87.20575
1437000000,161.81146,86.975517
1438000000,161.09596,86.711685
1439000000,161.34834,86.513123
1440000000,160.51279,86.087875
1441000000,160.9063,86.029503
1442000000,160.20822,85.754608
1443000000,160.26752,85.632774
1444000000,159.79205,85.393211
1445000000,159.52303,85.229782
1446000000,159.15236,85.024124
1447000000,159.18437,84.802856
1448000000,158.78362,84.443253
1449000000,158.71413,84.390656
1450000000,158.20451,84.138786
1451000000,158.05232,83.901947
1452000000,157.80751,83.628212
1453000000,157.19392,83.45784
1454000000,157.16985,83.355049
1455000000,157.37238,83.300323
1456000000,156.73882,82.971497
1457000000,156.77644,82.829155
1458000000,156.18285,82.552109
1459000000,156.17526,82.304199
1460000000,155.77864,82.12114
1461000000,155.65431,81.9328
1462000000,155.48494,81.811951
1463000000,155.04837,81.715874
1464000000,154.37654,81.125595
1465000000,154.11725,81.047035
1466000000,154.35707,80.91227
1467000000,153.80701,80.579185
1468000000,153.37138,80.477341
1469000000,153.60434,80.371597
1470000000,153.10638,80.084473
1471000000,152.7249,79.716087
1472000000,152.73146,79.639061
1473000000,152.51083,79.469803
1474000000,152.32698,79.263077
1475000000,151.8546,78.95443
1476000000,151.44994,78.715706
1477000000,150.95856,78.597855
1478000000,151.29514,78.440353
1479000000,150.49765,78.101433
1480000000,150.41164,78.000504
1481000000,150.25027,77.805069
1482000000,150.13838,77.450729
1483000000,149.40913,77.183434
1484000000,149.25677,77.075813
1485000000,149.09984,76.855499
1486000000,148.88271,76.750832
1487000000,148.94501,76.545258
1488000000,147.99695,76.195938
1489000000,147.96524,75.982437
1490000000,147.80431,75.94783
1491000000,147.27026,75.651749
1492000000,147.06941,75.36528
1493000000,147.08406,75.091362
1494000000,146.73538,75.053467
1495000000,146.33694,74.766144
1496000000,146.24693,74.621231
1497000000,145.85692,74.313362
1498000000,145.59637,74.20932
1499000000,145.24086,74.024223
1500000000,145.13118,73.55426
1501000000,144.30286,73.387016
1502000000,144.71082,73.345329
1503000000,144.14047,73.04969
1504000000,143.69215,72.876648
1505000000,143.65327,72.673859
1506000000,143.01373,72.448456
1507000000,143.14096,72.120522
1508000000,142.8399,71.965729
1509000000,142.58827,71.877556
1510000000,142.09261,71.589516
1511000000,141.7113,71.407578
1512000000,141.48022,71.229294
1513000000,141.302,70.86795
1514000000,141.00702,70.751419
1515000000,140.22331,70.388329
1516000000,140.17773,70.2407
1517000000,140.06926,70.064415
1518000000,139.65596,69.80352
1519000000,139.52122,69.562691
1520000000,139.26851,69.480614
1521000000,138.67821,69.214607
1522000000,138.72452,69.068642
1523000000,138.3045,68.87278
1524000000,138.13379,68.590485
1525000000,137.93719,68.364273
1526000000,137.29941,68.083473
1527000000,137.02228,67.867882
1528000000,136.83461,67.872612
1529000000,136.36511,67.484299
1530000000,136.1451,67.288239
1531000000,135.89415,67.187256
1532000000,135.53421,67.106583
1533000000,134.87383,66.749313
1534000000,134.8325,66.499512
1535000000,134.67273,66.250946
1536000000,134.03888,66.052612
1537000000,133.40601,65.800148
1538000000,133.61113,65.610275
1539000000,133.00906,65.291634
1540000000,133.29147,65.379555
1541000000,132.59279,64.903885
1542000000,132.40959,64.797493
1543000000,131.6698,64.388725
1544000000,131.51239,64.333572
1545000000,131.07207,63.948269
1546000000,130.95808,63.997841
1547000000,130.25764,63.391846
1548000000,130.05145,63.377914
1549000000,129.84938,63.375504
1550000000,129.57201,62.979317
1551000000,128.93954,62.582756
1552000000,128.86005,62.585918
1553000000,127.96223,62.237526
1554000000,128.10777,62.18726
1555000000,127.44338,61.709381
1556000000,127.12598,61.519173
1557000000,127.40464,61.553425
1558000000,126.19341,61.183334
1559000000,126.28958,60.902283
1560000000,125.84285,60.851017
1561000000,125.90731,60.502102
1562000000,124.96152,60.239788
1563000000,124.71819,60.135971
1564000000,124.25818,59.830284
1565000000,124.30593,59.734665
1566000000,123.33865,59.407955
1567000000,123.39491,59.227112
1568000000,122.96712,58.974079
1569000000,122.38083,58.76873
1570000000,122.14439,58.561504
1571000000,121.5453,58.541142
1572000000,121.54438,57.995213
1573000000,120.9863,57.857544
1574000000,120.446,57.621189
1575000000,120.33208,57.540699
1576000000,119.781,57.398445
1577000000,119.38851,57.078125
1578000000,119.11914,56.893574
1579000000,118.61618,56.630447
1580000000,118.57484,56.461468
1581000000,117.62045,56.232853
1582000000,117.31339,55.979237
1583000000,117.23573,55.634594
1584000000,116.90097,55.449146
1585000000,116.11307,55.23848
1586000000,115.86334,55.042038
1587000000,115.37884,54.660442
1588000000,114.74267,54.640434
1589000000,114.46778,54.31723
1590000000,113.32315,54.056709
1591000000,113.36885,54.05777
1592000000,112.89774,53.761009
1593000000,112.93837,53.524399
1594000000,112.21523,53.183022
1595000000,111.79525,53.117012
1596000000,111.18125,52.706467
1597000000,110.79493,52.442055
1598000000,110.20065,52.321022
1599000000,109.50825,52.085083
1600000000,109.25852,51.926105
1601000000,108.26628,51.522705
1602000000,108.09164,51.345985
1603000000,107.26176,51.386654
1604000000,107.25944,50.963348
1605000000,106.45789,50.675255
1606000000,105.88528,50.397739
1607000000,105.56561,50.237038
1608000000,105.11,50.021965
1609000000,104.33344,49.725708
1610000000,103.83384,49.502682
1611000000,103.31657,49.244358
1612000000,102.86975,49.230705
1613000000,102.49164,48.8848
1614000000,101.67253,48.563278
1615000000,101.00945,48.41143
1616000000,100.5122,48.126431
1617000000,99.84095,47.961487
1618000000,99.055458,47.612606
1619000000,98.833641,47.474892
1620000000,98.371231,47.428772
1621000000,97.684547,47.091209
1622000000,96.513138,46.795254
1623000000,95.745567,46.826954
1624000000,95.54409,46.396114
1625000000,94.348686,46.039494
1626000000,94.339638,45.851093
1627000000,92.820236,45.641842
1628000000,92.777908,45.384083
1629000000,91.755966,45.184757
1630000000,91.004036,45.175095
1631000000,90.319328,44.752502
1632000000,89.566582,44.407932
1633000000,88.569084,44.297058
1634000000,87.933174,43.997322
1635000000,87.244057,43.834663
1636000000,86.084473,43.581776
1637000000,86.182739,43.298019
1638000000,84.79599,43.087044
1639000000,83.951096,42.787647
1640000000,83.346085,42.600014
1641000000,82.013016,42.43187
1642000000,81.489983,42.222103
1643000000,80.502838,41.986771
1644000000,79.632545,41.755066
1645000000,78.473969,41.44109
1646000000,77.65097,41.133583
1647000000,76.473373,41.031475
1648000000,75.478813,40.750595
1649000000,74.910103,40.388741
1650000000,73.750893,40.335228
1651000000,72.580292,39.993572
1652000000,71.431358,39.658524
1653000000,70.315033,39.554241
1654000000,69.580429,39.428486
1655000000,68.184509,39.18338
1656000000,67.05072,38.777039
1657000000,65.869965,38.532555
1658000000,64.532211,38.464012
1659000000,63.217358,38.233299
1660000000,61.699558,37.925797
1661000000,60.824207,37.592548
1662000000,59.421532,37.257069
1663000000,57.807518,37.330662
1664000000,57.017326,36.92963
1665000000,55.700844,36.564037
1666000000,54.306545,36.553913
1667000000,52.17543,36.129772
1668000000,51.092823,35.995232
1669000000,50.093945,35.723866
1670000000,47.856926,35.634468
1671000000,46.820145,35.31778
1672000000,44.97974,35.056602
1673000000,43.542622,34.95731
1674000000,42.273308,34.419708
1675000000,40.228954,34.213348
1676000000,39.009457,34.109333
1677000000,37.010731,33.757603
1678000000,35.692799,33.507328
1679000000,34.150467,33.308712
1680000000,32.590973,32.974369
1681000000,30.783136,32.769417
1682000000,29.326298,32.498257
1683000000,27.758108,32.449268
1684000000,26.18853,32.070717
1685000000,24.41773,31.929619
1686000000,23.176102,31.633356
1687000000,20.938171,31.349865
1688000000,19.515114,31.128458
1689000000,17.781933,30.955015
1690000000,16.32509,30.597752
1691000000,14.650575,30.507631
1692000000,12.910193,30.285767
1693000000,11.200004,30.052208
1694000000,9.7166224,29.728241
1695000000,8.0357599,29.507425
1696000000,6.5526967,29.260914
1697000000,5.3062592,28.895611
1698000000,3.7363832,28.68449
1699000000,2.4771783,28.399923
1700000000,0.85402066,28.396389
1701000000,-0.33677879,28.039928
1702000000,-1.8050551,27.690151
1703000000,-3.6358063,27.62977
1704000000,-4.7505221,27.247971
1705000000,-6.1645603,27.115347
1706000000,-7.5779796,26.698961
1707000000,-9.2642622,26.360268
1708000000,-10.424888,26.244057
1709000000,-11.633421,26.156675
1710000000,-12.671506,25.64361
1711000000,-13.963153,25.394005
1712000000,-15.40064,25.17469
1713000000,-16.472134,25.082706
1714000000,-17.495043,24.740763
1715000000,-18.693747,24.49424
1716000000,-19.646568,24.115513
1717000000,-20.830708,23.917521
1718000000,-21.828442,23.745543
1719000000,-22.986349,23.601728
1720000000,-23.905474,23.232279
1721000000,-25.089565,22.889135
1722000000,-26.125582,22.724379
1723000000,-27.324842,22.527826
1724000000,-28.090332,22.301081
1725000000,-29.115833,22.115736
1726000000,-29.746368,21.658115
1727000000,-30.723845,21.560873
1728000000,-31.724405,21.245522
1729000000,-32.518559,21.060265
1730000000,-33.542271,20.638802
1731000000,-34.318096,20.418447
1732000000,-35.373791,20.365435
1733000000,-35.954285,20.130268
1734000000,-36.990013,19.655313
1735000000,-37.75753,19.453566
1736000000,-38.57106,19.305311
1737000000,-39.383095,18.926926
1738000000,-40.364414,18.676363
1739000000,-40.925201,18.623884
1740000000,-41.797546,18.03742
1741000000,-42.499443,18.005373
1742000000,-43.153458,17.848969
1743000000,-43.68198,17.639351
1744000000,-44.664524,17.046623
1745000000,-45.306652,17.052195
1746000000,-45.751701,16.75218
1747000000,-46.505974,16.660725
1748000000,-47.071289,16.376968
1749000000,-47.881287,15.887713
1750000000,-48.622219,15.80683
1751000000,-49.141701,15.616813
1752000000,-49.739769,15.356784
1753000000,-50.457317,14.899883
1754000000,-50.970207,14.851367
1755000000,-51.647137,14.582727
1756000000,-52.438034,14.385221
1757000000,-52.837395,14.006826
1758000000,-53.609615,13.614938
1759000000,-54.113194,13.478101
1760000000,-54.665264,13.017282
1761000000,-55.296268,12.888683
1762000000,-55.895397,12.528306
1763000000,-56.399353,12.284047
1764000000,-57.145741,11.888309
1765000000,-57.379566,11.924864
1766000000,-57.890873,11.714693
1767000000,-58.207603,11.74388
1768000000,-58.898312,11.128479
1769000000,-59.600479,10.770591
1770000000,-59.922157,10.652822
1771000000,-60.677742,10.375843
1772000000,-60.765469,10.352366
1773000000,-61.535114,10.048514
1774000000,-61.915527,9.584507
1775000000,-62.585426,9.2648296
1776000000,-62.889118,9.1608725
1777000000,-63.684856,8.9498501
1778000000,-63.960201,8.6431789
1779000000,-64.461586,8.352313
1780000000,-64.659889,8.1363106
1781000000,-65.448532,7.7044654
1782000000,-66.082832,7.5970521
1783000000,-66.316216,7.2916598
1784000000,-66.698181,6.9729095
1785000000,-67.142616,6.8329487
1786000000,-67.560982,6.5215883
1787000000,-68.062027,6.4484859
1788000000,-68.514336,6.1132488
1789000000,-69.156815,5.6887016
1790000000,-69.415619,5.5054522
1791000000,-69.86618,5.3845115
1792000000,-70.45932,4.9657025
1793000000,-70.857193,4.7536178
1794000000,-71.1091,4.5517216
1795000000,-71.669304,4.2765141
1796000000,-71.92244,4.1081214
1797000000,-72.497215,3.6587203
1798000000,-72.71505,3.6230781
1799000000,-73.235962,3.2311742
1800000000,-73.508972,3.0718553
1801000000,-74.075905,2.7739482
1802000000,-74.58963,2.3911252
1803000000,-74.955299,2.14114
1804000000,-75.133957,1.8458598
1805000000,-75.797142,1.6975431
1806000000,-76.060974,1.5421922
1807000000,-76.617302,0.97675562
1808000000,-77.055199,0.74336445
1809000000,-77.085403,0.82154143
1810000000,-77.578117,0.36204439
1811000000,-78.194206,0.024383934
1812000000,-78.476364,-0.096440583
1813000000,-78.677429,-0.40335599
1814000000,-79.001503,-0.51589596
1815000000,-79.705429,-1.0800015
1816000000,-80.060005,-1.1149499
1817000000,-80.283455,-1.5375407
1818000000,-80.841042,-1.8467306
1819000000,-81.168121,-1.9466957
1820000000,-81.642723,-2.3803651
1821000000,-81.905212,-2.6441758
1822000000,-82.234116,-2.8951533
1823000000,-82.610741,-3.063308
1824000000,-82.986511,-3.2952826
1825000000,-83.415428,-3.7041342
1826000000,-83.566116,-3.8003356
1827000000,-83.856171,-3.9034362
1828000000,-84.298439,-4.2533565
1829000000,-84.702896,-4.4935517
1830000000,-85.002235,-4.7711072
1831000000,-85.455154,-4.9894495
1832000000,-85.921646,-5.2813263
1833000000,-86.384377,-5.6592164
1834000000,-86.43779,-5.7812223
1835000000,-86.800804,-6.2787738
1836000000,-87.338699,-6.3086686
1837000000,-87.638336,-6.6015916
1838000000,-87.90065,-6.8678093
1839000000,-88.233276,-7.1104412
1840000000,-88.438583,-7.4404221
1841000000,-89.153122,-7.9534369
1842000000,-89.43161,-8.1134834
1843000000,-89.736313,-8.3272038
1844000000,-90.033974,-8.3120556
1845000000,-90.306664,-8.5804873
1846000000,-90.859108,-9.0956564
1847000000,-91.287125,-9.4844542
1848000000,-91.242821,-9.5832243
1849000000,-91.784119,-9.769763
1850000000,-92.170616,-10.042618
1851000000,-92.529831,-10.553797
1852000000,-92.567436,-10.520836
1853000000,-92.992554,-10.754549
1854000000,-93.326202,-11.030399
1855000000,-93.973129,-11.564526
1856000000,-93.884735,-11.546805
1857000000,-94.356026,-11.789571
1858000000,-94.475433,-11.921313
1859000000,-95.045876,-12.269657
1860000000,-95.448044,-12.61442
1861000000,-95.648109,-12.841147
1862000000,-95.850143,-13.190819
1863000000,-96.464882,-13.51237
1864000000,-96.641655,-13.737775
1865000000,-97.086517,-14.031206
1866000000,-97.225159,-14.085023
1867000000,-97.586624,-14.400845
1868000000,-97.884369,-14.664471
1869000000,-98.244476,-14.976203
1870000000,-98.661415,-15.258718
1871000000,-98.952858,-15.486597
1872000000,-99.299171,-15.868361
1873000000,-99.324951,-15.9694
1874000000,-99.703224,-16.134205
1875000000,-99.902336,-16.466507
1876000000,-100.31362,-16.705574
1877000000,-100.52569,-16.802109
1878000000,-100.84097,-17.176796
1879000000,-101.47004,-17.518806
1880000000,-101.48605,-17.757095
1881000000,-102.00377,-18.029703
1882000000,-102.13036,-18.242338
1883000000,-102.52192,-18.429106
1884000000,-102.70833,-18.679092
1885000000,-103.25305,-19.067295
1886000000,-103.49481,-19.370028
1887000000,-103.52329,-19.399055
1888000000,-104.1035,-19.59885
1889000000,-104.42039,-20.073191
1890000000,-104.68494,-20.322201
1891000000,-104.9372,-20.58869
1892000000,-105.35113,-20.8342
1893000000,-105.50385,-21.120472
1894000000,-105.51223,-21.038221
1895000000,-106.18526,-21.608194
1896000000,-106.39711,-21.761818
1897000000,-106.60873,-21.903133
1898000000,-106.95128,-22.32296
1899000000,-107.30886,-22.723661
1900000000,-107.80323,-22.811098
1901000000,-107.65061,-22.886166
1902000000,-108.18753,-23.331297
1903000000,-108.29718,-23.522051
1904000000,-109.03079,-23.832792
1905000000,-109.31823,-24.267487
1906000000,-109.49902,-24.673813
1907000000,-109.84183,-24.75699
1908000000,-109.80462,-24.734129
1909000000,-110.43919,-25.235424
1910000000,-110.55499,-25.36565
1911000000,-111.07279,-25.744631
1912000000,-111.31226,-25.937445
1913000000,-111.22817,-26.105232
1914000000,-111.52511,-26.186134
1915000000,-111.92916,-26.635706
1916000000,-112.21838,-26.891375
1917000000,-112.44487,-27.119205
1918000000,-112.7288,-27.333986
1919000000,-113.41223,-27.825647
1920000000,-113.52213,-27.996456
1921000000,-113.63937,-28.12158
1922000000,-114.13144,-28.442369
1923000000,-114.28666,-28.545778
1924000000,-114.64064,-28.937691
1925000000,-114.84797,-29.148731
1926000000,-115.23309,-29.569326
1927000000,-115.32003,-29.591976
1928000000,-115.81161,-29.930201
1929000000,-116.12997,-30.37389
1930000000,-116.14896,-30.318592
1931000000,-116.62135,-30.639282
1932000000,-116.78371,-30.945921
1933000000,-117.11881,-31.295706
1934000000,-117.3428,-31.416616
1935000000,-117.53801,-31.56209
1936000000,-117.86542,-31.964155
1937000000,-118.13621,-32.049366
1938000000,-118.537,-32.431595
1939000000,-118.60834,-32.609413
1940000000,-118.70653,-32.797306
1941000000,-119.20825,-33.097248
1942000000,-119.34346,-33.303638
1943000000,-119.89418,-33.641609
1944000000,-120.10093,-33.977829
1945000000,-120.208,-34.049141
1946000000,-120.47137,-34.218151
1947000000,-120.93025,-34.82938
1948000000,-121.2899,-34.920177
1949000000,-121.29906,-35.082733
1950000000,-121.56954,-35.203457
1951000000,-122.01584,-35.600918
1952000000,-122.44013,-35.969891
1953000000,-122.33866,-36.01263
1954000000,-122.6995,-36.194363
1955000000,-122.88703,-36.464249
1956000000,-123.35975,-36.755878
1957000000,-123.51773,-37.032597
1958000000,-123.73635,-37.296673
1959000000,-124.04308,-37.621735
1960000000,-124.19208,-37.74081
1961000000,-124.26034,-37.848652
1962000000,-124.58054,-38.152119
1963000000,-125.30231,-38.682377
1964000000,-125.34134,-38.802345
1965000000,-125.5994,-38.892426
1966000000,-125.74623,-39.078106
1967000000,-126.31524,-39.483067
1968000000,-126.54404,-39.606548
1969000000,-126.68288,-39.932732
1970000000,-127.1142,-40.283009
1971000000,-127.26302,-40.406994
1972000000,-127.91405,-40.916973
1973000000,-127.8945,-40.824322
1974000000,-128.17735,-41.278584
1975000000,-128.28117,-41.439247
1976000000,-128.37318,-41.530975
1977000000,-128.95609,-41.993732
1978000000,-129.16315,-42.132133
1979000000,-129.14232,-42.279724
1980000000,-129.60725,-42.630531
1981000000,-129.8398,-42.894192
1982000000,-130.09982,-42.89143
1983000000,-130.18811,-43.283882
1984000000,-130.60918,-43.628845
1985000000,-130.62601,-43.652306
1986000000,-131.13689,-44.06926
1987000000,-131.35912,-44.107517
1988000000,-131.50533,-44.423512
1989000000,-132.04941,-44.789467
1990000000,-132.26013,-45.057182
1991000000,-132.41385,-45.300114
1992000000,-132.69102,-45.43129
1993000000,-132.9032,-45.603329
1994000000,-132.92969,-45.785866
1995000000,-133.44182,-46.166904
1996000000,-133.62115,-46.385464
1997000000,-133.90701,-46.656822
1998000000,-133.99234,-46.659233
1999000000,-134.13586,-46.945179
2000000000,-134.49297,-47.175438
2001000000,-134.63455,-47.37167
2002000000,-135.00645,-47.70779
2003000000,-135.55399,-48.291183
2004000000,-135.68884,-48.27042
2005000000,-135.68739,-48.378063
2006000000,-136.07658,-48.720375
2007000000,-136.03654,-48.808056
2008000000,-136.15948,-48.808163
2009000000,-136.57831,-49.368267
2010000000,-136.89911,-49.68795
2011000000,-137.2961,-49.83934
2012000000,-137.44827,-49.884518
2013000000,-137.73105,-50.241222
2014000000,-137.72293,-50.481186
2015000000,-138.13045,-50.805107
2016000000,-138.42409,-50.937405
2017000000,-138.56464,-51.120663
2018000000,-138.89735,-51.32946
2019000000,-139.26909,-51.736931
2020000000,-139.41206,-51.960514
2021000000,-139.53802,-52.009464
2022000000,-139.93094,-52.529621
2023000000,-140.33232,-52.784927
2024000000,-140.32759,-52.897179
2025000000,-140.80534,-52.986267
2026000000,-140.85214,-53.378254
2027000000,-141.0206,-53.377518
2028000000,-141.14996,-53.72625
2029000000,-141.25743,-53.854877
2030000000,-141.65646,-54.323086
2031000000,-141.83093,-54.343204
2032000000,-142.08012,-54.450905
2033000000,-142.25801,-54.865295
2034000000,-142.6702,-55.096352
2035000000,-142.83659,-55.168819
2036000000,-142.84515,-55.457088
2037000000,-143.44441,-55.909416
2038000000,-143.60655,-56.075321
2039000000,-143.59346,-56.125851
2040000000,-143.93559,-56.471329
2041000000,-144.28836,-56.615658
2042000000,-144.50035,-56.849224
2043000000,-144.54895,-57.103416
2044000000,-144.95724,-57.22134
2045000000,-145.1053,-57.499729
2046000000,-145.4751,-57.921734
2047000000,-145.58046,-57.800579
2048000000,-145.73329,-57.966923
2049000000,-145.94127,-58.410404
2050000000,-146.24596,-58.699909
2051000000,-146.26312,-58.786388
2052000000,-146.69685,-59.238232
2053000000,-147.12932,-59.437107
2054000000,-147.10182,-59.604691
2055000000,-147.34512,-59.750538
2056000000,-147.57729,-59.922287
2057000000,-147.74889,-60.076611
2058000000,-148.18896,-60.392071
2059000000,-148.35069,-60.777382
2060000000,-148.50752,-60.887257
2061000000,-148.62515,-61.085949
2062000000,-149.10956,-61.577545
2063000000,-149.13222,-61.649021
2064000000,-149.44467,-61.778229
2065000000,-149.52139,-62.116821
2066000000,-150.06339,-62.289986
2067000000,-150.12378,-62.502113
2068000000,-150.03448,-62.56876
2069000000,-150.81987,-63.078602
2070000000,-150.62495,-63.117596
2071000000,-151.0416,-63.51479
2072000000,-151.34998,-63.90284
2073000000,-151.51369,-63.950726
2074000000,-151.72495,-64.064018
2075000000,-151.98979,-64.311584
2076000000,-152.11046,-64.584496
2077000000,-152.09526,-64.464005
2078000000,-152.4191,-64.765694
2079000000,-152.85345,-65.155876
2080000000,-152.90681,-65.333679
2081000000,-153.21095,-65.470123
2082000000,-153.41328,-65.761841
2083000000,-153.57936,-65.911682
2084000000,-153.79276,-66.230095
2085000000,-154.17735,-66.488266
2086000000,-153.98848,-66.305649
2087000000,-154.38463,-66.826408
2088000000,-154.55667,-66.855988
2089000000,-154.72534,-67.177628
2090000000,-154.92236,-67.252541
2091000000,-155.30478,-67.603737
2092000000,-155.2726,-67.690414
2093000000,-155.63927,-68.21019
2094000000,-155.86896,-68.133484
2095000000,-156.1693,-68.614754
2096000000,-156.21335,-68.736488
2097000000,-156.36766,-68.786896
2098000000,-156.39362,-68.981773
2099000000,-157.06317,-69.520439
2100000000,-157.35776,-69.654854
2101000000,-157.41676,-69.99157
2102000000,-157.59879,-69.955177
2103000000,-157.87547,-70.255478
2104000000,-157.76488,-70.293625
2105000000,-158.41054,-70.735817
2106000000,-158.16943,-70.937881
2107000000,-158.59772,-71.098198
2108000000,-158.92798,-71.163963
2109000000,-159.12093,-71.575722
2110000000,-159.19179,-71.684784
2111000000,-159.41946,-71.836761
2112000000,-159.85669,-72.472923
2113000000,-159.73248,-72.270332
2114000000,-160.25816,-72.673775
2115000000,-160.20676,-72.663422
2116000000,-160.32567,-72.88118
2117000000,-160.50273,-73.158302
2118000000,-160.867,-73.352562
2119000000,-161.11424,-73.637314
2120000000,-161.26698,-73.837952
2121000000,-161.55997,-74.038383
2122000000,-161.75049,-74.305298
2123000000,-162.12537,-74.647675
2124000000,-162.13264,-74.695145
2125000000,-162.58023,-74.888763
2126000000,-162.4124,-74.949028
2127000000,-162.78021,-75.350685
2128000000,-163.02029,-75.703987
2129000000,-163.12788,-75.527954
2130000000,-163.32889,-76.09243
2131000000,-163.46529,-76.062225
2132000000,-164.04826,-76.543709
2133000000,-163.89339,-76.697029
2134000000,-164.04836,-76.851822
2135000000,-164.19518,-77.045303
2136000000,-164.45831,-77.333878
2137000000,-164.85304,-77.408478
2138000000,-165.04134,-77.771927
2139000000,-164.95842,-77.69725
2140000000,-165.46326,-78.161453
2141000000,-165.80844,-78.552025
2142000000,-165.70067,-78.504204
2143000000,-165.82118,-78.592361
2144000000,-166.19673,-78.931366
2145000000,-166.3316,-79.150887
2146000000,-166.61574,-79.474541
2147000000,-166.8356,-79.567474
2148000000,-166.87851,-79.850578
2149000000,-167.22519,-80.180054
2150000000,-167.23718,-80.112549
2151000000,-167.75679,-80.350975
2152000000,-167.73891,-80.643921
2153000000,-168.09296,-80.850128
2154000000,-168.20123,-81.110291
2155000000,-168.23694,-81.139587
2156000000,-168.49294,-81.420776
2157000000,-168.51868,-81.440399
2158000000,-169.13264,-81.976517
2159000000,-169.2814,-82.105843
2160000000,-169.15346,-82.081291
2161000000,-169.49028,-82.363815
2162000000,-169.86453,-82.730247
2163000000,-169.55013,-82.601059
2164000000,-170.24098,-83.168434
2165000000,-169.96469,-83.033195
2166000000,-170.2747,-83.390686
2167000000,-170.56612,-83.542557
2168000000,-170.5276,-83.626877
2169000000,-170.93317,-84.116692
2170000000,-171.15105,-84.165482
2171000000,-171.48947,-84.424568
2172000000,-171.5752,-84.494232
2173000000,-171.75142,-84.883614
2174000000,-172.04996,-85.148552
2175000000,-172.29128,-85.571442
2176000000,-172.54552,-85.692322
2177000000,-172.69096,-85.76049
2178000000,-172.88106,-85.927505
2179000000,-173.20589,-86.218597
2180000000,-173.0056,-86.053505
2181000000,-173.29558,-86.383408
2182000000,-173.64333,-86.836159
2183000000,-173.95119,-87.066711
2184000000,-173.97827,-87.197006
2185000000,-174.11234,-87.40332
2186000000,-174.52661,-87.79438
2187000000,-174.46391,-87.669601
2188000000,-174.64285,-87.888329
2189000000,-174.87485,-88.119736
2190000000,-174.87274,-88.402512
2191000000,-175.43355,-88.847069
2192000000,-175.61539,-88.939629
2193000000,-175.59637,-89.012451
2194000000,-175.911,-89.272888
2195000000,-175.95021,-89.353355
2196000000,-176.43089,-89.914558
2197000000,-176.3679,-89.879639
2198000000,-176.87404,-90.38076
2199000000,-176.75143,-90.388588
2200000000,-177.2596,-90.77372
2201000000,-177.13869,-90.701637
2202000000,-177.61905,-91.302162
2203000000,-177.53943,-91.099487
2204000000,-178.10033,-91.592155
2205000000,-177.86502,-91.478729
2206000000,-178.28282,-91.78196
2207000000,-178.51131,-92.129913
2208000000,-178.42575,-92.209839
2209000000,-178.83311,-92.494209
2210000000,-178.76067,-92.491318
2211000000,-179.0101,-92.682686
2212000000,-179.25743,-93.174911
2213000000,-179.75044,-93.475784
2214000000,179.86685,-93.757431
2215000000,-179.92206,-93.791733
2216000000,179.88812,-94.060631
2217000000,179.91727,-94.045746
2218000000,179.44659,-94.365021
2219000000,179.3752,-94.441742
2220000000,179.08865,-94.691742
2221000000,178.87419,-95.032539
2222000000,178.96423,-95.160683
2223000000,178.67717,-95.512474
2224000000,178.42688,-95.588737
2225000000,178.08984,-95.920624
2226000000,177.93161,-96.131035
2227000000,177.99985,-96.085182
2228000000,177.69414,-96.561501
2229000000,177.37346,-96.926369
2230000000,177.29163,-97.025795
2231000000,177.20067,-97.147369
2232000000,176.82101,-97.312828
2233000000,176.74211,-97.742958
2234000000,176.89857,-97.62738
2235000000,176.18201,-98.147911
2236000000,176.11172,-98.157837
2237000000,175.81877,-98.699051
2238000000,175.95595,-98.496498
2239000000,175.59067,-98.841972
2240000000,175.32614,-99.161804
2241000000,175.18179,-99.244652
2242000000,174.96132,-99.627754
2243000000,174.5262,-99.950493
2244000000,174.75134,-99.824005
2245000000,174.39719,-100.4092
2246000000,174.39532,-100.32423
2247000000,174.13033,-100.60259
2248000000,173.83499,-100.9344
2249000000,173.80237,-101.07687
2250000000,173.46248,-101.24748
2251000000,173.23515,-101.66212
2252000000,172.97247,-101.78842
2253000000,172.82582,-102.07536
2254000000,172.57019,-102.14693
2255000000,172.59299,-102.31624
2256000000,172.37627,-102.66016
2257000000,172.18555,-102.8056
2258000000,172.06744,-103.03967
2259000000,171.78998,-103.21153
2260000000,171.5733,-103.61629
2261000000,171.52118,-103.67975
2262000000,171.10347,-104.07563
2263000000,170.96411,-104.25963
2264000000,170.88269,-104.51064
2265000000,170.51056,-104.87041
2266000000,170.50865,-104.88371
2267000000,170.14478,-104.95852
2268000000,170.09464,-105.35094
2269000000,169.86935,-105.51719
2270000000,169.50285,-106.03317
2271000000,169.27568,-106.00742
2272000000,169.29054,-106.25213
2273000000,169.18214,-106.42414
2274000000,168.84048,-106.78656
2275000000,168.75905,-106.8785
2276000000,168.49333,-107.12945
2277000000,168.12944,-107.54874
2278000000,168.20721,-107.59579
2279000000,167.92801,-107.92136
2280000000,167.89058,-108.03912
2281000000,167.74306,-108.15507
2282000000,167.33841,-108.63858
2283000000,167.18687,-108.8863
2284000000,167.01863,-108.97726
2285000000,166.87996,-109.21149
2286000000,166.76027,-109.43317
2287000000,166.45938,-109.87359
2288000000,166.34325,-109.95119
2289000000,166.05136,-110.34131
2290000000,165.70909,-110.56407
2291000000,165.76602,-110.54342
2292000000,165.43898,-111.05167
2293000000,165.27673,-111.1675
2294000000,165.08827,-111.39012
2295000000,164.8735,-111.78681
2296000000,164.51703,-112.04235
2297000000,164.58287,-112.01408
2298000000,164.09999,-112.50366
2299000000,164.35417,-112.28243
2300000000,163.86665,-112.85766
2301000000,163.62936,-113.20139
2302000000,163.46312,-113.51481
2303000000,163.29553,-113.58963
2304000000,162.98927,-113.8866
2305000000,163.03938,-114.03607
2306000000,162.96252,-114.12031
2307000000,162.52812,-114.79416
2308000000,162.35771,-114.89581
2309000000,162.01552,-115.29022
2310000000,161.97058,-115.1484
2311000000,161.77498,-115.55923
2312000000,161.61423,-115.88052
2313000000,161.44597,-115.93753
2314000000,161.33072,-116.31346
2315000000,161.05191,-116.47586
2316000000,160.91286,-116.67393
2317000000,160.49283,-117.25487
2318000000,160.42719,-117.35383
2319000000,160.28706,-117.68759
2320000000,160.05704,-117.84877
2321000000,159.87961,-118.00597
2322000000,159.45885,-118.45412
2323000000,159.22334,-118.81043
2324000000,159.2872,-118.89872
2325000000,158.97612,-119.21206
2326000000,158.86261,-119.30397
2327000000,158.83813,-119.71168
2328000000,158.51688,-119.96918
2329000000,158.26074,-120.12659
2330000000,158.23753,-120.28883
2331000000,158.12309,-120.50529
2332000000,157.54697,-121.13654
2333000000,157.45871,-121.22887
2334000000,157.34102,-121.54865
2335000000,156.93367,-121.87175
2336000000,156.77878,-122.15472
2337000000,156.48224,-122.49212
2338000000,156.60046,-122.7422
2339000000,156.2986,-122.88346
2340000000,155.84317,-123.32207
2341000000,155.95763,-123.52796
2342000000,155.77191,-123.58867
2343000000,155.43912,-124.08128
2344000000,155.08841,-124.3239
2345000000,155.07928,-124.48647
2346000000,155.02083,-124.71487
2347000000,154.74837,-124.96571
2348000000,154.49802,-125.40118
2349000000,154.31435,-125.63628
2350000000,154.21754,-125.77106
2351000000,154.09636,-126.15266
2352000000,153.79158,-126.50755
2353000000,153.69626,-126.71757
2354000000,153.48901,-126.97369
2355000000,153.25061,-127.38081
2356000000,152.83255,-127.66418
2357000000,152.66783,-128.04765
2358000000,152.51459,-128.32951
2359000000,152.15236,-128.63164
2360000000,152.10242,-128.86818
2361000000,152.05688,-129.13969
2362000000,151.73834,-129.59662
2363000000,151.5387,-129.78702
2364000000,151.38509,-130.15071
2365000000,151.28212,-130.44884
2366000000,151.18048,-130.55527
2367000000,150.81534,-131.02791
2368000000,150.48981,-131.38083
2369000000,150.60591,-131.5733
2370000000,149.93881,-132.15938
2371000000,150.00632,-132.23244
2372000000,149.73026,-132.67909
2373000000,149.72527,-132.96088
2374000000,149.53304,-132.95078
2375000000,149.32469,-133.336
2376000000,149.26939,-133.8224
2377000000,148.48384,-134.47076
2378000000,148.7299,-134.27379
2379000000,148.45665,-134.90935
2380000000,148.50266,-135.03252
2381000000,148.02937,-135.44893
2382000000,147.97145,-135.80347
2383000000,147.81068,-135.88783
2384000000,147.65138,-136.37569
2385000000,147.22417,-136.77829
2386000000,147.39384,-136.89415
2387000000,146.77748,-137.645
2388000000,146.82478,-137.7039
2389000000,146.686,-137.97983
2390000000,146.35396,-138.44868
2391000000,146.52654,-138.70175
2392000000,145.93102,-139.11343
2393000000,145.75783,-139.61356
2394000000,145.54587,-139.8891
2395000000,145.44106,-140.32001
2396000000,145.40529,-140.34799
2397000000,144.98593,-140.94585
2398000000,145.0598,-141.17986
2399000000,144.68983,-141.49759
2400000000,144.62527,-141.87715
2401000000,144.69006,-141.92712
2402000000,144.2281,-142.6855
2403000000,144.19116,-142.73013
2404000000,143.83037,-143.31154
2405000000,143.8327,-143.80701
2406000000,143.51927,-144.09819
2407000000,143.49672,-144.4305
2408000000,143.18579,-144.82336
2409000000,143.02856,-145.28839
2410000000,143.13019,-145.52731
2411000000,142.74258,-145.86525
2412000000,142.86507,-146.24258
2413000000,142.47906,-146.60187
2414000000,142.44528,-147.22379
2415000000,142.30276,-147.58357
2416000000,142.08002,-147.71185
2417000000,141.90416,-148.30589
2418000000,141.77469,-148.52901
2419000000,141.37027,-149.16232
2420000000,141.22002,-149.60049
2421000000,141.38242,-149.76167
2422000000,141.16292,-150.1778
2423000000,140.98474,-150.54642
2424000000,140.96603,-151.06793
2425000000,140.8063,-151.49417
2426000000,140.62106,-151.74414
2427000000,140.28223,-152.216
2428000000,140.65744,-152.6825
2429000000,140.33842,-153.04515
2430000000,140.34537,-153.35915
2431000000,140.28783,-153.69081
2432000000,139.9902,-154.44286
2433000000,139.89288,-154.62534
2434000000,139.73447,-155.31384
2435000000,139.88429,-155.36237
2436000000,139.92337,-156.06534
2437000000,139.87358,-156.41107
2438000000,139.85236,-156.68001
2439000000,139.90668,-157.17342
2440000000,139.5968,-157.67831
2441000000,139.73215,-158.27428
2442000000,139.60495,-158.60846
2443000000,139.59772,-159.03574
2444000000,139.28796,-159.51759
2445000000,139.46616,-159.98363
2446000000,139.49974,-160.35574
2447000000,139.71362,-160.66147
2448000000,139.40874,-161.39563
2449000000,139.81207,-161.32019
2450000000,139.3725,-162.23497
2451000000,139.83907,-162.62172
2452000000,139.78297,-162.95554
2453000000,139.83704,-163.38686
2454000000,139.87729,-164.12997
2455000000,139.89136,-164.43636
2456000000,139.89554,-165.10655
2457000000,140.04707,-165.62781
2458000000,140.39818,-165.97533
2459000000,140.46347,-166.30139
2460000000,140.46548,-166.90916
2461000000,140.76692,-167.40079
2462000000,141.05193,-167.9446
2463000000,140.98415,-168.5025
2464000000,141.57527,-168.75868
2465000000,141.6051,-169.17743
2466000000,142.05643,-169.7822
2467000000,142.05392,-170.39465
2468000000,142.31143,-171.10701
2469000000,142.64905,-171.46025
2470000000,143.1324,-171.73402
2471000000,143.32608,-172.30721
2472000000,143.67772,-172.89766
2473000000,144.03159,-173.28781
2474000000,144.48529,-173.89874
2475000000,145.09796,-174.25096
2476000000,145.6035,-174.87292
2477000000,145.7589,-175.38885
2478000000,146.33841,-175.85797
2479000000,146.54874,-176.62402
2480000000,147.36336,-176.78522
2481000000,147.80699,-177.4337
2482000000,148.39946,-177.93675
2483000000,149.08006,-178.47508
2484000000,149.39307,-179.13651
2485000000,150.21927,-179.58797
2486000000,150.82292,179.68369
2487000000,151.43823,179.41194
2488000000,152.16609,178.71896
2489000000,152.84352,178.26157
2490000000,153.5394,177.66917
2491000000,154.38823,177.04893
2492000000,155.15074,176.65422
2493000000,156.13327,176.20912
2494000000,156.92551,175.66275
2495000000,157.57359,175.00896
2496000000,158.2307,174.61211
2497000000,159.48343,174.08699
2498000000,160.17491,173.44368
2499000000,161.12239,172.99895
2500000000,161.78061,172.27036
2501000000,162.72099,171.87975
2502000000,163.65964,171.26877
2503000000,164.70276,170.6657
2504000000,165.35938,170.08914
2505000000,166.22343,169.22868
2506000000,166.96277,168.96318
2507000000,168.00491,168.28447
2508000000,168.66496,167.50928
2509000000,169.34494,167.13956
2510000000,170.45232,166.46832
2511000000,171.27344,165.93649
2512000000,172.36145,165.58147
2513000000,172.89862,164.84778
2514000000,173.8763,164.37874
2515000000,174.69002,163.8242
2516000000,175.77823,163.11536
2517000000,176.70116,162.88318
2518000000,176.90849,161.99585
2519000000,177.61436,161.54727
2520000000,178.55933,160.95956
2521000000,179.25058,160.42641
2522000000,-179.96022,159.91115
2523000000,-179.59914,159.41451
2524000000,-178.79832,158.87227
2525000000,-178.44034,158.16289
2526000000,-177.81503,157.59529
2527000000,-177.25172,157.13452
2528000000,-176.70325,156.33722
2529000000,-176.41621,155.82596
2530000000,-175.8857,155.34288
2531000000,-175.42931,154.84319
2532000000,-175.11185,154.1069
2533000000,-174.70686,153.4781
2534000000,-173.84746,153.06416
2535000000,-173.82794,152.48312
2536000000,-173.45079,152.10944
2537000000,-173.45824,151.27768
2538000000,-173.13092,150.59625
2539000000,-172.95671,150.02611
2540000000,-172.3587,149.79108
2541000000,-172.22208,149.04541
2542000000,-171.95799,148.59653
2543000000,-171.89381,147.81081
2544000000,-171.46933,147.40782
2545000000,-171.61177,146.8093
2546000000,-171.50255,146.18015
2547000000,-171.53169,145.53787
2548000000,-170.98027,145.28725
2549000000,-170.9545,144.62012
2550000000,-171.10963,143.92805
2551000000,-170.83073,143.56914
2552000000,-170.81833,142.86407
2553000000,-170.77094,142.54369
2554000000,-170.72476,141.71953
2555000000,-171.1232,141.17398
2556000000,-171.19009,140.3623
2557000000,-170.7249,140.16776
2558000000,-170.90039,139.56635
2559000000,-171.0751,138.92113
2560000000,-171.05873,138.34203
2561000000,-171.12798,137.85632
2562000000,-171.34175,137.19284
2563000000,-171.06964,136.78284
2564000000,-171.20413,136.33382
2565000000,-171.19965,135.67419
2566000000,-171.33627,135.12997
2567000000,-171.44092,134.67371
2568000000,-171.69646,134.07243
2569000000,-171.58551,133.7296
2570000000,-171.92679,133.0619
2571000000,-172.15347,132.50325
2572000000,-172.1082,132.08788
2573000000,-172.38809,131.39287
2574000000,-172.6097,130.83653
2575000000,-172.74765,130.36615
2576000000,-172.87936,129.86995
2577000000,-173.15022,129.36659
2578000000,-173.24518,128.78609
2579000000,-173.65353,128.20396
2580000000,-173.5983,127.70338
2581000000,-173.86491,127.37291
2582000000,-174.05962,126.69146
2583000000,-174.36911,126.2636
2584000000,-174.34343,125.79913
2585000000,-174.77649,125.24008
2586000000,-174.91223,124.66915
2587000000,-175.07755,124.18604
2588000000,-175.07719,123.78882
2589000000,-175.47009,122.94614
2590000000,-175.88309,122.70361
2591000000,-176.26192,121.89246
2592000000,-176.28957,121.73815
2593000000,-176.74579,121.19116
2594000000,-176.99005,120.59803
2595000000,-177.11481,120.01902
2596000000,-177.41272,119.74863
2597000000,-177.9072,119.00142
2598000000,-177.85706,118.85868
2599000000,-178.0536,118.21774
2600000000,-178.36662,117.69333
2601000000,-178.85454,117.08819
2602000000,-178.88647,116.7869
2603000000,-179.37402,116.05355
2604000000,-179.70174,115.64669
2605000000,-179.76144,115.21968
2606000000,179.61185,114.5714
2607000000,179.70482,114.42678
2608000000,179.20113,113.66803
2609000000,178.98511,113.28837
2610000000,178.99123,112.99241
2611000000,178.2672,112.42338
2612000000,177.84969,111.66698
2613000000,177.89722,111.40104
2614000000,177.47348,111.06106
2615000000,177.38919,110.66979
2616000000,177.00572,110.12248
2617000000,176.58142,109.419
2618000000,176.37717,109.14758
2619000000,176.03406,108.68499
2620000000,175.70297,108.02117
2621000000,175.5152,107.73702
2622000000,175.23404,107.3532
2623000000,174.80545,106.85159
2624000000,174.66628,106.3896
2625000000,174.2659,105.78588
2626000000,174.28816,105.4531
2627000000,173.62976,104.93282
2628000000,173.70099,104.74664
2629000000,172.97995,104.0218
2630000000,172.73822,103.74251
2631000000,172.47281,103.29417
2632000000,172.2589,102.7306
2633000000,171.88905,102.16149
2634000000,171.65372,101.87664
2635000000,171.23793,101.549
2636000000,170.8589,100.9733
2637000000,170.57576,100.5247
2638000000,170.14964,99.81543
2639000000,169.8156,99.52462
2640000000,169.63927,99.100891
2641000000,169.41098,98.860542
2642000000,168.90068,98.46891
2643000000,168.80081,98.013206
2644000000,168.15424,97.199608
2645000000,167.98166,96.952583
2646000000,167.66988,96.533997
2647000000,167.37508,96.065971
2648000000,167.02455,95.519234
2649000000,166.84779,95.308907
2650000000,166.24687,94.711319
2651000000,166.15024,94.388008
2652000000,165.64961,93.666878
2653000000,165.50455,93.431534
2654000000,165.1709,93.074738
2655000000,164.98433,92.729706
2656000000,164.30562,92.147636
2657000000,164.05772,91.741821
2658000000,163.73399,91.103004
2659000000,163.40346,90.821365
2660000000,162.97755,90.189804
2661000000,162.76184,89.881683
2662000000,162.20645,89.352509
2663000000,161.94324,88.8825
2664000000,161.63612,88.436722
2665000000,161.23323,88.102859
2666000000,161.02063,87.819733
2667000000,160.8009,87.341515
2668000000,160.03198,86.879707
2669000000,159.74373,86.100426
2670000000,159.5455,85.835777
2671000000,159.23138,85.531357
2672000000,158.95433,84.992516
2673000000,158.60927,84.560928
2674000000,158.15475,84.188454
2675000000,157.62796,83.518654
2676000000,157.35117,83.146454
2677000000,157.19707,82.67086
2678000000,156.67223,81.981506
2679000000,156.46811,81.909935
2680000000,155.87682,81.295586
2681000000,155.70862,80.820168
2682000000,155.12923,80.435898
2683000000,154.59082,79.83757
2684000000,154.42194,79.424095
2685000000,153.9547,78.878296
2686000000,153.25124,78.107574
2687000000,153.13393,77.808105
2688000000,152.80972,77.534325
2689000000,152.20177,76.815849
2690000000,152.10196,76.516029
2691000000,151.75343,76.012184
2692000000,150.99239,75.294037
2693000000,150.59343,74.823494
2694000000,150.42271,74.412109
2695000000,149.90605,74.001595
2696000000,149.54095,73.555458
2697000000,148.955,72.818985
2698000000,148.99971,72.658928
2699000000,148.42863,72.116226
2700000000,147.5645,71.227753
2701000000,147.65358,70.954346
2702000000,147.22101,70.650818
2703000000,146.68477,69.916306
2704000000,146.04097,69.156731
2705000000,145.56958,68.66478
2706000000,145.30339,68.370323
2707000000,144.52304,67.553925
2708000000,144.23836,67.109009
2709000000,144.02992,66.558838
2710000000,143.43494,66.082909
2711000000,142.61871,65.121368
2712000000,142.56105,64.921082
2713000000,141.92506,64.131096
2714000000,141.63821,63.846027
2715000000,140.87827,63.125927
2716000000,140.51009,62.645634
2717000000,140.22287,62.049961
2718000000,139.50464,61.238274
2719000000,138.89166,60.633591
2720000000,138.48676,60.094913
2721000000,137.71793,59.242256
2722000000,137.30902,58.712418
2723000000,136.92093,58.292088
2724000000,136.4494,57.716778
2725000000,135.73439,56.857548
2726000000,135.28447,56.167709
2727000000,134.79443,55.597397
2728000000,134.04568,54.80545
2729000000,133.69176,54.193047
2730000000,132.90097,53.402679
2731000000,132.39137,52.703884
2732000000,131.6803,51.848183
2733000000,131.15515,51.172153
2734000000,130.76009,50.464241
2735000000,130.12202,49.950653
2736000000,129.539,48.873329
2737000000,129.00632,48.072666
2738000000,128.23439,47.261379
2739000000,127.9781,47.077702
2740000000,127.17491,45.897373
2741000000,126.53127,45.058155
2742000000,126.13536,44.401237
2743000000,125.64427,43.618233
2744000000,124.62045,42.632881
2745000000,124.01472,41.827011
2746000000,123.15069,40.717331
2747000000,122.85961,40.012875
2748000000,122.2268,39.212688
2749000000,121.43933,38.307178
2750000000,120.74757,37.182587
2751000000,120.10017,36.491951
2752000000,119.74764,35.519779
2753000000,118.96425,34.632397
2754000000,118.20647,33.403248
2755000000,118.04553,32.821102
2756000000,117.01786,31.469215
2757000000,116.61492,30.620523
2758000000,115.80576,29.288643
2759000000,115.32806,28.282063
2760000000,115.14294,27.46859
2761000000,114.62194,26.450888
2762000000,114.03894,25.118593
2763000000,113.97527,24.304083
2764000000,113.57166,23.044949
2765000000,113.16553,22.030836
2766000000,113.19803,20.850733
2767000000,113.07441,19.699657
2768000000,113.16079,18.553949
2769000000,113.6777,17.354456
2770000000,113.93671,16.061432
2771000000,114.62477,15.033939
2772000000,116.09046,13.758624
2773000000,117.53086,12.413815
2774000000,119.61246,11.327689
2775000000,122.62773,9.9910784
2776000000,125.88538,8.6628981
2777000000,131.27043,7.5263906
2778000000,137.78055,6.3506432
2779000000,146.42909,5.0231214
2780000000,156.31169,3.7851636
2781000000,167.50394,2.314122
2782000000,179.26193,1.2384723
2783000000,-170.86865,-0.012193682
2784000000,-162.50826,-1.253916
2785000000,-155.54327,-2.5995336
2786000000,-150.13049,-3.8872929
2787000000,-146.25778,-5.1381211
2788000000,-143.5316,-6.586493
2789000000,-141.06665,-7.6415415
2790000000,-139.37946,-8.8266573
2791000000,-137.99127,-10.113445
2792000000,-137.72034,-11.603388
2793000000,-137.02594,-12.855808
2794000000,-136.6698,-14.024833
2795000000,-136.98013,-15.376944
2796000000,-137.08539,-16.513647
2797000000,-136.58325,-17.5215
2798000000,-137.49117,-19.026581
2799000000,-137.91667,-20.349207
2800000000,-137.97931,-21.277534
2801000000,-138.74419,-22.456575
2802000000,-139.44217,-23.817183
2803000000,-140.2598,-25.025034
2804000000,-140.63692,-26.024115
2805000000,-141.52527,-27.448441
2806000000,-142.02945,-28.452934
2807000000,-142.98607,-29.599649
2808000000,-143.55339,-30.681597
2809000000,-144.45927,-31.929331
2810000000,-145.11284,-32.875568
2811000000,-146.03183,-33.995377
2812000000,-146.8125,-35.155834
2813000000,-147.19347,-35.827209
2814000000,-148.04463,-37.064632
2815000000,-149.03076,-37.995808
2816000000,-149.74799,-39.063999
2817000000,-150.44713,-39.815746
2818000000,-151.25598,-40.997803
2819000000,-151.9935,-42.046085
2820000000,-152.77606,-42.846779
2821000000,-153.4478,-43.738552
2822000000,-154.01494,-44.629143
2823000000,-154.825,-45.316299
2824000000,-155.86786,-46.651318
2825000000,-156.50603,-47.377674
2826000000,-157.06357,-48.089184
2827000000,-157.96288,-49.018452
2828000000,-158.79114,-50.099476
2829000000,-159.03986,-50.394077
2830000000,-159.9232,-51.337242
2831000000,-160.37877,-52.04884
2832000000,-161.27213,-53.023251
2833000000,-161.90691,-53.734875
2834000000,-162.39162,-54.481136
2835000000,-163.22391,-55.239662
2836000000,-163.54918,-55.839588
2837000000,-164.47881,-56.677402
2838000000,-164.87949,-57.230293
2839000000,-165.52043,-57.816692
2840000000,-166.0294,-58.563881
2841000000,-166.66792,-59.179295
2842000000,-167.35118,-59.981327
2843000000,-167.67226,-60.267632
2844000000,-168.21657,-60.967903
2845000000,-169.04411,-61.820213
2846000000,-169.35497,-62.268623
2847000000,-169.98587,-62.934681
2848000000,-170.65961,-63.648273
2849000000,-171.2437,-64.234505
2850000000,-171.5105,-64.660645
2851000000,-172.28464,-65.576439
2852000000,-172.34953,-65.74157
2853000000,-172.89348,-66.383644
2854000000,-173.5504,-66.935089
2855000000,-174.09435,-67.368958
2856000000,-174.48494,-67.97113
2857000000,-174.84627,-68.360565
2858000000,-175.61609,-69.100143
2859000000,-175.91365,-69.514946
2860000000,-176.2879,-69.961433
2861000000,-176.64204,-70.412308
2862000000,-177.14133,-70.737465
2863000000,-177.63071,-71.36116
2864000000,-178.10658,-71.884239
2865000000,-178.49915,-72.478821
2866000000,-178.86371,-72.642044
2867000000,-179.49812,-73.297226
2868000000,-179.88145,-73.798599
2869000000,-179.75749,-73.825859
2870000000,179.64503,-74.338646
2871000000,178.91786,-75.078117
2872000000,178.95781,-75.28421
2873000000,178.51039,-75.433037
2874000000,178.21109,-75.995773
2875000000,177.64699,-76.498718
2876000000,177.22044,-77.016136
2877000000,177.02303,-77.16198
2878000000,176.60146,-77.582954
2879000000,176.0027,-78.296265
2880000000,175.92201,-78.301277
2881000000,175.6331,-78.695465
2882000000,175.12495,-79.264572
2883000000,174.68228,-79.70118
2884000000,174.48482,-79.943031
2885000000,174.27931,-80.02636
2886000000,174.1516,-80.305359
2887000000,173.38644,-80.948875
2888000000,173.33826,-81.142952
2889000000,173.0526,-81.379562
2890000000,172.77151,-81.754013
2891000000,172.4023,-82.154518
2892000000,172.05995,-82.360298
2893000000,171.73161,-82.664856
2894000000,171.7421,-82.896378
2895000000,171.07864,-83.453941
2896000000,170.76093,-83.629234
2897000000,170.34958,-83.954491
2898000000,170.02356,-84.490128
2899000000,169.88922,-84.528465
2900000000,169.60835,-85.010094
2901000000,169.39299,-85.212204
2902000000,169.04379,-85.404175
2903000000,168.78014,-85.838478
2904000000,168.52872,-85.887283
2905000000,168.19916,-86.24469
2906000000,167.91354,-86.501205
2907000000,167.61491,-86.740158
2908000000,167.63068,-86.943306
2909000000,167.07503,-87.501602
2910000000,166.81371,-87.591766
2911000000,166.82796,-87.799217
2912000000,166.41406,-88.190285
2913000000,166.22185,-88.317314
2914000000,166.08968,-88.904091
2915000000,165.60689,-88.800323
2916000000,165.38808,-89.083794
2917000000,165.13651,-89.274796
2918000000,164.86479,-89.547531
2919000000,164.71426,-89.749115
2920000000,164.56424,-90.063354
2921000000,164.42906,-90.203758
2922000000,164.29608,-90.415459
2923000000,163.82942,-90.5196
2924000000,163.58676,-90.861
2925000000,163.53624,-91.141525
2926000000,162.85577,-91.681602
2927000000,163.01604,-91.542709
2928000000,162.52115,-91.985641
2929000000,162.28438,-92.26783
2930000000,161.98659,-92.363853
2931000000,162.0531,-92.335426
2932000000,161.71228,-92.910393
2933000000,161.57863,-93.099976
2934000000,161.45061,-93.000206
2935000000,161.18126,-93.257813
2936000000,160.86588,-93.955536
2937000000,160.66093,-93.873558
2938000000,160.48528,-93.852623
2939000000,160.50633,-94.197922
2940000000,159.92026,-94.717644
2941000000,159.97466,-94.665451
2942000000,159.61449,-94.719727
2943000000,159.39813,-94.975044
2944000000,159.16774,-95.166176
2945000000,159.16089,-95.320763
2946000000,158.8951,-95.314751
2947000000,158.64638,-95.550491
2948000000,158.47639,-95.68232
2949000000,158.05492,-96.212395
2950000000,158.03717,-96.129974
2951000000,157.89395,-96.209045
2952000000,157.78088,-96.590935
2953000000,157.50642,-96.825066
2954000000,157.30064,-96.915642
2955000000,156.87997,-97.294365
2956000000,156.91003,-97.768135
2957000000,156.6998,-97.650093
2958000000,156.49176,-97.561279
2959000000,156.33165,-97.665405
2960000000,156.35716,-97.839096
2961000000,156.09938,-98.037094
2962000000,155.90051,-98.259933
2963000000,155.74431,-98.223045
2964000000,155.5661,-98.511215
2965000000,155.4827,-98.707062
2966000000,155.0117,-98.806175
2967000000,154.9299,-98.978401
2968000000,154.67195,-99.240829
2969000000,154.72649,-99.010361
2970000000,154.40182,-99.338539
2971000000,154.22549,-99.608017
2972000000,154.02534,-99.814926
2973000000,153.77463,-99.986977
2974000000,153.82118,-100.17231
2975000000,153.39944,-100.0563
2976000000,153.48114,-100.44356
2977000000,153.11507,-100.58476
2978000000,153.00682,-100.76244
2979000000,152.98138,-100.578
2980000000,152.64134,-101.18191
2981000000,152.60442,-101.22005
2982000000,152.34555,-101.08696
2983000000,152.23672,-101.75835
2984000000,152.02957,-101.0694
2985000000,151.72531,-101.62811
2986000000,151.63834,-101.96318
2987000000,151.31259,-102.08023
2988000000,151.29137,-102.04839
2989000000,151.07739,-101.94073
2990000000,150.99435,-102.3156
2991000000,150.75241,-102.30688
2992000000,150.68037,-102.58955
2993000000,150.81,-102.24894
2994000000,150.45813,-102.57185
2995000000,150.13783,-103.01018
2996000000,150.30659,-102.50562
2997000000,149.79243,-103.17187
2998000000,149.77989,-103.12867
2999000000,149.52267,-103.04221
3000000000,149.53255,-103.55563
3001000000,149.25528,-103.45811
3002000000,149.03038,-103.37691
3003000000,149.01945,-103.27895
3004000000,148.9855,-103.34197
3005000000,148.66562,-103.99786
3006000000,148.58612,-103.64186
3007000000,148.33438,-104.26756
3008000000,148.33177,-103.91132
3009000000,147.99513,-104.14583
3010000000,147.86195,-104.00442
3011000000,147.84081,-104.07889
3012000000,147.69345,-104.24484
3013000000,147.59769,-104.29681
3014000000,147.35573,-104.75351
3015000000,147.09518,-104.51529
3016000000,147.12839,-104.7285
3017000000,146.86409,-104.79063
3018000000,146.75668,-104.68172
3019000000,146.60498,-104.94032
3020000000,146.47327,-105.48214
3021000000,146.15344,-105.92467
3022000000,146.11778,-105.66397
3023000000,145.94403,-105.35051
3024000000,145.8889,-105.23169
3025000000,145.52238,-105.58776
3026000000,145.35966,-105.67947
3027000000,145.41321,-106.41504
3028000000,145.20682,-106.00906
3029000000,145.07944,-105.86443
3030000000,144.93327,-105.82845
3031000000,144.5808,-106.24866
3032000000,144.649,-105.65257
3033000000,144.55011,-106.46741
3034000000,144.41299,-106.17847
3035000000,144.31754,-106.35488
3036000000,143.98538,-106.14937
3037000000,144.10385,-106.34576
3038000000,143.72784,-105.91375
3039000000,143.76376,-106.9436
3040000000,143.73126,-106.52467
3041000000,143.39536,-106.89931
3042000000,143.4187,-106.20267
3043000000,143.36909,-106.36212
3044000000,142.98703,-106.81232
3045000000,143.04086,-106.47016
3046000000,142.70825,-106.81756
3047000000,142.7588,-106.35132
3048000000,142.55452,-106.44733
3049000000,142.33299,-106.93835
3050000000,142.35977,-106.83108
3051000000,142.06061,-107.12324
3052000000,141.99637,-106.86568
3053000000,141.74506,-106.65639
3054000000,141.75552,-106.30152
3055000000,141.85857,-107.17336
3056000000,141.36398,-106.75089
3057000000,141.31604,-107.20741
3058000000,141.24881,-106.62424
3059000000,141.09259,-107.61213
3060000000,140.96922,-107.45131
3061000000,140.76698,-107.4758
3062000000,140.78476,-107.73
3063000000,140.62511,-107.34191
3064000000,140.3598,-107.09309
3065000000,140.41414,-107.60649
3066000000,139.98785,-107.79984
3067000000,140.01155,-107.42786
3068000000,139.9158,-107.33209
3069000000,139.62373,-108.04507
3070000000,139.34259,-108.17376
3071000000,139.38777,-107.61591
3072000000,139.3324,-108.16534
3073000000,139.31102,-106.93902
3074000000,139.31796,-107.51604
3075000000,138.97513,-107.93047
3076000000,138.89929,-107.0967
3077000000,138.81557,-107.15468
3078000000,138.55432,-107.84512
3079000000,138.3988,-107.88505
3080000000,138.3705,-107.19125
3081000000,138.20703,-108.29295
3082000000,138.29965,-106.03975
3083000000,137.68773,-107.88086
3084000000,137.84552,-107.90925
3085000000,137.64981,-107.53069
3086000000,137.73405,-107.06697
3087000000,137.64418,-107.55503
3088000000,137.54181,-106.70621
3089000000,137.33936,-106.62741
3090000000,137.14052,-107.22825
3091000000,137.15587,-106.12809
3092000000,136.98286,-106.88898
3093000000,136.83987,-105.86978
3094000000,136.608,-105.92588
3095000000,136.59911,-105.97557
3096000000,136.59775,-106.2871
3097000000,136.1908,-106.19438
3098000000,136.0872,-106.27441
3099000000,136.14694,-105.89103
3100000000,135.93539,-105.44273
3101000000,135.87491,-106.17319
3102000000,135.60605,-106.53979
3103000000,135.64401,-105.57638
3104000000,135.42786,-105.27023
3105000000,135.33582,-106.35336
3106000000,135.22057,-106.56425
3107000000,135.27649,-105.75613
3108000000,135.09242,-107.61871
3109000000,134.86777,-104.25635
3110000000,134.74748,-105.17531
3111000000,134.53763,-106.54716
3112000000,134.55649,-105.20406
3113000000,134.25354,-105.48107
3114000000,134.47833,-106.33669
3115000000,133.97076,-106.49174
3116000000,134.00826,-105.06876
3117000000,133.86798,-106.61607
3118000000,133.47784,-104.62193
3119000000,133.49469,-105.46225
3120000000,133.40486,-105.05579
3121000000,133.37411,-104.80762
3122000000,133.27054,-104.89657
3123000000,133.09409,-105.11433
3124000000,133.01709,-104.31391
3125000000,132.76474,-105.48345
3126000000,132.85864,-104.48424
3127000000,132.47482,-103.96111
3128000000,132.70328,-105.19131
3129000000,132.73175,-103.87796
3130000000,132.37758,-103.39118
3131000000,132.01254,-104.77156
3132000000,132.25085,-104.61478
3133000000,132.09764,-101.98407
3134000000,131.73146,-105.25004
3135000000,131.69949,-103.17832
3136000000,131.71492,-101.97375
3137000000,131.50352,-103.67995
3138000000,131.36391,-102.44537
3139000000,131.16606,-103.4127
3140000000,131.22644,-103.78629
3141000000,131.2198,-104.02183
3142000000,131.06461,-103.4849
3143000000,130.83195,-103.89001
3144000000,130.78972,-101.33936
3145000000,130.42552,-101.71969
3146000000,130.3336,-103.20657
3147000000,130.37083,-103.44419
3148000000,130.0574,-103.23061
3149000000,130.33737,-102.65569
3150000000,129.76933,-103.57023
3151000000,129.85782,-101.92147
3152000000,129.61551,-102.57937
3153000000,129.63187,-101.30498
3154000000,129.38031,-101.66082
3155000000,129.43536,-102.30676
3156000000,129.43687,-99.727928
3157000000,129.28802,-99.135727
3158000000,128.96074,-101.76387
3159000000,129.11121,-103.35438
3160000000,129.02724,-103.58475
3161000000,128.66269,-99.31469
3162000000,128.75764,-102.44081
3163000000,128.67711,-101.55223
3164000000,128.3114,-103.04399
3165000000,128.43414,-99.637459
3166000000,128.23537,-101.27856
3167000000,128.07167,-99.836472
3168000000,127.93964,-101.65385
3169000000,127.78123,-100.4107
3170000000,127.73315,-100.12794
3171000000,127.7942,-101.11736
3172000000,127.68266,-100.39728
3173000000,127.55817,-98.906021
3174000000,127.27818,-99.334152
3175000000,127.27284,-98.770851
3176000000,126.97147,-98.335548
3177000000,126.90636,-95.830696
3178000000,126.99149,-98.177704
3179000000,126.79286,-98.605019
3180000000,126.54166,-99.34079
3181000000,126.64973,-101.04433
3182000000,126.29506,-97.492401
3183000000,126.3302,-93.609337
3184000000,126.31557,-98.875977
3185000000,126.22556,-94.43808
3186000000,126.11691,-98.731735
3187000000,125.9835,-97.238686
3188000000,125.73462,-96.29406
3189000000,125.64621,-97.99807
3190000000,125.6364,-99.952019
3191000000,125.34841,-98.122108
3192000000,125.25489,-96.42643
3193000000,124.87878,-96.940048
3194000000,125.01577,-97.912659
3195000000,125.02559,-98.195412
3196000000,124.83785,-97.231705
3197000000,124.79622,-96.342323
3198000000,124.70546,-95.884964
3199000000,124.64999,-96.930283
3200000000,124.54385,-94.501205
3201000000,124.39845,-99.236351
3202000000,124.39128,-95.076195
3203000000,124.03503,-96.09922
3204000000,123.89388,-94.991241
3205000000,123.8666,-93.280472
3206000000,123.66241,-93.491829
3207000000,123.59264,-93.067307
3208000000,123.47588,-96.805138
3209000000,123.46425,-97.197639
3210000000,123.28326,-97.116264
3211000000,123.29464,-94.432968
3212000000,123.01231,-97.286407
3213000000,122.9377,-93.750519
3214000000,123.09052,-94.868843
3215000000,123.02556,-94.978241
3216000000,122.63258,-97.590942
3217000000,122.68618,-96.092308
3218000000,122.37653,-95.280037
3219000000,122.55557,-95.819946
3220000000,122.32847,-95.956413
3221000000,122.08126,-93.429535
3222000000,122.08481,-95.623001
3223000000,121.66692,-95.055504
3224000000,121.72061,-92.78698
3225000000,121.55022,-97.242393
3226000000,121.50158,-90.824875
3227000000,121.51879,-96.053291
3228000000,121.27565,-96.06749
3229000000,121.27765,-95.81102
3230000000,121.21568,-92.558922
3231000000,121.04224,-94.483185
3232000000,120.96259,-95.096817
3233000000,120.73015,-93.952118
3234000000,120.66348,-90.328941
3235000000,120.44125,-96.177673
3236000000,120.52932,-96.721428
3237000000,120.42735,-95.149925
3238000000,120.21402,-94.254982
3239000000,120.27137,-90.823311
3240000000,120.14925,-90.863312
3241000000,119.98524,-93.730507
3242000000,120.1456,-91.817352
3243000000,119.82043,-95.596916
3244000000,119.68195,-93.425659
3245000000,119.75716,-92.816917
3246000000,119.33121,-92.056511
3247000000,119.41402,-94.790382
3248000000,119.47945,-90.307327
3249000000,119.14506,-94.091072
3250000000,119.03365,-91.297264
3251000000,119.10208,-92.683708
3252000000,118.923,-89.545189
3253000000,118.74304,-93.430534
3254000000,118.79021,-93.822639
3255000000,118.57666,-93.413826
3256000000,118.39324,-96.004242
3257000000,118.18853,-95.606323
3258000000,118.2,-93.172569
3259000000,118.16148,-92.587196
3260000000,117.88828,-97.606476
3261000000,117.94521,-93.050797
3262000000,117.81618,-92.631371
3263000000,117.51115,-93.62162
3264000000,117.57097,-91.369377
3265000000,117.55096,-93.153732
3266000000,117.44411,-98.25808
3267000000,117.20719,-97.347359
3268000000,117.31666,-96.990349
3269000000,116.92339,-95.57756
3270000000,116.88782,-98.127068
3271000000,116.98976,-100.02462
3272000000,116.72675,-96.611397
3273000000,116.45084,-92.915962
3274000000,116.36465,-99.00045
3275000000,116.28255,-95.047478
3276000000,116.30502,-94.187431
3277000000,116.01042,-92.581047
3278000000,115.95974,-94.15062
3279000000,116.10018,-96.750397
3280000000,115.81881,-98.133423
3281000000,115.76724,-94.674171
3282000000,115.70245,-98.068954
3283000000,115.617,-99.211998
3284000000,115.38475,-99.024338
3285000000,115.47179,-91.888069
3286000000,114.92992,-96.866959
3287000000,115.22604,-96.727211
3288000000,115.0906,-94.434296
3289000000,114.69248,-94.138573
3290000000,114.70698,-92.468254
3291000000,114.62876,-94.38723
3292000000,114.44934,-91.94326
3293000000,114.31112,-98.893227
3294000000,114.50813,-94.319305
3295000000,114.23704,-94.904518
3296000000,114.00325,-94.126862
3297000000,114.19072,-95.615494
3298000000,113.94141,-97.635399
3299000000,113.85775,-92.086075
3300000000,113.71063,-98.473
3301000000,113.51398,-98.966209
3302000000,113.59248,-100.51493
3303000000,113.28481,-97.908928
3304000000,113.25846,-97.759796
3305000000,113.14313,-96.743217
3306000000,113.0106,-98.052177
3307000000,113.05405,-98.040977
3308000000,113.008,-98.521393
3309000000,112.93089,-93.22805
3310000000,112.61213,-97.156433
3311000000,112.69199,-96.261108
3312000000,112.5332,-100.2624
3313000000,112.28823,-93.727562
3314000000,112.1222,-101.44618
3315000000,112.14729,-95.98497
3316000000,112.11362,-101.29292
3317000000,111.92226,-100.07578
3318000000,111.72827,-102.92514
3319000000,111.63129,-100.43204
3320000000,111.72081,-103.46912
3321000000,111.54731,-99.374832
3322000000,111.51719,-102.38507
3323000000,111.09077,-100.86305
3324000000,111.16392,-104.96485
3325000000,111.28881,-104.0495
3326000000,110.88014,-102.89909
3327000000,110.71829,-101.99992
3328000000,110.9703,-98.684311
3329000000,110.75561,-102.72623
3330000000,110.58562,-101.74583
3331000000,110.48365,-104.04987
3332000000,110.29424,-105.94022
3333000000,110.39451,-102.47452
3334000000,110.1749,-99.292542
3335000000,110.064,-104.38747
3336000000,109.71954,-101.31853
3337000000,109.86986,-102.47379
3338000000,109.82419,-105.67428
3339000000,109.65837,-104.92049
3340000000,109.55968,-104.62482
3341000000,109.49361,-105.05402
3342000000,109.24275,-106.89652
3343000000,109.06568,-102.96403
3344000000,109.00732,-107.18311
3345000000,109.01474,-109.03864
3346000000,108.86295,-105.39366
3347000000,108.76288,-106.33036
3348000000,108.80607,-104.14172
3349000000,108.39644,-110.88679
3350000000,108.27902,-109.53802
3351000000,108.45829,-107.75144
3352000000,108.30888,-110.89449
3353000000,107.99772,-110.00161
3354000000,107.82813,-106.58629
3355000000,107.9414,-112.78801
3356000000,107.825,-113.05503
3357000000,107.76836,-107.3204
3358000000,107.52973,-104.59851
3359000000,107.35421,-108.84942
3360000000,107.28824,-111.32548
3361000000,107.25742,-107.79577
3362000000,107.08853,-107.8998
3363000000,107.14919,-111.58705
3364000000,106.98661,-110.48296
3365000000,106.82099,-111.26627
3366000000,107.03454,-111.75169
3367000000,106.54579,-114.69502
3368000000,106.54621,-110.69115
3369000000,106.38982,-109.64854
3370000000,106.29807,-108.6375
3371000000,106.35345,-112.62582
3372000000,106.19456,-112.90037
3373000000,106.03831,-114.54732
3374000000,105.96803,-115.83616
3375000000,106.01127,-112.57703
3376000000,105.50412,-112.95309
3377000000,105.57309,-114.83015
3378000000,105.50703,-111.27052
3379000000,105.45318,-113.02163
3380000000,105.16383,-113.46236
3381000000,105.14999,-115.04565
3382000000,105.04208,-114.13444
3383000000,104.65054,-116.59644
3384000000,104.87961,-111.43409
3385000000,104.67889,-115.58227
3386000000,104.51794,-112.58349
3387000000,104.64841,-122.91136
3388000000,104.47707,-119.94865
3389000000,104.39893,-117.20554
3390000000,103.85048,-114.00406
3391000000,104.15712,-116.92568
3392000000,103.90523,-117.866
3393000000,103.9049,-112.24638
3394000000,103.75348,-122.25426
3395000000,103.66814,-114.97102
3396000000,103.51725,-119.85612
3397000000,103.41897,-124.12012
3398000000,103.21094,-118.87985
3399000000,103.12253,-117.24927
3400000000,103.17638,-116.37543
3401000000,103.08105,-119.17892
3402000000,102.80281,-117.12992
3403000000,102.82504,-122.10295
3404000000,102.62502,-119.7384
3405000000,102.67972,-121.35984
3406000000,102.63678,-119.19357
3407000000,102.20353,-122.78713
3408000000,102.36668,-123.98347
3409000000,102.32234,-124.02354
3410000000,101.97723,-121.41899
3411000000,101.98338,-120.38093
3412000000,101.7858,-122.17159
3413000000,101.61253,-121.27114
3414000000,101.58398,-127.72548
3415000000,101.46565,-125.83027
3416000000,101.42285,-129.01324
3417000000,101.15345,-123.20325
3418000000,101.38259,-123.45198
3419000000,101.06184,-122.61237
3420000000,100.80468,-118.07968
3421000000,100.86723,-124.75711
3422000000,100.6519,-123.99921
3423000000,100.73812,-128.25046
3424000000,100.60778,-119.03934
3425000000,100.38834,-122.68536
3426000000,100.35458,-122.03174
3427000000,100.23414,-127.2489
3428000000,100.2115,-126.28172
3429000000,99.949959,-122.51021
3430000000,100.0024,-127.09687
3431000000,99.6297,-125.65044
3432000000,99.784378,-130.67342
3433000000,99.69725,-130.95251
3434000000,99.453278,-128.94743
3435000000,99.49646,-133.27815
3436000000,99.129684,-136.82224
3437000000,99.057495,-135.30695
3438000000,98.867027,-131.8692
3439000000,98.960808,-132.47253
3440000000,98.694305,-137.15125
3441000000,98.783714,-136.60588
3442000000,98.522621,-137.17342
3443000000,98.383484,-137.44104
3444000000,98.360336,-138.24713
3445000000,98.309044,-139.18869
3446000000,98.249535,-143.3425
3447000000,98.066391,-136.86253
3448000000,97.891792,-140.56854
3449000000,97.824097,-140.31702
3450000000,97.813362,-136.92946
3451000000,97.820442,-139.20084
3452000000,97.57444,-138.97789
3453000000,97.410431,-141.08374
3454000000,97.334221,-145.79814
3455000000,97.356857,-150.6073
3456000000,97.104538,-143.02057
3457000000,97.084602,-141.29115
3458000000,96.703232,-147.81885
3459000000,97.008156,-145.5583
3460000000,96.634155,-141.18517
3461000000,96.686829,-146.39063
3462000000,96.397621,-145.13608
3463000000,96.436974,-154.61275
3464000000,96.290077,-151.41016
3465000000,96.081367,-153.04601
3466000000,96.279968,-146.98537
3467000000,95.729439,-148.55244
3468000000,95.720146,-145.24634
3469000000,95.829498,-155.35216
3470000000,95.584702,-139.09822
3471000000,95.343689,-152.1582
3472000000,95.501732,-152.74838
3473000000,95.22348,-153.99518
3474000000,95.2257,-161.71712
3475000000,95.205612,-154.71457
3476000000,94.856224,-158.7328
3477000000,94.890503,-161.27917
3478000000,94.79068,-157.92691
3479000000,94.614304,-157.96754
3480000000,94.671211,-160.3811
3481000000,94.476242,-159.34714
3482000000,94.360008,-160.3679
3483000000,94.203049,-160.63826
3484000000,93.971527,-161.4735
3485000000,93.973648,-165.33421
3486000000,93.911621,-160.97133
3487000000,93.864944,-169.17557
3488000000,93.500603,-164.69228
3489000000,93.427101,-165.34378
3490000000,93.511612,-165.03313
3491000000,93.387955,-168.7876
3492000000,93.34079,-164.23392
3493000000,93.075249,-162.31653
3494000000,93.066849,-167.96002
3495000000,92.907761,-169.81696
3496000000,92.732346,-173.35384
3497000000,92.50061,-176.73619
3498000000,92.574585,-167.46388
3499000000,92.536278,-169.49762
3500000000,92.266556,-164.81674
3501000000,92.163933,-173.11887
3502000000,92.140747,-167.16661
3503000000,92.05471,-165.58209
3504000000,91.879448,-174.8896
3505000000,91.699844,-170.34001
3506000000,91.637474,-176.25757
3507000000,91.473671,-171.57907
3508000000,91.128151,-178.07692
3509000000,91.294365,-172.26018
3510000000,91.095345,-169.55803
3511000000,91.132042,-168.40118
3512000000,91.133339,-173.32462
3513000000,90.980728,-156.87444
3514000000,90.83194,-178.11012
3515000000,90.608002,-179.98154
3516000000,90.482346,-170.66519
3517000000,90.514366,-166.83693
3518000000,90.347572,-172.95613
3519000000,90.265366,-165.66672
3520000000,90.045868,-176.04459
3521000000,90.262474,-174.94955
3522000000,90.052185,-171.28047
3523000000,89.903656,-174.85942
3524000000,89.651459,-172.69058
3525000000,89.596176,-167.47762
3526000000,89.556816,-164.40561
3527000000,89.383987,-171.96848
3528000000,89.338272,-167.16631
3529000000,89.156898,-171.821
3530000000,88.869812,-169.83778
3531000000,88.821213,-175.31834
3532000000,88.963005,-172.31097
3533000000,88.725845,-168.75975
3534000000,88.581406,-171.65201
3535000000,88.328392,-166.25742
3536000000,88.13549,-161.76534
3537000000,88.343773,-171.64606
3538000000,88.373215,-171.95279
3539000000,87.925125,-172.56111
3540000000,87.686317,-172.18561
3541000000,87.963272,-170.04044
3542000000,87.815613,-171.59045
3543000000,87.544998,-170.26331
3544000000,87.407509,-170.62267
3545000000,87.422157,-170.22855
3546000000,87.23156,-166.81801
3547000000,87.196945,-166.2661
3548000000,87.266121,-165.8208
3549000000,86.95356,-174.27675
3550000000,86.89212,-170.15726
3551000000,86.821411,-173.61592
3552000000,86.271973,-169.53354
3553000000,86.311646,-170.05406
3554000000,86.323067,-167.29503
3555000000,86.315163,-171.43274
3556000000,86.050491,-173.11778
3557000000,85.883202,-166.94829
3558000000,85.921471,-168.22433
3559000000,85.841904,-164.74271
3560000000,85.54557,-164.80876
3561000000,85.553688,-170.16765
3562000000,85.441536,-175.54784
3563000000,85.303703,-164.16049
3564000000,85.229858,-168.30424
3565000000,84.963989,-166.74541
3566000000,84.953682,-165.14935
3567000000,84.890518,-161.77286
3568000000,84.847061,-165.21077
3569000000,84.646942,-162.71683
3570000000,84.674202,-161.31361
3571000000,84.412849,-160.36653
3572000000,84.279007,-163.61879
3573000000,84.199814,-166.71339
3574000000,84.088829,-162.95593
3575000000,83.921753,-158.63028
3576000000,83.756958,-162.77563
3577000000,83.675163,-161.37907
3578000000,83.665619,-171.04848
3579000000,83.521835,-171.13164
3580000000,83.348503,-166.67592
3581000000,83.022934,-168.65048
3582000000,82.813408,-167.26688
3583000000,82.9189,-173.5594
3584000000,82.828278,-167.81641
3585000000,82.971718,-172.49597
3586000000,82.696289,-166.98438
3587000000,82.524078,-170.92188
3588000000,82.562042,-171.14828
3589000000,82.546043,-168.96631
3590000000,82.092339,-167.18738
3591000000,82.297974,-169.82033
3592000000,82.008919,-173.53241
3593000000,81.705101,176.18948
3594000000,81.718185,-177.94299
3595000000,81.572052,-176.12451
3596000000,81.394043,-178.74594
3597000000,81.303482,-173.80548
3598000000,81.227318,179.97316
3599000000,81.20575,-173.85022
3600000000,80.978752,-174.47282
3601000000,80.959908,-178.01373
3602000000,80.616852,-178.38963
3603000000,80.643188,-179.92731
3604000000,80.40403,-174.39598
3605000000,80.45842,-168.97946
3606000000,80.36145,-171.60753
3607000000,80.35733,-174.52689
3608000000,80.062355,-178.14761
3609000000,80.032242,178.489
3610000000,79.865593,-175.64397
3611000000,79.667381,-179.08139
3612000000,79.677734,-169.79865
3613000000,79.440643,-172.22351
3614000000,79.10775,-173.40948
3615000000,79.37281,-174.04819
3616000000,79.270264,-175.11343
3617000000,79.057129,-175.76109
3618000000,78.803169,-173.28368
3619000000,78.782822,-170.3795
3620000000,78.614014,-172.55824
3621000000,78.408287,-169.50018
3622000000,78.348595,-170.50745
3623000000,78.134888,-171.89864
3624000000,78.092819,-176.96391
3625000000,78.100266,-169.35909
3626000000,77.909103,-171.59877
3627000000,77.739159,-174.3855
3628000000,77.735733,-172.03807
3629000000,77.34137,-172.40608
3630000000,77.383377,-170.51314
3631000000,77.436043,-171.14293
3632000000,77.166954,-173.90985
3633000000,77.059052,-173.22137
3634000000,76.742859,-172.99934
3635000000,76.540787,-167.41896
3636000000,76.661575,-172.42239
3637000000,76.634262,-170.81792
3638000000,76.320389,-171.18338
3639000000,76.314964,-171.9761
3640000000,76.265152,-172.74312
3641000000,76.197845,-176.19975
3642000000,75.751457,-175.95653
3643000000,75.771141,-174.83685
3644000000,75.727333,-176.10664
3645000000,75.575905,-177.18903
3646000000,75.460503,-172.31201
3647000000,75.479881,-174.48869
3648000000,75.128296,-176.36639
3649000000,75.052437,-174.72473
3650000000,74.8367,-171.55797
3651000000,74.829018,-172.86652
3652000000,74.651405,-167.40065
3653000000,74.71051,-172.69736
3654000000,74.384689,-172.34506
3655000000,74.114708,-171.66057
3656000000,74.245201,-171.87509
3657000000,73.863937,-171.39967
3658000000,73.839722,-170.37674
3659000000,73.976822,-169.38828
3660000000,73.779144,-174.05544
3661000000,73.292725,-172.50119
3662000000,73.305626,-173.59724
3663000000,73.249863,-174.40927
3664000000,73.123146,-175.47755
3665000000,72.786293,-174.82979
3666000000,72.840851,-172.85684
3667000000,72.785622,-175.95108
3668000000,72.474831,-177.62056
3669000000,72.511909,-176.98334
3670000000,72.392967,-174.97115
3671000000,72.35865,179.66414
3672000000,72.024803,-178.83118
3673000000,72.088318,-175.84579
3674000000,71.729973,-177.40021
3675000000,71.706711,-178.47336
3676000000,71.624771,-174.81981
3677000000,71.461861,-178.18398
3678000000,71.405899,-173.88147
3679000000,71.293816,-174.54922
3680000000,71.381523,-174.56734
3681000000,71.123817,-174.71019
3682000000,70.735367,-175.18564
3683000000,70.758072,-174.37167
3684000000,70.488144,-178.00873
3685000000,70.392799,-177.49951
3686000000,70.500656,-177.32774
3687000000,70.412422,-176.06619
3688000000,70.236267,179.77231
3689000000,70.261841,-179.01746
3690000000,69.888542,-178.1617
3691000000,69.738266,-178.14122
3692000000,69.696526,-176.8318
3693000000,69.738892,-178.04312
3694000000,69.446579,-179.24902
3695000000,69.180893,-176.69815
3696000000,68.97699,-177.52478
3697000000,69.075058,-174.34238
3698000000,68.800407,-176.93117
3699000000,68.893723,-176.82832
3700000000,68.570366,-176.56357
3701000000,68.523643,-177.15096
3702000000,68.603111,-176.70044
3703000000,68.158836,-175.72543
3704000000,68.113106,-178.746
3705000000,67.967697,-176.74574
3706000000,67.895645,-177.12344
3707000000,67.614731,-177.662
3708000000,67.630386,-177.80112
3709000000,67.629417,-178.2515
3710000000,67.442856,-178.9429
3711000000,67.269432,-178.45197
3712000000,67.232452,179.11223
3713000000,67.064278,177.57643
3714000000,66.841209,-178.72092
3715000000,66.626511,-178.99745
3716000000,66.678276,-178.51985
3717000000,66.446785,-179.15956
3718000000,66.293358,178.80618
3719000000,65.957321,-178.07849
3720000000,65.863914,-179.03488
3721000000,65.977516,-178.69582
3722000000,65.553032,-178.82104
3723000000,65.62162,-177.63002
3724000000,65.506523,-179.35081
3725000000,65.119682,-177.36739
3726000000,65.349464,-177.63594
3727000000,65.057129,-177.13559
3728000000,64.873596,-177.4174
3729000000,64.625565,-179.29134
3730000000,64.613449,-177.7373
3731000000,64.583977,-176.00046
3732000000,64.42234,-176.72618
3733000000,64.400322,-176.21609
3734000000,64.164063,-177.12489
3735000000,64.063148,-176.75298
3736000000,64.01503,-173.65439
3737000000,63.730316,-174.03513
3738000000,63.494045,-174.32448
3739000000,63.570763,-173.8298
3740000000,63.416702,-172.80351
3741000000,63.202679,-173.7944
3742000000,62.980293,-172.10789
3743000000,62.994022,-171.50552
3744000000,62.814274,-171.10454
3745000000,62.833542,-170.95332
3746000000,62.451363,-170.33189
3747000000,62.452164,-170.52461
3748000000,62.178928,-171.68359
3749000000,62.142914,-170.85399
3750000000,61.864296,-170.11319
3751000000,61.940063,-170.47414
3752000000,61.65152,-169.68166
3753000000,61.326492,-169.77979
3754000000,61.536896,-169.23589
3755000000,61.16864,-168.7581
3756000000,61.325737,-168.33682
3757000000,61.023617,-167.53879
3758000000,60.7262,-168.06146
3759000000,60.701096,-166.12436
3760000000,60.69371,-165.35239
3761000000,60.109776,-165.31378
3762000000,60.18071,-164.61713
3763000000,59.933334,-163.37386
3764000000,59.996914,-163.47505
3765000000,59.853085,-160.24542
3766000000,59.61668,-162.17012
3767000000,59.320999,-161.79076
3768000000,59.160458,-160.69156
3769000000,59.018574,-161.13828
3770000000,58.925339,-160.42354
3771000000,58.806679,-159.48865
3772000000,58.661232,-160.00049
3773000000,58.583408,-159.59048
3774000000,58.423313,-159.75705
3775000000,58.258678,-159.04964
3776000000,58.198971,-158.72113
3777000000,57.771709,-159.1461
3778000000,57.859211,-159.25516
3779000000,57.763657,-158.82784
3780000000,57.682964,-158.25182
3781000000,57.476212,-158.15347
3782000000,57.368031,-158.08551
3783000000,57.136711,-158.52954
3784000000,56.975262,-157.16481
3785000000,56.821262,-158.1111
3786000000,56.502052,-159.32587
3787000000,56.696114,-158.25801
3788000000,56.420105,-158.95053
3789000000,56.236656,-158.94148
3790000000,56.095581,-159.18929
3791000000,55.95536,-159.02884
3792000000,55.918804,-159.80524
3793000000,55.857101,-159.83459
3794000000,55.390297,-159.60463
3795000000,55.4118,-159.71426
3796000000,55.089222,-161.2934
3797000000,55.053612,-160.68842
3798000000,54.832348,-160.67975
3799000000,54.566483,-161.118
3800000000,54.574558,-161.71004
3801000000,54.248154,-162.12935
3802000000,54.420223,-161.79813
3803000000,54.144371,-161.79156
3804000000,53.955051,-162.11897
3805000000,53.828419,-162.30376
3806000000,53.545872,-162.89217
3807000000,53.117199,-162.74457
3808000000,53.369774,-162.37172
3809000000,53.164021,-162.89886
3810000000,53.128117,-163.36575
3811000000,52.750366,-163.5327
3812000000,52.675671,-163.42694
3813000000,52.671696,-163.86127
3814000000,52.218342,-164.05194
3815000000,52.235275,-164.11511
3816000000,52.105831,-164.63922
3817000000,52.110718,-164.82437
3818000000,51.653618,-165.31174
3819000000,51.423721,-165.67749
3820000000,51.407825,-165.55803
3821000000,50.935837,-166.54631
3822000000,50.817257,-166.70499
3823000000,51.212353,-166.9393
3824000000,50.709297,-167.40015
3825000000,50.567955,-167.78232
3826000000,50.494572,-167.77727
3827000000,50.307266,-168.30157
3828000000,50.25322,-168.4315
3829000000,49.999962,-168.49963
3830000000,49.753918,-169.43721
3831000000,49.921352,-169.45499
3832000000,49.638908,-169.76302
3833000000,49.40419,-169.96648
3834000000,49.12141,-170.61931
3835000000,48.99699,-171.5905
3836000000,48.767601,-171.8961
3837000000,48.676151,-172.37573
3838000000,48.451328,-172.7
3839000000,48.211224,-173.47217
3840000000,48.120823,-174.06114
3841000000,48.029388,-173.98607
3842000000,47.829105,-174.68788
3843000000,47.689018,-175.2545
3844000000,47.520626,-175.34258
3845000000,47.197723,-175.34012
3846000000,47.222919,-175.92455
3847000000,46.965141,-175.87151
3848000000,46.890717,-176.09674
3849000000,46.716167,-176.26411
3850000000,46.211296,-176.81712
3851000000,46.183014,-176.82098
3852000000,46.120289,-177.18143
3853000000,46.155884,-177.27284
3854000000,45.651497,-177.88974
3855000000,45.698437,-178.23715
3856000000,45.437607,-178.3118
3857000000,45.267429,-179.04105
3858000000,44.949398,-179.32037
3859000000,44.650219,-179.87895
3860000000,44.760605,179.55595
3861000000,44.593964,179.4184
3862000000,44.359764,178.5181
3863000000,44.299698,178.46281
3864000000,44.012932,178.04849
3865000000,44.233589,177.84778
3866000000,43.806202,177.23178
3867000000,43.696854,177.01724
3868000000,43.423038,176.42744
3869000000,43.011585,175.94482
3870000000,43.310917,175.48708
3871000000,42.939034,174.96655
3872000000,42.68169,174.39084
3873000000,42.588909,174.05843
3874000000,42.288742,173.119
3875000000,42.002132,172.40652
3876000000,41.983158,171.85899
3877000000,41.786453,171.48198
3878000000,41.544395,170.4321
3879000000,41.186604,169.69864
3880000000,41.052887,169.35504
3881000000,41.074783,168.74026
3882000000,40.804932,168.19835
3883000000,40.721725,167.77177
3884000000,40.482208,167.00429
3885000000,40.586384,166.78487
3886000000,40.259174,166.08669
3887000000,40.056507,165.3201
3888000000,39.765823,164.76202
3889000000,39.424747,164.30974
3890000000,39.462029,163.63277
3891000000,39.271393,163.33652
3892000000,38.921005,162.64458
3893000000,38.686043,162.0192
3894000000,38.6222,161.4003
3895000000,38.565979,161.16702
3896000000,38.206211,160.36061
3897000000,38.148911,159.64027
3898000000,37.816597,159.11972
3899000000,37.757133,158.47858
3900000000,37.755314,157.96663
3901000000,37.299305,157.29277
3902000000,37.053108,156.62123
3903000000,37.111633,156.10594
3904000000,36.525009,155.34921
3905000000,36.378204,154.42657
3906000000,36.375988,154.09012
3907000000,36.017384,153.27219
3908000000,35.819511,152.7458
3909000000,35.938084,151.98123
3910000000,35.550423,151.23132
3911000000,35.221424,150.52698
3912000000,35.356735,149.78023
3913000000,35.180443,149.12149
3914000000,34.991009,148.27634
3915000000,34.595814,147.59097
3916000000,34.285381,146.51346
3917000000,34.215958,145.80289
3918000000,34.002888,145.13416
3919000000,33.869179,144.31665
3920000000,33.935394,143.65204
3921000000,33.576073,142.95975
3922000000,33.23835,142.12424
3923000000,33.082333,141.4532
3924000000,33.221252,140.8842
3925000000,32.57946,139.7662
3926000000,32.447632,139.14847
3927000000,32.335419,138.44902
3928000000,31.91824,137.67012
3929000000,31.939516,137.18475
3930000000,31.625566,136.2245
3931000000,31.232355,135.26047
3932000000,31.363457,134.74667
3933000000,30.89954,133.89397
3934000000,30.698675,133.08701
3935000000,30.457594,132.54417
3936000000,30.390093,131.84039
3937000000,30.277662,130.95792
3938000000,29.914125,130.35896
3939000000,29.754494,129.60899
3940000000,29.265036,128.61908
3941000000,29.234802,128.11351
3942000000,29.043177,127.26028
3943000000,28.702829,126.78312
3944000000,28.449652,125.83179
3945000000,28.312765,125.2553
3946000000,28.312994,124.67883
3947000000,28.285923,124.04353
3948000000,27.790697,123.07996
3949000000,27.561926,122.53489
3950000000,27.213028,121.78972
3951000000,26.988838,120.86697
3952000000,26.992014,120.19679
3953000000,26.606152,119.62455
3954000000,26.580652,118.92857
3955000000,26.392553,118.23446
3956000000,26.13427,117.42619
3957000000,25.53746,116.61409
3958000000,25.512571,116.03636
3959000000,25.372189,115.2628
3960000000,25.081718,114.56676
3961000000,24.967705,113.82209
3962000000,24.610308,113.12803
3963000000,24.369764,112.47846
3964000000,24.185682,111.75025
3965000000,23.901878,111.01844
3966000000,23.554384,110.11075
3967000000,23.585371,109.53601
3968000000,23.030907,108.60757
3969000000,22.858177,108.01285
3970000000,22.718931,107.28813
3971000000,22.509668,106.59465
3972000000,22.25021,105.82583
3973000000,22.2957,105.37173
3974000000,21.709349,104.44347
3975000000,21.420588,103.71804
3976000000,21.530495,103.23586
3977000000,21.365379,102.53476
3978000000,20.922493,101.71129
3979000000,20.963846,101.19836
3980000000,20.419762,100.35335
3981000000,19.99699,99.606422
3982000000,19.941431,99.053627
3983000000,19.38011,98.083221
3984000000,19.363619,97.742409
3985000000,19.109526,96.99958
3986000000,19.078209,96.442192
3987000000,18.451744,95.574265
3988000000,18.506998,94.956947
3989000000,18.151114,94.190285
3990000000,17.870588,93.443802
3991000000,17.502966,92.826942
3992000000,17.493223,92.312195
3993000000,17.413361,91.644997
3994000000,16.966795,90.758667
3995000000,16.828646,90.045448
3996000000,16.64303,89.45491
3997000000,16.399504,88.666267
3998000000,16.117743,87.988174
3999000000,15.998531,87.420624
4000000000,15.535996,86.535187
4001000000,15.300035,85.778915
4002000000,15.195534,85.154137
4003000000,14.998018,84.519348
4004000000,14.669648,83.733398
4005000000,14.607059,83.199936
4006000000,14.449171,82.499916
4007000000,14.048257,81.678726
4008000000,14.077035,81.2938
4009000000,13.631778,80.437401
4010000000,13.690712,79.776375
4011000000,13.350545,79.193008
4012000000,13.103069,78.428024
4013000000,12.826578,77.671967
4014000000,12.799891,77.148842
4015000000,12.403096,76.468559
4016000000,12.288245,75.616447
4017000000,12.344746,75.072411
4018000000,12.181824,74.490479
4019000000,11.705791,73.515747
4020000000,11.758213,72.982384
4021000000,11.538306,72.207573
4022000000,11.374228,71.386375
4023000000,11.47314,70.922089
4024000000,11.296356,70.021919
4025000000,10.915832,69.376381
4026000000,10.891633,68.685379
4027000000,11.110272,68.140625
4028000000,11.165014,67.550751
4029000000,10.386201,66.591789
4030000000,10.683877,65.920074
4031000000,10.5558,65.199348
4032000000,10.964115,64.98996
4033000000,10.468484,63.949989
4034000000,10.85626,63.364815
4035000000,10.398208,62.596466
4036000000,10.287225,61.628845
4037000000,10.310193,61.157646
4038000000,10.641467,60.350262
4039000000,10.411654,59.472301
4040000000,10.715251,58.918442
4041000000,10.710478,58.375488
4042000000,10.799026,57.470989
4043000000,10.979872,56.883492
4044000000,11.184212,56.287895
4045000000,11.308243,55.498829
4046000000,11.387272,54.723656
4047000000,11.288807,53.84708
4048000000,11.715113,53.322792
4049000000,12.227301,52.58009
4050000000,12.407838,51.804737
4051000000,12.584097,51.112152
4052000000,13.133962,50.435047
4053000000,13.564033,49.866798
4054000000,13.658484,49.006062
4055000000,14.256341,48.269218
4056000000,14.737603,47.609009
4057000000,15.421727,46.986191
4058000000,15.679779,46.00523
4059000000,16.155174,45.232742
4060000000,16.836042,44.471546
4061000000,17.412338,43.86787
4062000000,18.257175,43.208038
4063000000,19.14204,42.382763
4064000000,19.791668,41.702183
4065000000,20.668766,41.048092
4066000000,21.41074,40.1693
4067000000,22.150703,39.320034
4068000000,23.275015,38.801125
4069000000,24.582279,38.071499
4070000000,25.165167,37.202656
4071000000,26.141663,36.510826
4072000000,27.208218,35.71196
4073000000,28.409281,35.034943
4074000000,29.617184,34.351421
4075000000,30.387949,33.313751
4076000000,31.83511,32.793591
4077000000,32.766705,31.828514
4078000000,34.219345,31.272903
4079000000,35.666275,30.663534
4080000000,36.445267,29.730301
4081000000,37.862,28.916468
4082000000,38.8801,28.339592
4083000000,39.969666,27.62174
4084000000,41.299393,26.732674
4085000000,42.53339,26.079239
4086000000,43.668385,25.489546
4087000000,44.783585,24.478092
4088000000,46.09568,24.110567
4089000000,47.180763,23.296364
4090000000,48.260017,22.482019
4091000000,49.316944,21.795551
4092000000,50.316849,20.95257
4093000000,51.573685,20.388105
4094000000,52.403633,19.656332
4095000000,53.526451,19.222937
4096000000,54.230377,18.134214
4097000000,55.080727,17.626915
4098000000,55.884357,16.75325
4099000000,56.475739,15.926917
4100000000,57.368706,15.191363
4101000000,58.105137,14.494068
4102000000,58.576767,13.88143
4103000000,59.304688,13.217883
4104000000,60.081978,12.430337
4105000000,60.436882,11.686984
4106000000,61.129025,11.28659
4107000000,61.475311,10.376194
4108000000,61.801807,9.731782
4109000000,62.3666,9.163414
4110000000,62.747543,8.426754
4111000000,63.388214,7.6997313
4112000000,63.673386,7.1828475
4113000000,63.608063,6.2923675
4114000000,64.060822,5.624208
4115000000,64.156006,4.9932976
4116000000,64.546074,4.255053
4117000000,64.670982,3.5961232
4118000000,64.671928,2.8628359
4119000000,64.956917,2.3735926
4120000000,65.026482,1.7075846
4121000000,64.998734,0.91236514
4122000000,64.986832,0.17348155
4123000000,65.397186,-0.11088958
4124000000,65.368958,-0.92935365
4125000000,65.121391,-1.4396622
4126000000,65.191093,-2.3343918
4127000000,65.096886,-2.8510878
4128000000,65.230011,-3.4515715
4129000000,65.072029,-4.1294103
4130000000,65.300873,-4.5750279
4131000000,65.190819,-5.2768474
4132000000,65.066849,-5.8006678
4133000000,65.01236,-6.4113531
4134000000,65.135895,-6.8697171
4135000000,64.793785,-7.6391749
4136000000,64.766838,-8.3511629
4137000000,64.660591,-8.6827478
4138000000,64.610062,-9.3639631
4139000000,64.237679,-10.043077
4140000000,63.999706,-10.679793
4141000000,64.111565,-11.058101
4142000000,64.09124,-11.502439
4143000000,63.83876,-12.165726
4144000000,63.698647,-12.918192
4145000000,63.392071,-13.222681
4146000000,63.246761,-13.929527
4147000000,63.024273,-14.56274
4148000000,62.810749,-15.021589
4149000000,62.818295,-15.479402
4150000000,62.54929,-16.145948
4151000000,62.251595,-16.616631
4152000000,62.398151,-17.090685
4153000000,61.984383,-17.719538
4154000000,61.791355,-18.147728
4155000000,61.35104,-18.918547
4156000000,61.081223,-19.388454
4157000000,60.786568,-19.85133
4158000000,60.723633,-20.210106
4159000000,60.53083,-20.886848
4160000000,60.133076,-21.327751
4161000000,59.987717,-21.731432
4162000000,59.755699,-22.406588
4163000000,59.400501,-22.947056
4164000000,59.347656,-23.275362
4165000000,59.075447,-23.883175
4166000000,58.789612,-24.165644
4167000000,58.713985,-24.493
4168000000,58.292572,-25.316938
4169000000,58.09166,-25.686493
4170000000,57.874039,-26.171579
4171000000,57.73914,-26.462889
4172000000,57.441067,-26.984808
4173000000,57.086006,-27.606318
4174000000,57.165134,-27.678667
4175000000,56.783581,-28.4041
4176000000,56.538189,-28.790508
4177000000,56.346859,-29.404112
4178000000,56.018551,-29.801527
4179000000,55.578388,-30.278307
4180000000,55.41489,-30.67856
4181000000,55.139191,-31.043846
4182000000,55.20929,-31.502602
4183000000,54.76976,-31.733706
4184000000,54.563652,-32.275822
4185000000,54.358788,-32.687508
4186000000,53.975117,-33.163155
4187000000,53.724453,-33.611034
4188000000,53.49464,-34.06218
4189000000,53.140316,-34.574352
4190000000,52.953339,-34.782307
4191000000,52.712601,-35.349213
4192000000,52.461166,-35.524033
4193000000,52.391308,-35.983097
4194000000,52.241497,-36.346603
4195000000,51.764912,-36.760059
4196000000,51.488655,-37.026302
4197000000,51.314949,-37.503071
4198000000,51.044273,-37.901051
4199000000,50.836491,-38.26181
4200000000,50.554523,-38.732281
4201000000,50.283096,-39.285046
4202000000,50.153934,-39.280979
4203000000,49.742344,-39.805695
4204000000,49.703236,-40.164036
4205000000,49.41404,-40.358616
4206000000,49.007999,-41.108341
4207000000,48.854038,-41.403831
4208000000,48.57011,-41.788559
4209000000,48.340321,-42.159824
4210000000,48.242508,-42.477901
4211000000,47.915485,-42.706837
4212000000,47.581055,-43.328091
4213000000,47.141415,-43.86488
4214000000,47.259678,-43.681446
4215000000,46.776711,-44.174774
4216000000,46.841602,-44.618576
4217000000,46.550812,-44.855576
4218000000,46.103848,-45.406288
4219000000,46.269836,-45.567768
4220000000,45.689499,-46.09473
4221000000,45.538792,-46.427303
4222000000,45.465481,-46.645721
4223000000,45.219307,-46.927265
4224000000,44.829021,-47.417938
4225000000,44.669891,-47.574505
4226000000,44.726547,-47.935356
4227000000,44.127026,-48.098602
4228000000,44.030609,-48.572872
4229000000,43.873539,-48.837021
4230000000,43.625805,-49.225124
4231000000,43.303753,-49.585609
4232000000,43.164253,-49.977627
4233000000,42.70126,-50.354565
4234000000,42.698845,-50.529911
4235000000,42.671719,-50.757534
4236000000,42.132713,-51.200939
4237000000,42.060284,-51.445736
4238000000,41.659836,-51.91832
4239000000,41.6255,-52.012104
4240000000,41.363125,-52.639946
4241000000,40.981659,-52.828117
4242000000,40.783859,-53.271328
4243000000,40.745426,-53.319061
4244000000,40.505356,-53.634384
4245000000,40.323872,-53.913113
4246000000,40.049969,-54.205204
4247000000,39.799435,-54.78936
4248000000,39.688168,-54.988449
4249000000,39.560043,-55.305882
4250000000,39.042675,-55.75951
4251000000,38.944347,-55.992611
4252000000,38.749603,-56.029461
4253000000,38.753826,-56.241596
4254000000,38.26812,-56.747765
4255000000,38.009117,-57.005829
4256000000,38.011868,-57.270813
4257000000,37.646885,-57.466187
4258000000,37.46682,-57.924835
4259000000,37.277641,-57.954601
4260000000,37.139729,-58.406887
4261000000,36.782249,-58.592705
4262000000,36.616718,-58.884285
4263000000,36.549427,-59.126373
4264000000,36.517483,-59.332325
4265000000,36.247284,-59.658787
4266000000,36.067806,-59.873528
4267000000,35.753872,-60.368286
4268000000,35.423389,-60.497761
4269000000,35.104603,-60.94352
4270000000,34.795185,-61.254414
4271000000,34.892239,-61.425854
4272000000,34.685524,-61.635723
4273000000,34.339016,-61.972569
4274000000,34.257748,-62.134895
4275000000,34.191559,-62.335751
4276000000,33.894184,-62.622551
4277000000,33.760216,-63.082699
4278000000,33.522629,-63.320663
4279000000,33.423538,-63.350189
4280000000,33.069649,-63.791405
4281000000,33.012497,-63.89418
4282000000,32.764568,-64.410408
4283000000,32.664394,-64.388664
4284000000,32.362328,-64.656578
4285000000,32.347122,-64.992355
4286000000,32.105923,-65.265022
4287000000,31.980886,-65.34536
4288000000,31.66518,-65.725563
4289000000,31.27424,-66.144302
4290000000,31.120951,-66.342804
4291000000,31.072071,-66.500084
4292000000,30.870058,-66.883904
4293000000,30.680197,-67.182915
4294000000,30.354834,-67.304596
4295000000,30.460058,-67.375183
4296000000,30.075071,-67.758583
4297000000,29.885132,-68.124741
4298000000,29.657156,-68.37117
4299000000,29.447216,-68.760605
4300000000,29.489513,-68.788048
4301000000,29.081703,-69.271477
4302000000,29.02825,-69.154968
4303000000,28.886051,-69.511917
4304000000,28.496372,-69.881767
4305000000,28.232611,-70.186279
4306000000,28.199167,-70.258461
4307000000,27.992937,-70.426682
4308000000,27.767309,-70.719551
4309000000,27.338078,-71.215927
4310000000,27.274014,-71.338524
4311000000,27.221119,-71.573654
4312000000,27.08301,-71.691292
4313000000,26.749933,-72.151634
4314000000,26.675289,-72.157806
4315000000,26.236204,-72.426849
4316000000,26.145321,-72.745735
4317000000,26.111322,-72.974068
4318000000,25.674843,-73.43158
4319000000,25.564964,-73.551498
4320000000,25.59412,-73.759422
4321000000,25.439938,-73.957848
4322000000,25.128784,-74.37883
4323000000,25.069918,-74.509521
4324000000,24.808628,-74.695534
4325000000,24.677679,-74.805626
4326000000,24.399405,-75.108002
4327000000,24.305986,-75.415802
4328000000,24.19169,-75.679802
4329000000,23.809298,-76.037529
4330000000,23.70381,-76.160049
4331000000,23.802021,-76.135216
4332000000,23.414906,-76.532753
4333000000,23.256578,-76.848
4334000000,23.055069,-77.044083
4335000000,22.909924,-77.172043
4336000000,22.831354,-77.482765
4337000000,22.565149,-77.631027
4338000000,22.369238,-78.011711
4339000000,22.037834,-78.297913
4340000000,22.160976,-78.374313
4341000000,21.914621,-78.522255
4342000000,21.576906,-78.872925
4343000000,21.655838,-79.063148
4344000000,21.415489,-79.341515
4345000000,21.145224,-79.661354
4346000000,21.019438,-79.788589
4347000000,20.791225,-79.855118
4348000000,20.755768,-80.1903
4349000000,20.471973,-80.474815
4350000000,20.454124,-80.686951
4351000000,20.133039,-81.014778
4352000000,19.783392,-81.452774
4353000000,19.698915,-81.488472
4354000000,19.696091,-81.797661
4355000000,19.258041,-82.068916
4356000000,19.198698,-82.235664
4357000000,18.915674,-82.525635
4358000000,18.848772,-82.558319
4359000000,18.885849,-82.747658
4360000000,18.654982,-83.09156
4361000000,18.400375,-83.177666
4362000000,18.309902,-83.488129
4363000000,18.223089,-83.606598
4364000000,17.804853,-83.865318
4365000000,17.535843,-84.396271
4366000000,17.511492,-84.738731
4367000000,17.458426,-84.62352
4368000000,17.161795,-84.906921
4369000000,17.032198,-85.140358
4370000000,16.688841,-85.440163
4371000000,16.69873,-85.529305
4372000000,16.487865,-85.962067
4373000000,16.214552,-86.159485
4374000000,16.047705,-86.522652
4375000000,15.894764,-86.599884
4376000000,15.756343,-86.720055
4377000000,15.519131,-87.026688
4378000000,15.319387,-87.186798
4379000000,15.049515,-87.565453
4380000000,15.195086,-87.495949
4381000000,14.771408,-88.181313
4382000000,14.711005,-88.113495
4383000000,14.625535,-88.342346
4384000000,14.308357,-88.676933
4385000000,14.309742,-88.898689
4386000000,14.053269,-89.119217
4387000000,13.852725,-89.36866
4388000000,13.723062,-89.380028
4389000000,13.33755,-89.932648
4390000000,13.085478,-90.205048
4391000000,13.321202,-90.114456
4392000000,12.863654,-90.560852
4393000000,12.860335,-90.755882
4394000000,12.618571,-90.965164
4395000000,12.535536,-91.088188
4396000000,12.429739,-91.423103
4397000000,12.080512,-91.575119
4398000000,12.137945,-92.074272
4399000000,11.399038,-92.265343
4400000000,11.385519,-92.574265
4401000000,11.471281,-92.869347
4402000000,11.363976,-92.995865
4403000000,11.072808,-93.320915
4404000000,10.879948,-93.450485
4405000000,10.89382,-93.657959
4406000000,10.647533,-93.887444
4407000000,10.519079,-94.228104
4408000000,10.382935,-94.38929
4409000000,10.157907,-94.568451
4410000000,9.9167747,-94.946312
4411000000,9.811101,-95.028809
4412000000,9.5129232,-95.582443
4413000000,9.5833988,-95.496674
4414000000,9.2353821,-95.805344
4415000000,8.9072857,-96.177383
4416000000,8.9151134,-96.398315
4417000000,8.838954,-96.450577
4418000000,8.6577806,-96.616768
4419000000,8.4030027,-97.001854
4420000000,8.1988831,-97.018837
4421000000,7.9585261,-97.568802
4422000000,7.8150921,-97.736992
4423000000,7.7275534,-97.899948
4424000000,7.5548654,-98.149368
4425000000,7.4964862,-98.222275
4426000000,7.3965468,-98.50145
4427000000,6.9966412,-98.913895
4428000000,6.8666544,-99.109703
4429000000,6.6983352,-99.355072
4430000000,6.6169162,-99.729294
4431000000,6.4241848,-99.894608
4432000000,6.1356826,-100.134
4433000000,6.0322351,-100.31039
4434000000,5.8020082,-100.63444
4435000000,5.7396941,-100.7622
4436000000,5.7689514,-101.02203
4437000000,5.3944764,-101.15186
4438000000,5.2851267,-101.25781
4439000000,5.2119451,-101.65372
4440000000,4.743937,-101.97254
4441000000,4.6012921,-102.40468
4442000000,4.630022,-102.4691
4443000000,4.4628744,-102.75645
4444000000,4.3114533,-102.96722
4445000000,4.1163769,-103.2177
4446000000,3.8264422,-103.5087
4447000000,3.8768423,-103.82523
4448000000,3.5893211,-104.06309
4449000000,3.3903635,-104.20588
4450000000,3.3964021,-104.33987
4451000000,3.0498214,-104.79211
4452000000,3.0038981,-104.90303
4453000000,3.0192807,-105.11964
4454000000,2.7185345,-105.44521
4455000000,2.5381792,-105.77646
4456000000,2.4163871,-105.92797
4457000000,2.3184605,-106.05979
4458000000,1.9258679,-106.53527
4459000000,1.6552757,-106.82478
4460000000,1.701367,-107.06322
4461000000,1.5625969,-107.14414
4462000000,1.4617679,-107.43089
4463000000,1.0426544,-107.74819
4464000000,0.97491944,-107.88589
4465000000,0.72996944,-108.34597
4466000000,0.55632973,-108.59478
4467000000,0.40159351,-108.76962
4468000000,0.22118336,-109.0548
4469000000,0.25319096,-109.08537
4470000000,-0.075405218,-109.60146
4471000000,-0.22846687,-109.70189
4472000000,-0.15914001,-109.86996
4473000000,-0.60501063,-110.21568
4474000000,-0.71439111,-110.62867
4475000000,-0.9467448,-110.90259
4476000000,-1.1698318,-111.26041
4477000000,-1.2190711,-111.19477
4478000000,-1.3363022,-111.55099
4479000000,-1.3558812,-111.6019
4480000000,-1.7415988,-112.00743
4481000000,-1.5675439,-112.14425
4482000000,-1.9690166,-112.57304
4483000000,-2.0467055,-112.65364
4484000000,-2.3291345,-113.15749
4485000000,-2.7078276,-113.36388
4486000000,-2.7026644,-113.712
4487000000,-2.7565205,-113.77206
4488000000,-2.8860486,-114.11549
4489000000,-3.1189051,-114.40733
4490000000,-3.2604105,-114.69691
4491000000,-3.3741047,-114.84177
4492000000,-3.6217248,-115.13506
4493000000,-3.6770585,-115.43906
4494000000,-4.0132856,-115.71144
4495000000,-4.1498919,-116.01228
4496000000,-4.2591543,-116.29091
4497000000,-4.2912507,-116.3866
4498000000,-4.8257003,-116.86726
4499000000,-4.6699624,-117.04047
4500000000,-4.9556117,-117.37067
4501000000,-5.1724958,-117.7088
4502000000,-5.3715525,-117.88804
4503000000,-5.4528985,-118.12585
4504000000,-5.3387976,-118.17633
4505000000,-5.6976118,-118.673
4506000000,-5.9316359,-118.97739
4507000000,-5.9990172,-119.20638
4508000000,-6.2550216,-119.58472
4509000000,-6.4335384,-119.9189
4510000000,-6.5736074,-119.98651
4511000000,-6.6138306,-120.05612
4512000000,-6.8232732,-120.53287
4513000000,-6.9391274,-120.71205
4514000000,-7.3323445,-121.22056
4515000000,-7.1347532,-121.25628
4516000000,-7.3666921,-121.55591
4517000000,-7.5523109,-121.82645
4518000000,-7.7313004,-122.11667
4519000000,-8.0026865,-122.44715
4520000000,-8.1768913,-122.73551
4521000000,-8.4596615,-123.0498
4522000000,-8.3503218,-123.2203
4523000000,-8.4106092,-123.43604
4524000000,-8.7706175,-123.88715
4525000000,-9.0765104,-124.24458
4526000000,-9.0288019,-124.30327
4527000000,-9.1561594,-124.7049
4528000000,-9.3310061,-124.91968
4529000000,-9.5553045,-125.357
4530000000,-9.6386805,-125.53198
4531000000,-9.7488203,-125.73217
4532000000,-10.013872,-126.14155
4533000000,-10.335453,-126.4287
4534000000,-10.304712,-126.72096
4535000000,-10.354642,-127.01397
4536000000,-10.560833,-127.19506
4537000000,-10.612612,-127.30109
4538000000,-10.785544,-127.83749
4539000000,-11.036316,-128.1898
4540000000,-10.957231,-128.08884
4541000000,-11.493941,-128.65091
4542000000,-11.412333,-128.88211
4543000000,-11.601739,-129.11975
4544000000,-11.747277,-129.38582
4545000000,-12.069834,-129.95929
4546000000,-12.095195,-130.10757
4547000000,-12.320697,-130.45041
4548000000,-12.407699,-130.69551
4549000000,-12.564034,-130.9805
4550000000,-12.671362,-131.2789
4551000000,-12.914347,-131.61288
4552000000,-12.93203,-131.96283
4553000000,-13.093525,-132.2327
4554000000,-13.226445,-132.40129
4555000000,-13.462754,-132.82082
4556000000,-13.611478,-133.20055
4557000000,-13.696967,-133.38557
4558000000,-13.802587,-133.77808
4559000000,-14.014584,-134.0435
4560000000,-14.089334,-134.36737
4561000000,-14.277381,-134.79106
4562000000,-14.280828,-134.97624
4563000000,-14.283603,-135.14648
4564000000,-14.501095,-135.33502
4565000000,-14.751756,-135.99646
4566000000,-14.94594,-136.18416
4567000000,-14.855197,-136.34473
4568000000,-15.260849,-136.81598
4569000000,-15.177271,-137.02589
4570000000,-15.631622,-137.54747
4571000000,-15.445539,-137.57599
4572000000,-15.624128,-138.02689
4573000000,-15.826911,-138.41074
4574000000,-15.786303,-138.57993
4575000000,-15.999231,-138.78493
4576000000,-16.280844,-139.39999
4577000000,-16.121721,-139.50903
4578000000,-16.30348,-139.95453
4579000000,-16.372427,-140.19241
4580000000,-16.598303,-140.53833
4581000000,-16.666126,-140.76039
4582000000,-16.862329,-141.24675
4583000000,-16.885328,-141.37596
4584000000,-17.099865,-141.68668
4585000000,-17.212505,-141.95528
4586000000,-17.095295,-142.22144
4587000000,-17.308981,-142.6353
4588000000,-17.436497,-142.89377
4589000000,-17.63183,-143.49947
4590000000,-17.736759,-143.633
4591000000,-17.747412,-143.87726
4592000000,-17.81632,-144.14734
4593000000,-17.850191,-144.4937
4594000000,-18.135715,-144.89862
4595000000,-18.33481,-145.23326
4596000000,-18.371626,-145.49509
4597000000,-18.381077,-145.88721
4598000000,-18.524525,-146.27542
4599000000,-18.600845,-146.54442
4600000000,-18.685656,-146.81081
4601000000,-18.640371,-147.04745
4602000000,-18.677462,-147.42085
4603000000,-18.813139,-147.8365
4604000000,-18.830843,-148.05399
4605000000,-19.149328,-148.60924
4606000000,-18.999794,-148.8483
4607000000,-19.002981,-149.08624
4608000000,-19.161995,-149.53375
4609000000,-19.140133,-149.62842
4610000000,-19.344463,-150.11765
4611000000,-19.521425,-150.4359
4612000000,-19.539171,-150.88857
4613000000,-19.416693,-151.09546
4614000000,-19.552223,-151.22781
4615000000,-19.525806,-151.65576
4616000000,-19.696655,-152.05251
4617000000,-19.850094,-152.26665
4618000000,-19.811642,-152.77393
4619000000,-19.691425,-153.06078
4620000000,-19.866381,-153.29669
4621000000,-19.880449,-153.60843
4622000000,-20.03199,-154.06551
4623000000,-20.011436,-154.36475
4624000000,-20.008539,-154.62546
4625000000,-20.281683,-155.06355
4626000000,-20.283653,-155.38484
4627000000,-20.335091,-155.73457
4628000000,-20.423935,-156.18294
4629000000,-20.333818,-156.35765
4630000000,-20.453554,-156.79227
4631000000,-20.448263,-157.06935
4632000000,-20.376736,-157.35587
4633000000,-20.308146,-157.65924
4634000000,-20.434912,-158.03351
4635000000,-20.424946,-158.27423
4636000000,-20.525042,-158.89464
4637000000,-20.564968,-159.20834
4638000000,-20.211401,-159.21445
4639000000,-20.482262,-159.79591
4640000000,-20.568115,-160.24815
4641000000,-20.303621,-160.32533
4642000000,-20.320694,-160.64391
4643000000,-20.382429,-161.15543
4644000000,-20.320183,-161.4238
4645000000,-20.518902,-161.81372
4646000000,-20.179373,-161.93906
4647000000,-20.298811,-162.42969
4648000000,-20.407391,-162.89468
4649000000,-20.261305,-163.06796
4650000000,-20.164831,-163.49049
4651000000,-20.125866,-163.69627
4652000000,-20.022434,-164.23602
4653000000,-20.037119,-164.37822
4654000000,-20.077234,-164.74152
4655000000,-19.740532,-165.0524
4656000000,-19.849072,-165.47023
4657000000,-19.940998,-165.85768
4658000000,-19.751698,-166.08292
4659000000,-19.751282,-166.37302
4660000000,-19.556826,-166.91641
4661000000,-19.351032,-166.9158
4662000000,-19.513441,-167.57654
4663000000,-19.349426,-167.85814
4664000000,-19.30188,-168.12749
4665000000,-19.357578,-168.44742
4666000000,-19.182812,-168.74448
4667000000,-18.989132,-169.0442
4668000000,-18.910124,-169.54282
4669000000,-18.853458,-169.87071
4670000000,-18.742901,-170.20102
4671000000,-18.845499,-170.53822
4672000000,-18.534796,-170.86472
4673000000,-18.346399,-171.24823
4674000000,-18.338926,-171.5916
4675000000,-18.234631,-171.98984
4676000000,-17.916241,-172.15327
4677000000,-17.912048,-172.5621
4678000000,-17.887878,-172.94208
4679000000,-17.708429,-173.31035
4680000000,-17.345243,-173.49147
4681000000,-17.427465,-173.91818
4682000000,-17.14884,-174.30724
4683000000,-17.137516,-174.64662
4684000000,-16.852058,-175.01035
4685000000,-16.806355,-175.33362
4686000000,-16.303545,-175.47296
4687000000,-16.401457,-175.76389
4688000000,-16.231562,-176.25443
4689000000,-16.217102,-176.68431
4690000000,-15.999894,-177.18044
4691000000,-15.739963,-177.44859
4692000000,-15.639723,-177.6308
4693000000,-15.168885,-178.16519
4694000000,-15.048759,-178.27071
4695000000,-14.776546,-178.65996
4696000000,-15.107609,-179.20549
4697000000,-14.676024,-179.27655
4698000000,-14.378172,-179.59955
4699000000,-14.297781,-179.81584
4700000000,-14.259549,179.71321
4701000000,-13.821583,179.37953
4702000000,-13.66009,179.03322
4703000000,-13.246923,178.70612
4704000000,-13.332686,178.41783
4705000000,-12.893887,177.92746
4706000000,-12.701322,177.81676
4707000000,-12.598501,177.26947
4708000000,-12.353971,176.89401
4709000000,-12.068607,176.79536
4710000000,-11.684133,176.49028
4711000000,-11.681952,176.0434
4712000000,-11.291945,175.7375
4713000000,-11.322049,175.38683
4714000000,-11.112633,174.78127
4715000000,-10.715825,174.64235
4716000000,-10.646935,174.29457
4717000000,-10.401806,174.01767
4718000000,-10.137175,173.76675
4719000000,-9.9717999,173.32651
4720000000,-9.4417992,173.0468
4721000000,-9.3028498,172.78711
4722000000,-9.2699461,172.32545
4723000000,-9.135891,171.89648
4724000000,-8.7674532,171.67816
4725000000,-8.517642,171.32207
4726000000,-7.9875536,171.17563
4727000000,-8.2188082,170.62433
4728000000,-7.5403948,170.49068
4729000000,-7.6215863,170.00838
4730000000,-7.6629252,169.57552
4731000000,-6.8983259,169.46367
4732000000,-6.9080076,169.16493
4733000000,-6.7311072,168.74179
4734000000,-6.6738195,168.39404
4735000000,-6.2452431,168.09517
4736000000,-5.9513783,167.80626
4737000000,-5.9969792,167.39565
4738000000,-5.5890255,167.13942
4739000000,-5.1730633,166.81963
4740000000,-5.1243882,166.41566
4741000000,-4.9095697,166.10895
4742000000,-4.631762,165.82637
4743000000,-4.4804044,165.43973
4744000000,-4.2073793,165.15614
4745000000,-4.1571712,164.92084
4746000000,-3.8754904,164.68152
4747000000,-3.7848022,164.17731
4748000000,-3.4803343,163.96877
4749000000,-3.379909,163.55806
4750000000,-3.1332123,163.34805
4751000000,-2.9480965,162.92648
4752000000,-2.6413875,162.65157
4753000000,-2.3889401,162.35361
4754000000,-2.2510383,162.13072
4755000000,-2.0266879,161.60948
4756000000,-1.9376897,161.50645
4757000000,-1.5898247,161.04733
4758000000,-1.6402459,160.69783
4759000000,-1.373722,160.33961
4760000000,-1.0387475,160.12369
4761000000,-1.2432311,159.64647
4762000000,-1.0880815,159.42494
4763000000,-0.44774032,159.22282
4764000000,-0.48575675,158.80356
4765000000,-0.20537952,158.51529
4766000000,0.1212859,158.23694
4767000000,-0.16720326,157.96745
4768000000,0.20709924,157.60629
4769000000,0.35865608,157.10452
4770000000,0.34899735,156.77695
4771000000,0.61286145,156.72868
4772000000,0.80844104,156.43831
4773000000,1.003451,156.03185
4774000000,1.234633,155.73022
4775000000,1.3204309,155.50549
4776000000,1.4399254,155.18028
4777000000,1.702778,154.9482
4778000000,1.5955042,154.45013
4779000000,1.7608688,154.06413
4780000000,1.9445528,153.98615
4781000000,1.9786301,153.52708
4782000000,2.223366,153.35233
4783000000,2.1911423,153.0199
4784000000,2.7040451,152.82257
4785000000,2.4526205,152.35661
4786000000,2.6869361,152.14401
4787000000,2.6611125,151.83803
4788000000,2.6087992,151.42227
4789000000,3.1227205,151.119
4790000000,2.9291663,150.72798
4791000000,3.2885993,150.61752
4792000000,3.3182189,150.25337
4793000000,3.0677016,149.83931
4794000000,3.5419738,149.82535
4795000000,3.7374587,149.54591
4796000000,3.7583854,149.12572
4797000000,3.4737904,148.88757
4798000000,4.013979,148.52779
4799000000,3.6386983,148.27475
4800000000,4.2355657,148.00151
4801000000,3.7929125,147.61671
4802000000,4.0526495,147.36958
4803000000,3.9113548,147.076
4804000000,4.2785311,146.74457
4805000000,4.5024128,146.64838
4806000000,4.3943138,146.26617
4807000000,4.4355817,145.91335
4808000000,4.7112513,145.59265
4809000000,4.6630793,145.38077
4810000000,4.4158249,144.94505
4811000000,4.8376546,144.7357
4812000000,4.6223726,144.52509
4813000000,4.8284998,144.12263
4814000000,4.9249582,143.89011
4815000000,4.8296657,143.58257
4816000000,4.9219236,143.42178
4817000000,5.2235656,142.94495
4818000000,5.0213852,142.66963
4819000000,4.8530817,142.4245
4820000000,5.2396388,142.40982
4821000000,5.0521045,141.76872
4822000000,5.1981497,141.69011
4823000000,5.3146796,141.41548
4824000000,5.2662883,141.16212
4825000000,5.2503228,140.84418
4826000000,5.0767493,140.45187
4827000000,5.3394861,140.32269
4828000000,5.2263966,139.98355
4829000000,5.0174751,139.69611
4830000000,4.9795437,139.3354
4831000000,5.3578897,139.22089
4832000000,5.3502197,138.87732
4833000000,5.0223937,138.55336
4834000000,5.1968474,138.26979
4835000000,5.1909537,137.98576
4836000000,5.3603134,137.77304
4837000000,5.2535605,137.53854
4838000000,5.1111431,137.10121
4839000000,5.1478643,136.94044
4840000000,5.06177,136.60916
4841000000,5.1358018,136.28482
4842000000,4.9632678,136.16507
4843000000,5.1957774,135.81644
4844000000,4.8570905,135.56419
4845000000,5.1013651,135.255
4846000000,5.1079874,135.0224
4847000000,5.2375274,134.7179
4848000000,5.0583105,134.48354
4849000000,4.7977366,134.16734
4850000000,5.1771302,134.04733
4851000000,5.0487099,133.61725
4852000000,5.0037169,133.33415
4853000000,4.8913922,133.19916
4854000000,4.7786684,132.62537
4855000000,5.1008167,132.79268
4856000000,4.9489055,132.53418
4857000000,4.7621117,132.2686
4858000000,4.7847743,131.79956
4859000000,4.4164391,131.54832
4860000000,4.5579319,131.30492
4861000000,4.500278,131.03896
4862000000,4.848772,130.86234
4863000000,4.4614201,130.65585
4864000000,4.2465792,130.20433
4865000000,4.5268903,130.13255
4866000000,4.4298501,129.77731
4867000000,4.2547679,129.46214
4868000000,4.127212,129.16142
4869000000,4.2942338,129.02428
4870000000,4.3159261,128.78111
4871000000,4.1567993,128.4214
4872000000,4.1450143,128.25581
4873000000,4.0076251,127.96664
4874000000,3.9335513,127.61984
4875000000,3.8067393,127.25537
4876000000,3.6876278,127.20078
4877000000,3.8557482,127.07686
4878000000,3.7149537,126.62824
4879000000,3.4302309,126.39835
4880000000,3.3997078,126.02769
4881000000,3.4011972,125.88567
4882000000,3.3637698,125.66719
4883000000,3.0143404,125.36533
4884000000,3.1007481,125.03535
4885000000,3.049885,124.81626
4886000000,3.1040449,124.63579
4887000000,2.9253085,124.29647
4888000000,2.7276177,124.03068
4889000000,2.6100287,123.77843
4890000000,2.9618926,123.61532
4891000000,2.6226306,123.48045
4892000000,2.551753,123.07674
4893000000,2.3802543,122.76955
4894000000,2.4237363,122.60209
4895000000,2.5653911,122.3028
4896000000,2.354959,122.08356
4897000000,2.1090095,121.9008
4898000000,1.7317703,121.43665
4899000000,2.0063624,121.257
4900000000,1.8030479,120.93088
4901000000,1.7585723,120.93625
4902000000,1.4158733,120.62191
4903000000,1.2791046,120.28378
4904000000,1.4899006,120.26339
4905000000,1.4817057,119.92681
4906000000,1.1913924,119.57222
4907000000,0.88708347,119.3326
4908000000,1.0048413,119.20332
4909000000,1.1849614,118.83419
4910000000,0.90731549,118.69608
4911000000,0.87914002,118.45875
4912000000,0.48129794,117.98211
4913000000,0.56878585,117.90459
4914000000,0.67051756,117.66689
4915000000,0.15620328,117.53633
4916000000,0.38995445,117.32861
4917000000,0.37220794,117.03368
4918000000,0.053794153,116.82494
4919000000,-0.068206854,116.45775
4920000000,-0.0096835401,116.3621
4921000000,-0.33570123,116.08782
4922000000,-0.5446074,115.68449
4923000000,-0.4261404,115.57617
4924000000,-0.70533383,115.39755
4925000000,-0.69653541,115.08152
4926000000,-0.92824471,114.68307
4927000000,-0.93117613,114.51807
4928000000,-1.0556295,114.37231
4929000000,-1.047561,114.01353
4930000000,-1.2747889,113.85587
4931000000,-1.2685208,113.52227
4932000000,-1.72552,113.38624
4933000000,-1.4409578,113.14072
4934000000,-1.7327343,112.86803
4935000000,-2.0011985,112.54006
4936000000,-1.9019966,112.41448
4937000000,-2.150424,112.2557
4938000000,-2.1811702,111.81616
4939000000,-2.0722306,111.9086
4940000000,-2.5825894,111.39812
4941000000,-2.7168217,111.23047
4942000000,-2.6394844,111.12035
4943000000,-3.1164281,110.6413
4944000000,-2.8946292,110.65069
4945000000,-3.1029015,110.20428
4946000000,-3.2324486,110.03965
4947000000,-3.547539,109.79259
4948000000,-3.3536952,109.60588
4949000000,-3.4446218,109.4735
4950000000,-3.6430948,109.21256
4951000000,-3.8709717,108.91074
4952000000,-3.874197,108.60864
4953000000,-3.9876668,108.50911
4954000000,-4.1144876,108.38046
4955000000,-4.2386236,108.02761
4956000000,-4.529973,107.78941
4957000000,-4.3976483,107.64416
4958000000,-4.643806,107.38513
4959000000,-4.8212905,107.14588
4960000000,-4.8436193,106.95034
4961000000,-5.0276952,106.60761
4962000000,-5.4545851,106.29429
4963000000,-5.3933263,106.06763
4964000000,-5.5341582,105.90965
4965000000,-5.5539546,105.60137
4966000000,-5.7529235,105.46662
4967000000,-5.6882453,105.34585
4968000000,-5.8746271,105.03668
4969000000,-5.9393082,104.84003
4970000000,-5.9813938,104.71515
4971000000,-6.2762113,104.35896
4972000000,-6.194036,104.05928
4973000000,-6.2632465,103.88405
4974000000,-6.5954828,103.55926
4975000000,-6.5156655,103.40731
4976000000,-6.7808208,103.20121
4977000000,-6.9926386,103.09811
4978000000,-6.9468484,102.9064
4979000000,-7.3001599,102.676
4980000000,-7.4188824,102.36911
4981000000,-7.5446348,102.15524
4982000000,-7.7572927,101.76841
4983000000,-7.7976394,101.5831
4984000000,-7.8101935,101.44235
4985000000,-8.5492859,101.08057
4986000000,-8.236722,101.11859
4987000000,-8.5613098,100.77818
4988000000,-8.6419888,100.49435
4989000000,-8.4460106,100.20262
4990000000,-8.6919441,100.12683
4991000000,-9.0671968,99.879425
4992000000,-9.0782919,99.576782
4993000000,-9.1573391,99.374573
4994000000,-9.3146582,99.211609
4995000000,-9.407836,98.918137
4996000000,-9.4393339,98.779366
4997000000,-9.6855383,98.58831
4998000000,-9.8775501,98.272766
4999000000,-9.7353954,98.224777
5000000000,-10.041486,97.918129
END

