!CSV A.01.01
!Agilent Technologies,E8362C,MY49020225,A.09.42.22
!Agilent E8362C: A.09.42.22
!Date: Friday, March 04, 2016 14:13:24
!Source: Standard

BEGIN CH1_DATA
Freq(Hz),S11 Phase(°),S21 Phase(°)
1000000000,-141.34399,175.24445
1001000000,-141.23196,175.19948
1002000000,-140.0127,175.17357
1003000000,-139.44618,174.82065
1004000000,-138.6763,174.58459
1005000000,-137.65657,174.43132
1006000000,-136.87642,174.26028
1007000000,-136.02325,174.02126
1008000000,-134.85765,173.89497
1009000000,-134.67989,173.61295
1010000000,-134.392,173.55449
1011000000,-134.1604,172.94548
1012000000,-132.85135,173.05363
1013000000,-132.38162,172.71768
1014000000,-131.9796,172.55528
1015000000,-131.55939,172.36873
1016000000,-131.20523,172.14856
1017000000,-130.11655,171.87408
1018000000,-129.79935,171.87054
1019000000,-129.36497,171.70415
1020000000,-128.77245,171.51048
1021000000,-128.29262,171.23471
1022000000,-128.22816,171.06702
1023000000,-127.75833,170.79419
1024000000,-127.42195,170.74268
1025000000,-126.40832,170.47046
1026000000,-126.38243,170.27251
1027000000,-126.07845,170.01241
1028000000,-125.85445,169.6964
1029000000,-125.10098,169.74371
1030000000,-125.07996,169.49049
1031000000,-124.635,169.41733
1032000000,-123.93149,169.10022
1033000000,-123.93967,168.71239
1034000000,-123.48229,168.78973
1035000000,-123.39257,168.4422
1036000000,-122.98806,168.3297
1037000000,-122.61509,168.22487
1038000000,-122.51992,167.96774
1039000000,-122.24004,167.67914
1040000000,-122.19061,167.47618
1041000000,-121.84234,167.36125
1042000000,-121.70679,167.15852
1043000000,-121.17946,166.7991
1044000000,-121.3779,166.68983
1045000000,-120.78088,166.58992
1046000000,-120.90845,166.3419
1047000000,-121.09995,165.9908
1048000000,-120.44808,165.90309
1049000000,-120.27837,165.77301
1050000000,-120.13499,165.69679
1051000000,-120.49425,165.24405
1052000000,-120.45801,164.92075
1053000000,-119.61928,164.85095
1054000000,-119.65433,164.8074
1055000000,-119.33463,164.68945
1056000000,-119.40635,164.21852
1057000000,-119.46529,164.04907
1058000000,-119.1242,163.84473
1059000000,-119.45172,163.69447
1060000000,-118.9314,163.50432
1061000000,-118.49015,163.45174
1062000000,-118.67722,163.19592
1063000000,-118.99486,162.89032
1064000000,-119.00262,162.65085
1065000000,-118.50082,162.58459
1066000000,-118.42481,162.40523
1067000000,-118.32372,162.09644
1068000000,-117.85971,162.08995
1069000000,-118.40999,161.64668
1070000000,-118.07348,161.67465
1071000000,-118.00945,161.45511
1072000000,-118.06013,161.1367
1073000000,-117.97128,160.96579
1074000000,-117.59866,160.99336
1075000000,-117.7018,160.43468
1076000000,-118.22619,160.55711
1077000000,-117.44673,160.33534
1078000000,-117.79041,159.87802
1079000000,-118.23291,159.59901
1080000000,-117.98988,159.49597
1081000000,-117.71867,159.26909
1082000000,-117.95603,159.32956
1083000000,-117.93618,159.08408
1084000000,-117.72361,158.81435
1085000000,-117.80894,158.64098
1086000000,-117.82135,158.45995
1087000000,-117.73603,158.3147
1088000000,-117.88221,157.92072
1089000000,-117.80289,157.8912
1090000000,-117.79537,157.70688
1091000000,-117.50269,157.65269
1092000000,-117.52361,157.31409
1093000000,-117.81814,157.04637
1094000000,-118.18181,156.87813
1095000000,-117.9005,156.60228
1096000000,-117.82027,156.48994
1097000000,-118.02208,156.1292
1098000000,-118.27737,155.98224
1099000000,-117.76726,155.90022
1100000000,-118.05587,155.50844
1101000000,-117.61113,155.50493
1102000000,-117.99816,155.3336
1103000000,-118.18174,154.94783
1104000000,-118.45623,154.90843
1105000000,-118.30048,154.62498
1106000000,-118.14839,154.47163
1107000000,-118.33968,154.19772
1108000000,-118.25186,154.02266
1109000000,-118.27351,153.78259
1110000000,-118.35859,153.5538
1111000000,-118.43062,153.43324
1112000000,-118.73663,153.20071
1113000000,-118.59285,153.05385
1114000000,-118.69085,152.80389
1115000000,-118.54436,152.66815
1116000000,-118.71683,152.46587
1117000000,-118.56927,152.07843
1118000000,-118.59726,152.10161
1119000000,-118.84883,151.83069
1120000000,-118.82642,151.66878
1121000000,-118.66107,151.62608
1122000000,-118.88353,151.15125
1123000000,-118.92908,151.0629
1124000000,-118.98798,150.93944
1125000000,-119.13694,150.6266
1126000000,-119.0342,150.60522
1127000000,-119.284,150.32523
1128000000,-119.07404,150.26306
1129000000,-119.18028,149.85616
1130000000,-119.66554,149.56808
1131000000,-119.15186,149.49425
1132000000,-119.7286,149.22429
1133000000,-119.70359,148.89934
1134000000,-119.48554,148.92928
1135000000,-119.51244,148.74396
1136000000,-119.9665,148.28923
1137000000,-120.06742,148.10306
1138000000,-119.85048,148.04761
1139000000,-120.47238,147.73492
1140000000,-120.00704,147.67264
1141000000,-120.35556,147.44402
1142000000,-119.73138,147.23691
1143000000,-120.22372,147.00241
1144000000,-120.46529,146.79279
1145000000,-120.15668,146.59091
1146000000,-120.57269,146.43159
1147000000,-120.436,146.03735
1148000000,-120.62482,145.96324
1149000000,-120.78001,145.79749
1150000000,-120.63213,145.64682
1151000000,-120.71013,145.53566
1152000000,-121.09518,145.33781
1153000000,-120.99195,145.00636
1154000000,-120.83304,144.89554
1155000000,-121.25488,144.70352
1156000000,-120.82323,144.65428
1157000000,-121.09438,144.29112
1158000000,-121.3587,144.04922
1159000000,-121.41163,143.96109
1160000000,-121.31339,143.8065
1161000000,-121.20105,143.43658
1162000000,-121.61801,143.32474
1163000000,-121.46694,143.19894
1164000000,-121.7499,142.87367
1165000000,-121.96104,142.5437
1166000000,-121.69039,142.57175
1167000000,-121.87373,142.30472
1168000000,-122.30663,141.92084
1169000000,-122.27659,141.95627
1170000000,-122.19128,141.65388
1171000000,-122.41342,141.52242
1172000000,-122.47591,141.41814
1173000000,-122.35278,141.16492
1174000000,-122.67394,141.05806
1175000000,-122.59485,140.80774
1176000000,-122.74889,140.5361
1177000000,-122.71043,140.15297
1178000000,-122.91567,140.06984
1179000000,-122.88266,139.97961
1180000000,-123.15637,139.653
1181000000,-123.12784,139.58557
1182000000,-123.51986,139.39624
1183000000,-123.13498,139.17778
1184000000,-123.65292,139.11157
1185000000,-123.71454,138.78387
1186000000,-123.76003,138.5197
1187000000,-123.92141,138.46135
1188000000,-124.00481,138.23364
1189000000,-123.78545,137.88766
1190000000,-123.97728,137.77367
1191000000,-124.11767,137.57242
1192000000,-124.25576,137.3098
1193000000,-124.22868,137.07574
1194000000,-124.31148,136.84836
1195000000,-124.26647,136.71111
1196000000,-124.56104,136.59894
1197000000,-124.77853,136.39645
1198000000,-124.71272,136.3606
1199000000,-124.49256,136.07887
1200000000,-124.97977,135.74582
1201000000,-124.84711,135.61827
1202000000,-125.02982,135.28157
1203000000,-124.85693,135.3044
1204000000,-125.19861,135.0143
1205000000,-125.507,134.70451
1206000000,-125.3565,134.71664
1207000000,-125.9825,134.23897
1208000000,-125.46679,134.21443
1209000000,-125.87515,134.07545
1210000000,-125.65845,133.84209
1211000000,-126.13962,133.56123
1212000000,-126.35474,133.27017
1213000000,-126.0514,133.21265
1214000000,-126.44098,132.86342
1215000000,-125.97144,132.89525
1216000000,-126.22826,132.61189
1217000000,-126.63775,132.45264
1218000000,-126.6272,132.30609
1219000000,-127.0091,131.94711
1220000000,-126.96629,131.99951
1221000000,-126.88824,131.60367
1222000000,-127.38109,131.18469
1223000000,-127.30563,131.28386
1224000000,-127.48838,130.89731
1225000000,-127.39561,130.7648
1226000000,-127.40414,130.58011
1227000000,-127.44091,130.39117
1228000000,-127.75622,130.1911
1229000000,-127.74307,130.03447
1230000000,-127.76923,129.82207
1231000000,-128.03535,129.68884
1232000000,-128.41046,129.31877
1233000000,-128.002,129.33957
1234000000,-128.2863,128.97476
1235000000,-128.60312,128.97527
1236000000,-128.63895,128.65887
1237000000,-128.33319,128.49924
1238000000,-128.8976,128.1459
1239000000,-128.79942,127.93751
1240000000,-128.98047,127.79375
1241000000,-129.33783,127.48156
1242000000,-129.06609,127.29916
1243000000,-129.15076,127.24809
1244000000,-129.56418,126.71266
1245000000,-129.73602,126.61074
1246000000,-129.67596,126.62904
1247000000,-129.41254,126.32616
1248000000,-129.47784,126.39746
1249000000,-129.83401,126.01747
1250000000,-129.83682,125.89383
1251000000,-130.56966,125.5081
1252000000,-130.1864,125.53903
1253000000,-130.25528,125.18999
1254000000,-130.5247,125.09594
1255000000,-130.75722,124.96251
1256000000,-130.71733,124.69684
1257000000,-130.92393,124.5204
1258000000,-130.83733,124.31531
1259000000,-131.54875,124.02815
1260000000,-131.46266,123.65847
1261000000,-131.10612,123.51971
1262000000,-131.65305,123.40668
1263000000,-131.43007,123.26177
1264000000,-131.59929,122.94995
1265000000,-131.78638,122.81403
1266000000,-131.84142,122.86094
1267000000,-132.24214,122.30208
1268000000,-131.98198,122.35912
1269000000,-132.0769,122.04485
1270000000,-132.31606,121.83634
1271000000,-132.28128,121.69343
1272000000,-132.27831,121.52079
1273000000,-132.47726,121.2568
1274000000,-132.82933,120.97314
1275000000,-132.66727,120.66277
1276000000,-132.73001,120.59943
1277000000,-133.34172,120.19823
1278000000,-133.09134,120.14052
1279000000,-133.32791,119.87676
1280000000,-133.02568,119.72286
1281000000,-133.46416,119.58685
1282000000,-133.48749,119.49016
1283000000,-133.62715,119.14784
1284000000,-133.59399,118.99041
1285000000,-133.85258,118.55102
1286000000,-133.83672,118.64243
1287000000,-134.2186,118.27505
1288000000,-134.24956,118.24981
1289000000,-134.3553,117.93883
1290000000,-134.38902,117.90984
1291000000,-134.34676,117.55609
1292000000,-134.68185,117.26333
1293000000,-134.45238,117.25675
1294000000,-134.41106,116.96809
1295000000,-135.04568,116.60156
1296000000,-134.93427,116.53426
1297000000,-134.31042,116.25966
1298000000,-134.90094,116.27799
1299000000,-135.3821,115.89256
1300000000,-135.32263,115.68102
1301000000,-135.25644,115.53981
1302000000,-135.59929,115.44353
1303000000,-135.27536,115.29268
1304000000,-135.79176,114.94373
1305000000,-135.41106,114.80109
1306000000,-136.13577,114.3675
1307000000,-136.14522,114.34338
1308000000,-136.14307,113.9772
1309000000,-136.17676,113.82687
1310000000,-136.00359,113.70504
1311000000,-136.11839,113.43103
1312000000,-136.28888,113.3875
1313000000,-136.41472,113.11263
1314000000,-136.57266,112.97872
1315000000,-136.87556,112.74992
1316000000,-136.70583,112.44809
1317000000,-137.07646,112.21601
1318000000,-136.71983,112.13119
1319000000,-137.23317,111.86306
1320000000,-137.26379,111.86649
1321000000,-137.42659,111.33932
1322000000,-137.28641,111.48685
1323000000,-137.715,111.03992
1324000000,-137.5706,111.01778
1325000000,-137.77574,110.58635
1326000000,-137.82845,110.50705
1327000000,-138.27673,110.35515
1328000000,-138.15327,110.07209
1329000000,-137.85973,110.11921
1330000000,-138.48251,109.6717
1331000000,-138.2852,109.54488
1332000000,-138.44485,109.14898
1333000000,-138.56894,109.05391
1334000000,-138.90759,108.94952
1335000000,-138.95773,108.59035
1336000000,-138.91914,108.55084
1337000000,-138.91995,108.26179
1338000000,-138.97989,108.07161
1339000000,-138.98384,107.91322
1340000000,-139.17404,107.54456
1341000000,-139.21439,107.49977
1342000000,-139.39833,107.20432
1343000000,-139.58815,106.94933
1344000000,-139.52301,106.77862
1345000000,-139.47847,106.72613
1346000000,-139.77744,106.39387
1347000000,-139.66136,106.37048
1348000000,-139.84499,106.01624
1349000000,-139.93726,105.76083
1350000000,-140.02751,105.58829
1351000000,-140.20103,105.34657
1352000000,-140.41064,105.09161
1353000000,-140.31892,104.93962
1354000000,-140.64281,104.617
1355000000,-140.38145,104.62576
1356000000,-140.74106,104.33113
1357000000,-140.21086,104.13441
1358000000,-140.59338,104.01736
1359000000,-140.75845,103.80881
1360000000,-140.72966,103.5939
1361000000,-140.94781,103.12785
1362000000,-140.77531,103.14222
1363000000,-140.88614,102.94359
1364000000,-141.25745,102.68812
1365000000,-140.82556,102.5044
1366000000,-141.44688,102.13763
1367000000,-141.17346,102.14464
1368000000,-141.67873,101.89478
1369000000,-141.28912,101.67426
1370000000,-141.47052,101.48837
1371000000,-141.33073,101.38005
1372000000,-141.86931,101.08887
1373000000,-141.99046,100.81883
1374000000,-141.737,100.65176
1375000000,-141.54787,100.51874
1376000000,-141.62476,100.35497
1377000000,-142.3008,100.11519
1378000000,-142.25345,99.905518
1379000000,-142.15483,99.742439
1380000000,-142.0491,99.686562
1381000000,-142.40092,99.239738
1382000000,-142.96834,99.03923
1383000000,-142.68042,98.846161
1384000000,-142.479,98.677887
1385000000,-142.7536,98.426613
1386000000,-142.96106,98.280266
1387000000,-142.76794,97.876404
1388000000,-143.27533,97.650337
1389000000,-143.23451,97.623436
1390000000,-142.7654,97.281944
1391000000,-143.48302,96.982071
1392000000,-143.29236,96.869164
1393000000,-143.45116,96.583588
1394000000,-143.13014,96.660614
1395000000,-143.22742,96.302254
1396000000,-143.35788,96.131844
1397000000,-143.06413,95.914536
1398000000,-143.30237,95.7323
1399000000,-143.97186,95.493317
1400000000,-143.84961,95.185905
1401000000,-143.55196,95.155914
1402000000,-143.89514,94.798439
1403000000,-143.9048,94.699188
1404000000,-144.04256,94.520561
1405000000,-143.7294,94.37925
1406000000,-144.23112,94.0839
1407000000,-144.14357,93.81955
1408000000,-144.12122,93.67823
1409000000,-144.31456,93.38353
1410000000,-144.45309,93.246635
1411000000,-144.06969,92.899536
1412000000,-144.04831,92.83194
1413000000,-144.86285,92.473915
1414000000,-144.61975,92.322189
1415000000,-144.4554,92.191475
1416000000,-144.59888,91.962708
1417000000,-144.76259,91.69767
1418000000,-144.88403,91.680916
1419000000,-144.32001,91.541214
1420000000,-144.57166,91.12986
1421000000,-144.37018,91.071854
1422000000,-144.95439,90.764969
1423000000,-144.77426,90.427109
1424000000,-144.79778,90.575386
1425000000,-144.91153,90.140694
1426000000,-145.59309,89.840096
1427000000,-145.20239,89.779381
1428000000,-145.24149,89.353539
1429000000,-145.33551,89.444023
1430000000,-145.32829,88.826744
1431000000,-145.26151,88.753998
1432000000,-145.55481,88.633034
1433000000,-145.42882,88.441856
1434000000,-145.35294,88.225922
1435000000,-145.50273,88.083977
1436000000,-145.83238,87.614464
1437000000,-145.53023,87.659492
1438000000,-145.72154,87.298012
1439000000,-145.73343,87.231689
1440000000,-145.34666,86.91452
1441000000,-145.64607,86.704079
1442000000,-145.71745,86.531746
1443000000,-145.79247,86.443115
1444000000,-146.10291,86.102646
1445000000,-145.6971,85.911095
1446000000,-145.9391,85.721886
1447000000,-146.08646,85.432259
1448000000,-145.77164,85.302025
1449000000,-145.99063,85.233994
1450000000,-145.52911,84.93251
1451000000,-146.17998,84.656891
1452000000,-146.29579,84.388908
1453000000,-146.17285,84.23053
1454000000,-146.14711,84.165039
1455000000,-146.55812,83.614716
1456000000,-146.08759,83.606026
1457000000,-146.0759,83.492218
1458000000,-146.00221,83.121605
1459000000,-145.96544,82.96888
1460000000,-146.4888,82.655243
1461000000,-146.59126,82.227013
1462000000,-146.02713,82.23188
1463000000,-145.7641,82.136513
1464000000,-146.37869,81.947845
1465000000,-146.07079,81.661804
1466000000,-146.13118,81.597351
1467000000,-146.18433,81.211769
1468000000,-146.00351,81.029968
1469000000,-146.0603,80.846367
1470000000,-146.41533,80.481857
1471000000,-146.53394,80.134964
1472000000,-146.3708,80.149536
1473000000,-146.06876,80.059357
1474000000,-146.633,79.697762
1475000000,-146.66841,79.502342
1476000000,-146.68689,79.274994
1477000000,-146.37643,79.116943
1478000000,-145.88254,78.838753
1479000000,-146.04462,78.706665
1480000000,-146.32851,78.443535
1481000000,-146.04245,78.201111
1482000000,-146.19196,78.00547
1483000000,-146.24132,77.897423
1484000000,-146.07526,77.562637
1485000000,-146.39803,77.195732
1486000000,-146.48303,77.189194
1487000000,-146.13904,77.099396
1488000000,-146.39748,76.701782
1489000000,-146.31834,76.631256
1490000000,-146.47578,76.305458
1491000000,-146.51636,75.903259
1492000000,-146.32816,75.948532
1493000000,-146.41913,75.365013
1494000000,-145.95047,75.630013
1495000000,-146.33727,75.307281
1496000000,-146.26575,74.983437
1497000000,-146.31853,74.859627
1498000000,-146.46474,74.615639
1499000000,-145.95721,74.306694
1500000000,-146.22353,74.116158
1501000000,-145.94879,73.924706
1502000000,-145.90578,73.889191
1503000000,-146.01036,73.365829
1504000000,-146.02455,73.445587
1505000000,-146.14168,73.12989
1506000000,-146.20149,72.781944
1507000000,-145.99719,72.739281
1508000000,-146.35927,72.339943
1509000000,-146.049,72.173431
1510000000,-146.20161,71.861038
1511000000,-145.93556,71.765892
1512000000,-145.8205,71.609283
1513000000,-145.41806,71.423233
1514000000,-145.7213,71.096298
1515000000,-145.37628,70.951614
1516000000,-145.38901,70.807274
1517000000,-145.57634,70.399536
1518000000,-145.36208,70.376274
1519000000,-145.20596,69.995567
1520000000,-145.18263,69.849449
1521000000,-144.8678,69.571716
1522000000,-145.03925,69.363312
1523000000,-144.95641,69.126526
1524000000,-144.90685,68.873802
1525000000,-144.64635,68.773376
1526000000,-144.97336,68.493355
1527000000,-144.56093,68.452812
1528000000,-144.75287,68.178146
1529000000,-144.35019,67.7314
1530000000,-144.59833,67.607422
1531000000,-144.40881,67.501221
1532000000,-144.40454,67.230911
1533000000,-144.42049,67.002762
1534000000,-144.29265,66.902466
1535000000,-144.15414,66.444305
1536000000,-144.12083,66.274811
1537000000,-144.27309,66.012093
1538000000,-143.86832,65.932755
1539000000,-143.75409,65.708939
1540000000,-144.07454,65.366653
1541000000,-143.78761,65.123718
1542000000,-144.0296,65.080307
1543000000,-143.97081,64.612022
1544000000,-143.89171,64.409599
1545000000,-143.62051,64.181496
1546000000,-143.41507,64.291916
1547000000,-143.20856,63.891182
1548000000,-142.87859,63.760193
1549000000,-142.93483,63.411293
1550000000,-142.78903,63.370148
1551000000,-142.64438,62.984241
1552000000,-143.02968,62.5807
1553000000,-142.67838,62.571957
1554000000,-142.92534,62.273609
1555000000,-142.27328,62.134739
1556000000,-143.00557,61.781651
1557000000,-142.56071,61.641434
1558000000,-141.69736,61.554192
1559000000,-141.81842,61.253719
1560000000,-142.11212,60.961079
1561000000,-141.7505,60.754047
1562000000,-141.69675,60.385258
1563000000,-141.80695,60.263756
1564000000,-141.42288,60.186474
1565000000,-141.42067,59.711365
1566000000,-140.57254,59.613216
1567000000,-140.57158,59.32608
1568000000,-140.93414,59.167011
1569000000,-140.68175,58.779385
1570000000,-140.79131,58.652058
1571000000,-140.73747,58.467861
1572000000,-140.20123,58.473148
1573000000,-139.86156,58.10524
1574000000,-139.91286,57.890804
1575000000,-140.24211,57.459194
1576000000,-139.82013,57.346912
1577000000,-139.88719,57.14423
1578000000,-139.23494,56.897102
1579000000,-139.032,56.708721
1580000000,-139.17087,56.415001
1581000000,-138.75633,56.351635
1582000000,-138.82339,55.954895
1583000000,-138.95372,55.691917
1584000000,-138.54559,55.618465
1585000000,-138.41646,55.316395
1586000000,-138.28699,55.241467
1587000000,-138.16049,54.915558
1588000000,-138.08438,54.605606
1589000000,-137.80859,54.281933
1590000000,-137.90326,54.36356
1591000000,-137.00243,54.090687
1592000000,-137.58063,53.640835
1593000000,-137.21121,53.567013
1594000000,-136.58199,53.47522
1595000000,-136.55458,53.210621
1596000000,-136.73563,52.87513
1597000000,-136.34802,52.819778
1598000000,-136.51491,52.398247
1599000000,-135.96373,52.158009
1600000000,-135.84299,51.977905
1601000000,-135.48337,51.74852
1602000000,-135.4731,51.565426
1603000000,-135.40582,51.148304
1604000000,-134.94427,51.104393
1605000000,-134.41338,50.817623
1606000000,-134.7187,50.603279
1607000000,-134.64133,50.420559
1608000000,-134.36346,50.219688
1609000000,-134.55403,49.828274
1610000000,-133.87418,49.515488
1611000000,-133.61926,49.351768
1612000000,-133.40511,49.161728
1613000000,-133.47417,48.942097
1614000000,-133.2482,48.685257
1615000000,-132.73596,48.559601
1616000000,-132.88527,48.327484
1617000000,-132.73967,48.0079
1618000000,-132.30164,47.837051
1619000000,-131.73602,47.766537
1620000000,-131.96463,47.271286
1621000000,-131.9435,47.026337
1622000000,-131.56868,46.698391
1623000000,-131.56886,46.482967
1624000000,-130.69368,46.499542
1625000000,-131.00955,46.153061
1626000000,-130.57516,45.977528
1627000000,-130.40266,45.8069
1628000000,-130.02783,45.649025
1629000000,-130.19545,45.259422
1630000000,-129.67207,45.153435
1631000000,-129.42253,44.786713
1632000000,-129.99614,44.557537
1633000000,-129.41814,44.279118
1634000000,-129.1792,44.089832
1635000000,-129.01956,43.931824
1636000000,-128.30638,43.767422
1637000000,-128.43449,43.246075
1638000000,-128.38333,43.211266
1639000000,-127.93697,42.878124
1640000000,-127.71877,42.632668
1641000000,-128.01216,42.280083
1642000000,-127.36979,42.181664
1643000000,-127.29234,42.075741
1644000000,-126.90498,41.929504
1645000000,-126.75718,41.529442
1646000000,-126.90001,41.3176
1647000000,-125.97287,41.249825
1648000000,-126.27793,40.900852
1649000000,-126.16904,40.648026
1650000000,-125.9884,40.38324
1651000000,-125.8579,40.164207
1652000000,-125.69282,39.765522
1653000000,-125.55254,39.530098
1654000000,-125.22768,39.463657
1655000000,-125.02576,39.218849
1656000000,-124.93887,38.863293
1657000000,-124.59257,38.84771
1658000000,-124.21959,38.518326
1659000000,-123.95435,38.45377
1660000000,-123.96001,38.003922
1661000000,-123.99086,37.606529
1662000000,-123.83105,37.503864
1663000000,-123.78356,37.092537
1664000000,-123.20419,37.249565
1665000000,-123.0676,36.754414
1666000000,-123.00253,36.566151
1667000000,-122.70734,36.392956
1668000000,-122.45448,36.194157
1669000000,-122.67897,35.788559
1670000000,-122.37794,35.603291
1671000000,-122.13129,35.4352
1672000000,-121.86266,35.126007
1673000000,-121.55402,35.054394
1674000000,-121.59258,34.693485
1675000000,-121.51177,34.352013
1676000000,-121.42728,34.235546
1677000000,-121.10609,34.131279
1678000000,-121.0595,33.878433
1679000000,-120.77378,33.559887
1680000000,-120.44662,33.188839
1681000000,-120.41483,32.945244
1682000000,-120.55479,32.756577
1683000000,-120.31316,32.513977
1684000000,-119.90543,32.275684
1685000000,-120.28143,32.019062
1686000000,-119.73905,31.986036
1687000000,-119.46519,31.754154
1688000000,-119.72421,31.330873
1689000000,-119.46315,31.042414
1690000000,-119.20856,30.988251
1691000000,-119.1694,30.564987
1692000000,-119.03818,30.287447
1693000000,-118.7233,30.140596
1694000000,-118.5097,29.90497
1695000000,-118.54826,29.739676
1696000000,-118.55084,29.256369
1697000000,-118.1806,29.128
1698000000,-118.0948,28.974533
1699000000,-117.9644,28.81815
1700000000,-117.80891,28.393185
1701000000,-117.72048,28.272915
1702000000,-117.65865,28.104559
1703000000,-117.55486,27.668989
1704000000,-117.55989,27.374258
1705000000,-117.38518,27.233248
1706000000,-117.10699,26.943897
1707000000,-117.12419,26.80899
1708000000,-117.04249,26.438168
1709000000,-116.86599,26.373516
1710000000,-116.73113,26.119865
1711000000,-116.6959,25.707851
1712000000,-116.42563,25.747734
1713000000,-116.70933,25.194885
1714000000,-116.25896,25.191874
1715000000,-116.36876,24.826084
1716000000,-116.28905,24.572939
1717000000,-116.25359,24.38098
1718000000,-116.04015,24.177237
1719000000,-116.00126,23.769676
1720000000,-116.1498,23.433445
1721000000,-115.76989,23.488594
1722000000,-115.90543,23.043877
1723000000,-115.82933,22.766026
1724000000,-115.50686,22.686071
1725000000,-115.23664,22.600037
1726000000,-115.62984,22.080496
1727000000,-115.45709,21.938477
1728000000,-115.21531,21.778641
1729000000,-115.57634,21.217369
1730000000,-115.30721,21.304913
1731000000,-115.3278,20.909601
1732000000,-115.24073,20.632391
1733000000,-115.14412,20.57053
1734000000,-115.34018,20.097586
1735000000,-115.09996,19.884439
1736000000,-115.09104,19.630617
1737000000,-115.28504,19.327486
1738000000,-114.99109,19.258173
1739000000,-114.87253,19.000315
1740000000,-114.81141,18.726582
1741000000,-114.75742,18.583008
1742000000,-114.64758,18.239569
1743000000,-114.92065,17.76527
1744000000,-114.66476,17.740467
1745000000,-114.76133,17.418262
1746000000,-114.80988,17.126774
1747000000,-114.41574,17.050259
1748000000,-114.58041,16.655964
1749000000,-114.2465,16.667439
1750000000,-114.61552,16.299547
1751000000,-114.57458,16.111664
1752000000,-114.54666,15.764505
1753000000,-114.42527,15.664112
1754000000,-114.60361,15.024801
1755000000,-114.46282,14.962733
1756000000,-114.56419,14.577596
1757000000,-114.60492,14.357949
1758000000,-114.44944,14.263914
1759000000,-114.47831,14.122625
1760000000,-114.4073,13.833573
1761000000,-114.27975,13.572542
1762000000,-114.43787,13.334449
1763000000,-114.18019,13.236414
1764000000,-114.08315,13.052146
1765000000,-114.49102,12.538785
1766000000,-114.24765,12.452457
1767000000,-114.46342,11.987869
1768000000,-114.27521,12.013045
1769000000,-114.28747,11.620066
1770000000,-114.59325,11.33484
1771000000,-114.3942,11.146882
1772000000,-114.60176,10.70544
1773000000,-114.52672,10.58001
1774000000,-114.29064,10.442456
1775000000,-114.40535,10.226413
1776000000,-114.4991,9.7651148
1777000000,-114.73621,9.4090824
1778000000,-114.41337,9.3572159
1779000000,-114.67492,9.2463531
1780000000,-114.74216,8.7609873
1781000000,-114.73079,8.5748129
1782000000,-114.82526,8.1482258
1783000000,-114.58286,8.3249445
1784000000,-114.79002,7.7560477
1785000000,-114.78028,7.6654401
1786000000,-115.14382,7.2503705
1787000000,-115.08773,7.0448475
1788000000,-114.8862,6.9407587
1789000000,-114.81987,6.7330227
1790000000,-115.16202,6.364532
1791000000,-115.19318,6.0831814
1792000000,-115.30592,5.751874
1793000000,-115.33611,5.5748925
1794000000,-115.25822,5.400754
1795000000,-115.21592,4.9155331
1796000000,-115.3054,4.8079891
1797000000,-115.50117,4.5404711
1798000000,-115.47575,4.5333567
1799000000,-115.60641,4.0726728
1800000000,-115.42448,3.8454251
1801000000,-115.67673,3.7322876
1802000000,-115.60381,3.3384521
1803000000,-115.72736,3.0851932
1804000000,-115.82877,2.8105218
1805000000,-116.00632,2.617723
1806000000,-116.01908,2.2171946
1807000000,-116.11771,2.0672035
1808000000,-116.16637,1.8028719
1809000000,-116.29046,1.4346867
1810000000,-116.03807,1.3348075
1811000000,-116.20354,1.0015906
1812000000,-116.35735,0.87448853
1813000000,-116.47733,0.5844717
1814000000,-116.78863,0.17284285
1815000000,-116.75371,0.19089182
1816000000,-116.76729,-0.1851102
1817000000,-116.63044,-0.12029374
1818000000,-116.95344,-0.7157889
1819000000,-116.99287,-1.0322728
1820000000,-117.0723,-1.2218921
1821000000,-117.1774,-1.5526212
1822000000,-117.24901,-1.6090115
1823000000,-117.07874,-1.9265594
1824000000,-117.38116,-2.2713802
1825000000,-117.33134,-2.5657797
1826000000,-117.37608,-2.6864512
1827000000,-117.51241,-2.9439571
1828000000,-117.64462,-3.2837358
1829000000,-117.60133,-3.4555328
1830000000,-117.88945,-3.8251116
1831000000,-118.16024,-4.1213465
1832000000,-118.29692,-4.3710117
1833000000,-118.12355,-4.3915935
1834000000,-118.26712,-4.6350136
1835000000,-118.17474,-4.8811636
1836000000,-118.43996,-5.1145964
1837000000,-118.4766,-5.4469709
1838000000,-118.55995,-5.655642
1839000000,-118.79474,-6.0901632
1840000000,-119.1245,-6.3145022
1841000000,-118.91354,-6.5251079
1842000000,-119.12746,-6.7911234
1843000000,-119.17772,-6.9302282
1844000000,-119.21563,-7.3183208
1845000000,-119.41806,-7.6738276
1846000000,-119.48043,-7.6377549
1847000000,-119.88392,-8.1609316
1848000000,-119.6684,-8.2044678
1849000000,-119.93549,-8.5780058
1850000000,-119.87267,-8.7238665
1851000000,-120.05294,-9.1112995
1852000000,-120.24329,-9.2376299
1853000000,-120.1058,-9.3167181
1854000000,-120.09926,-9.5778809
1855000000,-120.41831,-10.093305
1856000000,-120.65253,-10.408827
1857000000,-120.56123,-10.385197
1858000000,-121.01015,-10.699647
1859000000,-121.11282,-11.001293
1860000000,-121.14354,-11.413128
1861000000,-121.16268,-11.612198
1862000000,-121.35129,-11.711232
1863000000,-121.60452,-12.177101
1864000000,-121.54102,-12.359972
1865000000,-121.65253,-12.571721
1866000000,-121.76511,-12.753221
1867000000,-121.94324,-13.041997
1868000000,-122.05988,-13.361791
1869000000,-122.3102,-13.639868
1870000000,-122.26385,-13.875049
1871000000,-122.75195,-14.240031
1872000000,-122.65499,-14.451644
1873000000,-122.83586,-14.668756
1874000000,-123.06512,-14.850635
1875000000,-122.93749,-15.10716
1876000000,-123.1617,-15.427482
1877000000,-123.38318,-15.746023
1878000000,-123.51669,-16.045357
1879000000,-123.71043,-16.192282
1880000000,-123.84499,-16.470877
1881000000,-123.77658,-16.566376
1882000000,-124.04118,-17.020193
1883000000,-124.08508,-17.260044
1884000000,-124.18139,-17.317108
1885000000,-124.39622,-17.5993
1886000000,-124.45038,-17.823524
1887000000,-124.85404,-18.34565
1888000000,-124.66251,-18.37603
1889000000,-124.77197,-18.62676
1890000000,-124.95173,-18.989334
1891000000,-125.44144,-19.292768
1892000000,-125.59634,-19.546055
1893000000,-125.51945,-19.742434
1894000000,-125.47885,-19.856653
1895000000,-125.533,-19.959072
1896000000,-126.02568,-20.57884
1897000000,-125.92637,-20.524178
1898000000,-126.32513,-21.084635
1899000000,-126.42917,-21.210979
1900000000,-126.66215,-21.644245
1901000000,-126.78352,-21.790941
1902000000,-126.71754,-21.87874
1903000000,-127.26719,-22.305407
1904000000,-127.16766,-22.546108
1905000000,-127.26857,-22.602692
1906000000,-127.74623,-23.088829
1907000000,-127.42595,-23.209663
1908000000,-127.88998,-23.6413
1909000000,-128.07611,-23.791155
1910000000,-128.12787,-24.142508
1911000000,-128.25845,-24.341806
1912000000,-128.22778,-24.478003
1913000000,-128.5246,-24.817739
1914000000,-128.69821,-25.156935
1915000000,-128.96834,-25.509697
1916000000,-129.12393,-25.761395
1917000000,-129.29214,-25.902851
1918000000,-129.53482,-26.257288
1919000000,-129.53218,-26.356144
1920000000,-129.73903,-26.576965
1921000000,-129.84624,-26.899965
1922000000,-129.92223,-27.288042
1923000000,-129.9613,-27.288361
1924000000,-130.26109,-27.614079
1925000000,-130.50958,-28.022003
1926000000,-130.56923,-28.213604
1927000000,-130.79723,-28.414833
1928000000,-130.84715,-28.476181
1929000000,-131.21112,-29.088318
1930000000,-131.41451,-29.10232
1931000000,-131.5499,-29.702085
1932000000,-131.50082,-29.66791
1933000000,-131.61699,-29.818502
1934000000,-131.73022,-30.195894
1935000000,-132.09201,-30.272154
1936000000,-132.25873,-30.858524
1937000000,-132.32172,-30.947437
1938000000,-132.57214,-31.147701
1939000000,-132.71791,-31.599751
1940000000,-132.95244,-31.851761
1941000000,-133.26447,-32.097702
1942000000,-133.23573,-32.326588
1943000000,-133.42003,-32.404659
1944000000,-133.54665,-32.862732
1945000000,-133.73224,-33.003521
1946000000,-134.04474,-33.352467
1947000000,-134.0433,-33.510834
1948000000,-134.13615,-33.751366
1949000000,-134.42746,-34.071598
1950000000,-134.69768,-34.418411
1951000000,-134.4985,-34.442326
1952000000,-135.09297,-34.864346
1953000000,-135.08951,-34.856888
1954000000,-135.30321,-35.32629
1955000000,-135.40332,-35.576607
1956000000,-135.7964,-35.971741
1957000000,-135.90869,-36.279625
1958000000,-135.79582,-36.313354
1959000000,-136.04086,-36.52264
1960000000,-136.14206,-36.639984
1961000000,-136.30609,-37.036575
1962000000,-136.61052,-37.190243
1963000000,-136.82895,-37.701061
1964000000,-136.85754,-37.895233
1965000000,-137.01987,-37.986519
1966000000,-137.24995,-38.260574
1967000000,-137.62457,-38.641685
1968000000,-137.50986,-38.698109
1969000000,-138.02341,-39.264233
1970000000,-137.931,-39.212395
1971000000,-138.23654,-39.544212
1972000000,-138.43335,-40.028912
1973000000,-138.42534,-40.198074
1974000000,-138.70642,-40.38702
1975000000,-138.85974,-40.624954
1976000000,-138.93727,-40.804722
1977000000,-139.45061,-41.166103
1978000000,-139.64215,-41.667625
1979000000,-139.87723,-41.644314
1980000000,-139.71124,-41.901745
1981000000,-140.19739,-42.353386
1982000000,-140.3952,-42.552429
1983000000,-140.63084,-42.866638
1984000000,-140.5343,-42.958008
1985000000,-140.49786,-43.07431
1986000000,-141.04039,-43.457745
1987000000,-141.10931,-43.787868
1988000000,-141.29126,-43.906765
1989000000,-141.60666,-44.418755
1990000000,-141.51964,-44.35754
1991000000,-141.84181,-44.687763
1992000000,-142.23567,-44.953369
1993000000,-141.95714,-45.127193
1994000000,-142.42102,-45.598213
1995000000,-142.65588,-45.743401
1996000000,-142.66716,-46.019814
1997000000,-142.9082,-46.154465
1998000000,-142.80434,-46.27985
1999000000,-143.00389,-46.501221
2000000000,-143.19373,-46.959915
2001000000,-143.44888,-47.160812
2002000000,-143.93852,-47.672825
2003000000,-143.96252,-47.676373
2004000000,-144.22995,-48.068394
2005000000,-144.32158,-48.226536
2006000000,-144.69794,-48.615799
2007000000,-144.5527,-48.74292
2008000000,-145.10999,-49.174114
2009000000,-145.35164,-49.469231
2010000000,-145.62865,-49.724842
2011000000,-145.77618,-49.836666
2012000000,-145.59988,-50.066376
2013000000,-145.8846,-50.227257
2014000000,-146.2899,-50.736149
2015000000,-146.07655,-50.659939
2016000000,-146.52457,-51.114418
2017000000,-146.75821,-51.29483
2018000000,-146.8557,-51.654556
2019000000,-147.20467,-51.943008
2020000000,-147.22391,-52.071484
2021000000,-147.4368,-52.347103
2022000000,-147.59804,-52.479588
2023000000,-147.78661,-52.810741
2024000000,-148.01263,-52.931698
2025000000,-148.33591,-53.36985
2026000000,-148.2963,-53.535923
2027000000,-148.65466,-53.910622
2028000000,-148.85304,-54.233318
2029000000,-149.13901,-54.33165
2030000000,-149.28345,-54.688049
2031000000,-149.40619,-54.836575
2032000000,-149.49731,-55.015511
2033000000,-149.8121,-55.390289
2034000000,-149.95476,-55.539082
2035000000,-150.1611,-55.911865
2036000000,-150.35617,-56.029194
2037000000,-150.39973,-56.295055
2038000000,-150.92621,-56.670769
2039000000,-150.92242,-56.812946
2040000000,-151.28473,-57.230122
2041000000,-151.27499,-57.441242
2042000000,-151.48517,-57.6698
2043000000,-151.64392,-57.825653
2044000000,-151.82213,-58.15786
2045000000,-152.13805,-58.501213
2046000000,-152.38229,-58.521839
2047000000,-152.41621,-58.914417
2048000000,-152.5842,-59.145382
2049000000,-153.01405,-59.516315
2050000000,-152.94579,-59.532341
2051000000,-153.27196,-59.818913
2052000000,-153.34235,-60.021088
2053000000,-153.83095,-60.586243
2054000000,-153.7664,-60.679157
2055000000,-153.81616,-60.695847
2056000000,-154.05937,-60.947781
2057000000,-154.41093,-61.436665
2058000000,-154.52704,-61.531475
2059000000,-154.90353,-61.931114
2060000000,-154.92825,-62.240932
2061000000,-155.11896,-62.495602
2062000000,-155.38338,-62.73214
2063000000,-155.50381,-62.83794
2064000000,-155.79567,-63.151192
2065000000,-156.15659,-63.561611
2066000000,-155.93375,-63.496002
2067000000,-156.32387,-63.832935
2068000000,-156.63586,-64.051804
2069000000,-156.7894,-64.352333
2070000000,-156.79396,-64.512115
2071000000,-157.17436,-64.832932
2072000000,-157.43356,-65.127541
2073000000,-157.55792,-65.419502
2074000000,-157.58194,-65.454117
2075000000,-157.78459,-65.836143
2076000000,-158.27055,-66.169357
2077000000,-158.17325,-66.05101
2078000000,-158.22009,-66.307503
2079000000,-158.74046,-66.879784
2080000000,-158.93777,-67.057381
2081000000,-159.1078,-67.108009
2082000000,-159.22607,-67.52253
2083000000,-159.49274,-67.706551
2084000000,-159.80269,-68.256699
2085000000,-159.65718,-68.068581
2086000000,-160.11436,-68.665276
2087000000,-160.29715,-68.810722
2088000000,-160.41232,-68.964745
2089000000,-160.89735,-69.412994
2090000000,-160.71986,-69.319908
2091000000,-160.97899,-69.763268
2092000000,-161.13182,-69.95932
2093000000,-161.37727,-70.17012
2094000000,-161.53221,-70.433418
2095000000,-161.72282,-70.650154
2096000000,-162.37915,-71.177933
2097000000,-162.24423,-71.127708
2098000000,-162.3194,-71.477089
2099000000,-162.46561,-71.685043
2100000000,-162.6736,-71.995125
2101000000,-163.00632,-72.241089
2102000000,-163.06023,-72.369667
2103000000,-163.38287,-72.816856
2104000000,-163.53435,-72.937691
2105000000,-163.99527,-73.359245
2106000000,-163.86467,-73.456276
2107000000,-164.13071,-73.646759
2108000000,-164.40654,-73.890648
2109000000,-164.72627,-74.298302
2110000000,-165.25006,-74.622902
2111000000,-165.35458,-75.015907
2112000000,-165.2195,-74.894722
2113000000,-165.4633,-75.387207
2114000000,-165.82249,-75.570313
2115000000,-165.64819,-75.574211
2116000000,-166.15291,-76.074883
2117000000,-166.45966,-76.325745
2118000000,-166.717,-76.663353
2119000000,-166.64359,-76.683937
2120000000,-166.81664,-76.98349
2121000000,-167.07356,-77.36805
2122000000,-167.18723,-77.316521
2123000000,-167.43512,-77.683876
2124000000,-167.53575,-77.892433
2125000000,-167.89146,-78.162903
2126000000,-167.90121,-78.443878
2127000000,-168.11775,-78.430069
2128000000,-168.29268,-78.620529
2129000000,-168.72028,-79.069382
2130000000,-168.96062,-79.388885
2131000000,-169.16838,-79.711678
2132000000,-169.27998,-79.799911
2133000000,-169.41035,-80.005783
2134000000,-169.55769,-80.328552
2135000000,-169.97578,-80.540611
2136000000,-170.31705,-80.918777
2137000000,-170.27145,-80.989716
2138000000,-170.75395,-81.406265
2139000000,-170.76086,-81.72184
2140000000,-170.64848,-81.903603
2141000000,-171.05797,-82.181717
2142000000,-171.20091,-82.397263
2143000000,-171.56735,-82.571747
2144000000,-171.81995,-82.821266
2145000000,-171.86909,-83.030884
2146000000,-172.10695,-83.390472
2147000000,-172.4861,-83.433388
2148000000,-172.5417,-83.881256
2149000000,-172.68044,-83.981834
2150000000,-173.1293,-84.260971
2151000000,-172.85899,-84.413727
2152000000,-173.1723,-84.612976
2153000000,-173.46605,-85.069145
2154000000,-173.86195,-85.359558
2155000000,-173.95934,-85.38736
2156000000,-174.20184,-85.787071
2157000000,-174.40091,-86.118889
2158000000,-174.63158,-86.239288
2159000000,-174.88315,-86.736115
2160000000,-175.00276,-86.895393
2161000000,-175.0452,-86.889336
2162000000,-175.49202,-87.336777
2163000000,-175.52,-87.488976
2164000000,-175.80345,-87.567879
2165000000,-175.98563,-88.030426
2166000000,-176.07455,-88.061256
2167000000,-176.27425,-88.396156
2168000000,-176.53171,-88.65831
2169000000,-176.63925,-88.87587
2170000000,-176.88913,-89.132286
2171000000,-177.30583,-89.518265
2172000000,-177.28098,-89.533356
2173000000,-177.58868,-89.975929
2174000000,-178.03513,-90.365211
2175000000,-177.9808,-90.419281
2176000000,-178.23601,-90.768723
2177000000,-178.51216,-90.941849
2178000000,-178.73889,-91.265129
2179000000,-178.87852,-91.416763
2180000000,-179.01335,-91.564255
2181000000,-179.27501,-92.072647
2182000000,-179.521,-92.217476
2183000000,-179.80096,-92.371277
2184000000,179.9734,-92.908073
2185000000,179.61768,-93.150093
2186000000,179.53601,-93.382553
2187000000,179.71971,-93.211563
2188000000,179.14795,-93.662285
2189000000,179.17007,-93.787132
2190000000,179.05751,-93.965179
2191000000,178.73997,-94.288795
2192000000,178.54536,-94.646942
2193000000,178.21222,-94.843987
2194000000,178.18073,-94.989937
2195000000,177.97025,-95.365158
2196000000,177.7892,-95.556648
2197000000,177.4751,-95.787575
2198000000,177.31056,-96.059128
2199000000,177.05176,-96.419991
2200000000,176.90871,-96.540985
2201000000,176.62772,-96.83123
2202000000,176.48024,-96.947197
2203000000,176.30902,-97.238007
2204000000,176.19794,-97.35334
2205000000,175.66327,-97.890137
2206000000,175.63007,-97.817513
2207000000,175.51883,-98.11573
2208000000,175.42163,-98.43589
2209000000,175.09944,-98.758133
2210000000,175.03793,-98.902412
2211000000,174.54201,-99.442368
2212000000,174.20024,-99.815559
2213000000,174.174,-99.888565
2214000000,173.86479,-100.09108
2215000000,173.64371,-100.41999
2216000000,173.39609,-100.72472
2217000000,173.54266,-100.51765
2218000000,173.30983,-100.80412
2219000000,172.46768,-101.69676
2220000000,172.94226,-101.41631
2221000000,172.59734,-101.61502
2222000000,172.48286,-102.04439
2223000000,172.25587,-102.28458
2224000000,171.79764,-102.57353
2225000000,171.62679,-102.86347
2226000000,171.40923,-103.20402
2227000000,171.14391,-103.52505
2228000000,171.17255,-103.5277
2229000000,170.97107,-103.7183
2230000000,170.58484,-104.08883
2231000000,170.30077,-104.39958
2232000000,170.08656,-104.73418
2233000000,169.78703,-104.81687
2234000000,169.73785,-105.1234
2235000000,169.64372,-105.42329
2236000000,169.33195,-105.59448
2237000000,169.1992,-105.79303
2238000000,168.94609,-106.17239
2239000000,168.52321,-106.47861
2240000000,168.62323,-106.48439
2241000000,168.29341,-107.00071
2242000000,168.10277,-107.08875
2243000000,167.91743,-107.27415
2244000000,167.78973,-107.66441
2245000000,167.45592,-107.88132
2246000000,167.37912,-108.02471
2247000000,166.99889,-108.44774
2248000000,166.75586,-108.64642
2249000000,166.67656,-108.87032
2250000000,166.34698,-109.16411
2251000000,166.15924,-109.34973
2252000000,166.01572,-109.70011
2253000000,165.7049,-109.93954
2254000000,165.51692,-110.25304
2255000000,165.15393,-110.31623
2256000000,165.00951,-110.66898
2257000000,165.10687,-110.66215
2258000000,164.74612,-111.08228
2259000000,164.2523,-111.7144
2260000000,164.63232,-111.36108
2261000000,164.10051,-111.78349
2262000000,163.79001,-112.21275
2263000000,163.49202,-112.58072
2264000000,163.31651,-112.82468
2265000000,163.23224,-113.08524
2266000000,163.24663,-113.12373
2267000000,162.63835,-113.81958
2268000000,162.83165,-113.53697
2269000000,162.64084,-113.87906
2270000000,162.33107,-114.00398
2271000000,161.92188,-114.49921
2272000000,162.01964,-114.50591
2273000000,161.66661,-114.87575
2274000000,161.32317,-115.24181
2275000000,160.99414,-115.67863
2276000000,160.85823,-115.97648
2277000000,160.2915,-116.25251
2278000000,160.78587,-116.14834
2279000000,160.37617,-116.41379
2280000000,160.12645,-116.81934
2281000000,159.76942,-117.24983
2282000000,159.39699,-117.34895
2283000000,159.27434,-117.69387
2284000000,158.87183,-118.20857
2285000000,158.85815,-118.16827
2286000000,158.82639,-118.29334
2287000000,158.49623,-118.62386
2288000000,158.23804,-118.90681
2289000000,157.96872,-119.43549
2290000000,157.78485,-119.28761
2291000000,157.44821,-119.91433
2292000000,157.42279,-120.01753
2293000000,157.33205,-120.09504
2294000000,157.07953,-120.44511
2295000000,156.85156,-120.75123
2296000000,156.55942,-121.08767
2297000000,156.11261,-121.53568
2298000000,156.03642,-121.62354
2299000000,155.87991,-121.93089
2300000000,155.49127,-122.31742
2301000000,155.57713,-122.39818
2302000000,155.36986,-122.67875
2303000000,154.82063,-123.22176
2304000000,154.9222,-123.21043
2305000000,154.54059,-123.41168
2306000000,154.36427,-123.79324
2307000000,153.90384,-124.29331
2308000000,153.88457,-124.29086
2309000000,153.68092,-124.55309
2310000000,153.2711,-125.07694
2311000000,153.29861,-125.24376
2312000000,152.957,-125.41364
2313000000,152.92566,-125.53758
2314000000,152.63881,-125.98169
2315000000,152.55867,-126.08646
2316000000,152.14633,-126.59289
2317000000,151.56516,-127.09384
2318000000,151.66612,-127.17266
2319000000,151.61497,-127.33863
2320000000,151.26683,-127.65022
2321000000,151.32845,-127.82954
2322000000,150.63786,-128.5368
2323000000,150.74336,-128.42569
2324000000,150.43532,-128.7728
2325000000,150.20862,-129.16655
2326000000,150.05103,-129.257
2327000000,149.76547,-129.75717
2328000000,149.62457,-129.81219
2329000000,149.2883,-130.15457
2330000000,149.21643,-130.43225
2331000000,148.62267,-130.86412
2332000000,148.50867,-131.10876
2333000000,148.43806,-131.20645
2334000000,148.36905,-131.42169
2335000000,147.81999,-131.99344
2336000000,147.77171,-132.17847
2337000000,147.36421,-132.42953
2338000000,147.3073,-132.52005
2339000000,147.13289,-133.077
2340000000,146.96298,-133.07979
2341000000,146.61234,-133.69095
2342000000,146.29749,-133.95645
2343000000,146.07909,-134.09406
2344000000,145.96973,-134.52995
2345000000,145.73964,-134.70615
2346000000,145.57875,-134.96169
2347000000,145.321,-135.37039
2348000000,145.2106,-135.5627
2349000000,144.76701,-136.03032
2350000000,144.50836,-136.32632
2351000000,144.26855,-136.42395
2352000000,144.24213,-136.79536
2353000000,143.79156,-137.07964
2354000000,143.73578,-137.22864
2355000000,143.20555,-138.00154
2356000000,143.16808,-138.04663
2357000000,143.08173,-138.33888
2358000000,142.95078,-138.63379
2359000000,142.5191,-139.01395
2360000000,142.12312,-139.30554
2361000000,142.11098,-139.47141
2362000000,141.74908,-139.83101
2363000000,141.74219,-139.96106
2364000000,141.44746,-140.25058
2365000000,141.00671,-140.88101
2366000000,140.55327,-141.20068
2367000000,140.66211,-141.3873
2368000000,140.4136,-141.60049
2369000000,140.17548,-142.02365
2370000000,139.95679,-142.3353
2371000000,139.67854,-142.51938
2372000000,139.78831,-142.64581
2373000000,139.08627,-143.39465
2374000000,138.98454,-143.5592
2375000000,138.77318,-143.78856
2376000000,138.53984,-144.31583
2377000000,138.25906,-144.47009
2378000000,137.91347,-145.12714
2379000000,137.71164,-145.03215
2380000000,137.44977,-145.67577
2381000000,137.2587,-145.82399
2382000000,137.3084,-146.02628
2383000000,137.12869,-146.36598
2384000000,136.4142,-146.82761
2385000000,136.37952,-147.07446
2386000000,136.28148,-147.34781
2387000000,136.0519,-147.62204
2388000000,135.77644,-148.02437
2389000000,135.48805,-148.52672
2390000000,135.2917,-148.67519
2391000000,134.8428,-149.1537
2392000000,134.92439,-149.34581
2393000000,134.72629,-149.63618
2394000000,134.15982,-150.01135
2395000000,134.18826,-150.22397
2396000000,133.68648,-150.81383
2397000000,133.60783,-150.87737
2398000000,133.34695,-151.21541
2399000000,133.06503,-151.77151
2400000000,132.87819,-152.0412
2401000000,132.77412,-152.56552
2402000000,132.44888,-152.78447
2403000000,132.25591,-153.00684
2404000000,131.85829,-153.4512
2405000000,131.80759,-153.80437
2406000000,131.63809,-154.12413
2407000000,131.14323,-154.58012
2408000000,130.83948,-154.86995
2409000000,130.84438,-155.07608
2410000000,130.5507,-155.63773
2411000000,130.43321,-155.72346
2412000000,129.99553,-156.36986
2413000000,129.60301,-156.56039
2414000000,129.49333,-157.10883
2415000000,129.084,-157.51891
2416000000,128.83734,-157.90932
2417000000,128.4612,-158.07869
2418000000,128.61618,-158.2733
2419000000,128.48695,-158.65898
2420000000,127.98154,-159.19794
2421000000,127.82254,-159.52177
2422000000,127.80371,-159.925
2423000000,127.5161,-160.28
2424000000,127.11026,-160.71533
2425000000,126.9553,-160.93744
2426000000,126.66573,-161.5079
2427000000,126.51051,-161.571
2428000000,126.21896,-162.15314
2429000000,126.1711,-162.21565
2430000000,125.90312,-162.70149
2431000000,125.29571,-163.3345
2432000000,125.0456,-163.72717
2433000000,125.04949,-164.10854
2434000000,124.94624,-164.36296
2435000000,124.47844,-164.68462
2436000000,124.37144,-165.20116
2437000000,124.18602,-165.61282
2438000000,123.89298,-165.96255
2439000000,123.35902,-166.61575
2440000000,123.38135,-166.95016
2441000000,122.93906,-167.28282
2442000000,122.86996,-167.59329
2443000000,122.72878,-167.94484
2444000000,122.3853,-168.33105
2445000000,121.86298,-169.00366
2446000000,121.99845,-169.18735
2447000000,121.92463,-169.44954
2448000000,121.63844,-170.01534
2449000000,121.40604,-170.40222
2450000000,121.08784,-170.83342
2451000000,120.8607,-171.4115
2452000000,120.6655,-171.57074
2453000000,120.48747,-172.09895
2454000000,120.09507,-172.56302
2455000000,119.87926,-173.15021
2456000000,119.68188,-173.38797
2457000000,119.41525,-173.785
2458000000,119.19384,-174.29854
2459000000,118.95827,-174.65268
2460000000,118.91341,-175.09369
2461000000,118.80767,-175.5853
2462000000,118.59271,-176.082
2463000000,118.20094,-176.56787
2464000000,118.04022,-176.89101
2465000000,117.80077,-177.2245
2466000000,117.52092,-177.94247
2467000000,117.51938,-178.10992
2468000000,117.41654,-178.35188
2469000000,117.0433,-178.97272
2470000000,116.55256,-179.58727
2471000000,116.5412,179.99806
2472000000,116.40193,179.50958
2473000000,116.25403,178.98045
2474000000,116.10147,178.44824
2475000000,115.96347,178.20578
2476000000,115.67937,177.67273
2477000000,115.53571,177.19847
2478000000,115.36674,176.72021
2479000000,115.12331,176.17686
2480000000,115.18253,175.94284
2481000000,114.54148,175.04802
2482000000,114.66108,174.72511
2483000000,114.44045,174.46852
2484000000,114.33218,173.88565
2485000000,114.17905,173.39728
2486000000,114.08236,173.07837
2487000000,113.82936,172.51761
2488000000,113.78258,171.99013
2489000000,113.67355,171.60753
2490000000,113.46424,170.98448
2491000000,113.46,170.57939
2492000000,113.36567,170.03079
2493000000,113.21243,169.5778
2494000000,112.78374,168.77243
2495000000,112.82199,168.46399
2496000000,112.93613,168.04138
2497000000,112.76033,167.49881
2498000000,112.24874,166.85188
2499000000,112.38194,166.45999
2500000000,112.37247,165.98645
2501000000,112.07556,165.39125
2502000000,111.92049,164.7563
2503000000,111.86027,164.2578
2504000000,112.02283,163.89746
2505000000,111.62628,163.16142
2506000000,111.86702,162.87488
2507000000,111.4644,162.03079
2508000000,111.35602,161.5999
2509000000,111.84837,161.24649
2510000000,111.56115,160.75235
2511000000,111.44685,160.14375
2512000000,111.63466,159.36562
2513000000,111.42116,159.11592
2514000000,111.51261,158.37906
2515000000,111.29589,157.62709
2516000000,111.30132,157.22632
2517000000,111.47972,156.72612
2518000000,111.54611,156.23399
2519000000,111.51488,155.62129
2520000000,111.4717,155.03802
2521000000,111.5505,154.48695
2522000000,111.57839,153.77362
2523000000,111.66595,153.26958
2524000000,111.81935,152.89235
2525000000,111.70117,151.96889
2526000000,111.75966,151.70618
2527000000,111.98136,151.16969
2528000000,112.1076,150.3846
2529000000,112.20514,149.94145
2530000000,112.46733,149.39539
2531000000,112.35539,148.79305
2532000000,112.57655,148.08162
2533000000,112.91029,147.67465
2534000000,112.72818,146.94388
2535000000,113.19882,146.47697
2536000000,113.3102,145.86855
2537000000,113.53325,145.24014
2538000000,113.61781,144.58151
2539000000,113.91087,144.05453
2540000000,113.65179,143.14803
2541000000,114.25219,142.79831
2542000000,114.74831,142.161
2543000000,114.59319,141.21938
2544000000,114.87399,140.70776
2545000000,115.3101,140.30389
2546000000,115.38116,139.51797
2547000000,116.01149,139.08693
2548000000,116.19868,138.32675
2549000000,116.26135,137.8497
2550000000,116.66712,137.29594
2551000000,117.17233,136.80429
2552000000,117.29613,135.98595
2553000000,117.68286,135.27498
2554000000,117.75694,134.60347
2555000000,118.21509,134.04601
2556000000,118.50408,133.60321
2557000000,118.91474,132.97163
2558000000,119.04459,132.21017
2559000000,119.56702,131.44771
2560000000,120.0272,130.76653
2561000000,120.24386,130.3951
2562000000,120.29446,129.60294
2563000000,120.85904,128.98375
2564000000,121.44287,128.39848
2565000000,121.70859,127.85567
2566000000,121.91606,126.94334
2567000000,122.29273,126.30722
2568000000,122.56846,125.6779
2569000000,122.80522,124.90388
2570000000,123.32144,124.35469
2571000000,123.81782,123.73527
2572000000,123.70805,122.89619
2573000000,124.727,122.59985
2574000000,124.60127,121.80712
2575000000,125.01735,121.06126
2576000000,125.39128,120.39507
2577000000,125.65319,119.68408
2578000000,125.73215,119.03189
2579000000,126.04526,118.37107
2580000000,126.16631,117.60689
2581000000,126.82018,117.19122
2582000000,126.90296,116.34501
2583000000,127.21729,115.76192
2584000000,127.12856,114.78459
2585000000,127.79914,114.24622
2586000000,128.05936,113.70351
2587000000,128.21147,112.93962
2588000000,128.51558,112.3438
2589000000,128.68547,111.68534
2590000000,128.68225,110.99641
2591000000,128.89882,110.33255
2592000000,128.86783,109.43644
2593000000,129.3055,108.83738
2594000000,129.47612,108.10976
2595000000,129.65514,107.48048
2596000000,129.80907,106.72588
2597000000,129.55962,105.76106
2598000000,130.06094,105.48528
2599000000,129.89027,104.52618
2600000000,129.92741,103.95043
2601000000,130.1814,103.21026
2602000000,129.94223,102.47247
2603000000,130.28986,101.83767
2604000000,130.19978,101.16299
2605000000,130.12071,100.30402
2606000000,130.33446,99.667686
2607000000,130.16316,99.049408
2608000000,130.27306,98.449753
2609000000,130.05766,97.688751
2610000000,129.95831,96.831207
2611000000,130.04495,96.151512
2612000000,130.32182,95.59787
2613000000,130.09901,94.860374
2614000000,129.70837,94.037178
2615000000,129.5233,93.188705
2616000000,129.37331,92.418358
2617000000,129.60915,91.867683
2618000000,129.25629,91.076805
2619000000,128.98453,90.325768
2620000000,128.81366,89.43232
2621000000,129.00822,88.87101
2622000000,128.48721,88.117203
2623000000,128.42776,87.539444
2624000000,128.15393,86.539055
2625000000,127.81929,85.833664
2626000000,127.77889,84.84156
2627000000,127.68768,84.472542
2628000000,127.40628,83.736282
2629000000,127.11683,82.600906
2630000000,126.99773,82.248466
2631000000,126.74932,81.073059
2632000000,126.4425,80.278885
2633000000,126.58714,79.780273
2634000000,125.75858,78.781639
2635000000,125.56803,77.926849
2636000000,125.38261,77.376312
2637000000,125.23645,76.673645
2638000000,124.99899,75.900795
2639000000,124.39736,74.816025
2640000000,124.35896,74.118332
2641000000,124.04446,73.533455
2642000000,123.65183,72.664787
2643000000,123.28848,71.799866
2644000000,123.22387,71.132843
2645000000,122.54256,70.211159
2646000000,122.15009,69.393158
2647000000,121.92675,68.423874
2648000000,121.79122,67.676361
2649000000,121.30166,66.590004
2650000000,121.23335,66.018166
2651000000,120.77428,65.154121
2652000000,120.40277,64.238243
2653000000,120.17422,63.599178
2654000000,119.88807,62.708881
2655000000,119.17783,61.625053
2656000000,118.98389,60.780788
2657000000,118.84275,59.88134
2658000000,118.29904,59.126072
2659000000,118.05061,58.218128
2660000000,117.81086,57.413921
2661000000,117.52232,56.238625
2662000000,117.4446,55.552475
2663000000,117.15633,54.711334
2664000000,116.79063,53.605152
2665000000,116.58677,52.95298
2666000000,116.00914,51.912785
2667000000,116.15081,50.913143
2668000000,116.16481,49.987408
2669000000,115.55847,49.101936
2670000000,115.55013,48.16066
2671000000,115.67327,47.310398
2672000000,115.45785,46.137619
2673000000,115.49865,45.153595
2674000000,115.93853,44.340401
2675000000,115.69569,43.328377
2676000000,116.01137,42.452278
2677000000,116.45455,41.441082
2678000000,116.80181,40.417526
2679000000,117.20046,39.152771
2680000000,118.23016,38.211533
2681000000,119.3952,37.308189
2682000000,120.41931,36.276577
2683000000,122.04977,35.047722
2684000000,123.47507,34.134094
2685000000,125.37844,33.108261
2686000000,127.79556,31.754261
2687000000,131.08157,30.953476
2688000000,134.81375,29.774937
2689000000,138.74368,28.752911
2690000000,143.98341,27.718643
2691000000,149.72165,26.713722
2692000000,156.20079,25.638655
2693000000,162.70193,24.289167
2694000000,169.54616,23.416132
2695000000,176.97421,22.238979
2696000000,-176.38628,21.256039
2697000000,-170.34856,20.106802
2698000000,-165.52177,18.841866
2699000000,-160.73662,17.851969
2700000000,-156.90245,16.681103
2701000000,-153.36313,15.70437
2702000000,-150.85265,14.36902
2703000000,-148.89555,13.199533
2704000000,-146.75644,12.048847
2705000000,-145.53758,10.990611
2706000000,-144.72812,9.5458345
2707000000,-143.56894,8.4561605
2708000000,-142.8264,7.3318248
2709000000,-142.25166,6.3193583
2710000000,-141.78636,5.3642979
2711000000,-141.68269,4.1859555
2712000000,-141.61136,3.0511098
2713000000,-141.78467,1.7887759
2714000000,-141.66248,0.77270752
2715000000,-141.91011,-0.5326972
2716000000,-142.40654,-1.779561
2717000000,-142.35936,-2.7359846
2718000000,-142.92218,-3.8724463
2719000000,-143.20137,-5.1068974
2720000000,-143.83321,-6.2813997
2721000000,-144.63547,-7.4638257
2722000000,-145.01811,-8.6065874
2723000000,-145.36325,-9.6566935
2724000000,-145.85931,-10.656375
2725000000,-146.45331,-11.717258
2726000000,-147.26265,-12.977795
2727000000,-147.87686,-14.022967
2728000000,-148.54695,-15.21892
2729000000,-149.2579,-16.096712
2730000000,-150.05907,-17.190639
2731000000,-150.64635,-18.143913
2732000000,-151.47241,-19.359209
2733000000,-152.0405,-20.449183
2734000000,-152.77725,-21.267403
2735000000,-153.59476,-22.615196
2736000000,-154.26865,-23.647459
2737000000,-155.12695,-24.403961
2738000000,-155.76147,-25.90416
2739000000,-156.39905,-26.593904
2740000000,-157.39749,-27.694016
2741000000,-157.97159,-28.457035
2742000000,-158.83054,-29.462667
2743000000,-159.52986,-30.552423
2744000000,-160.32164,-31.543604
2745000000,-160.71883,-32.37579
2746000000,-161.70265,-33.486584
2747000000,-162.35107,-34.617092
2748000000,-163.00868,-35.369228
2749000000,-163.8808,-36.277004
2750000000,-164.61136,-37.055676
2751000000,-165.23402,-38.024288
2752000000,-166.07985,-38.852779
2753000000,-166.91946,-39.787395
2754000000,-167.52606,-40.746815
2755000000,-168.31091,-41.381912
2756000000,-168.89209,-42.418137
2757000000,-169.68506,-43.21769
2758000000,-170.29207,-43.974594
2759000000,-170.99174,-44.767113
2760000000,-171.53229,-45.393982
2761000000,-172.36874,-46.427288
2762000000,-172.80453,-46.911739
2763000000,-173.59756,-47.990067
2764000000,-174.23335,-48.591141
2765000000,-174.7514,-49.451416
2766000000,-175.54515,-50.365849
2767000000,-176.13109,-50.988678
2768000000,-176.77435,-51.545189
2769000000,-177.2867,-52.108971
2770000000,-177.95958,-52.847496
2771000000,-178.50275,-53.652943
2772000000,-179.20679,-54.514378
2773000000,-179.86804,-55.279568
2774000000,179.6888,-55.76162
2775000000,179.04337,-56.400581
2776000000,178.57214,-57.131718
2777000000,177.99197,-57.775566
2778000000,177.41742,-58.389233
2779000000,176.7299,-59.284019
2780000000,176.39136,-59.590225
2781000000,175.87541,-60.08107
2782000000,175.32903,-60.92498
2783000000,174.51987,-61.550087
2784000000,174.22726,-62.000641
2785000000,173.43701,-62.756454
2786000000,173.11443,-63.140942
2787000000,172.81042,-63.837666
2788000000,172.10536,-64.394783
2789000000,171.67316,-65.052986
2790000000,171.12558,-65.581017
2791000000,170.51689,-65.929695
2792000000,170.10234,-66.618523
2793000000,169.53072,-67.200996
2794000000,169.14043,-67.787292
2795000000,168.68941,-68.290443
2796000000,168.23975,-68.742577
2797000000,167.85103,-69.150726
2798000000,167.37386,-69.347084
2799000000,166.74591,-70.198441
2800000000,166.4104,-70.64399
2801000000,165.82196,-71.218704
2802000000,165.32986,-71.718155
2803000000,165.04855,-72.045692
2804000000,164.66249,-72.675743
2805000000,164.28334,-73.037437
2806000000,163.77214,-73.549034
2807000000,163.30147,-74.1549
2808000000,162.90755,-74.313606
2809000000,162.42699,-74.980141
2810000000,162.09065,-75.4394
2811000000,161.60989,-75.603775
2812000000,161.24214,-76.068802
2813000000,160.65375,-76.583473
2814000000,160.34993,-77.052414
2815000000,160.15379,-77.421852
2816000000,159.60371,-77.887794
2817000000,159.24551,-78.197433
2818000000,159.09982,-78.48925
2819000000,158.65718,-78.998703
2820000000,158.30946,-79.268845
2821000000,157.84366,-79.744408
2822000000,157.47421,-79.979408
2823000000,157.11757,-80.483803
2824000000,156.83252,-80.823425
2825000000,156.14688,-81.467667
2826000000,156.02303,-81.586845
2827000000,156.02019,-81.677452
2828000000,155.22774,-82.489037
2829000000,154.74593,-82.766953
2830000000,154.5031,-83.079926
2831000000,154.2403,-83.48674
2832000000,153.81737,-83.722115
2833000000,153.62886,-83.958725
2834000000,153.21664,-84.227676
2835000000,152.84311,-84.730957
2836000000,152.67894,-84.827621
2837000000,152.26474,-85.290207
2838000000,151.88191,-85.529587
2839000000,151.42941,-85.963402
2840000000,151.42899,-86.269058
2841000000,150.94577,-86.411667
2842000000,150.76326,-86.685562
2843000000,150.52663,-87.110512
2844000000,150.33652,-87.235573
2845000000,149.66443,-87.586197
2846000000,149.46524,-88.09861
2847000000,148.95659,-88.389526
2848000000,148.89886,-88.487198
2849000000,148.46211,-88.892334
2850000000,148.33931,-89.268074
2851000000,147.776,-89.37587
2852000000,147.59756,-89.554008
2853000000,147.22881,-90.164108
2854000000,146.96877,-89.913452
2855000000,146.74228,-90.227776
2856000000,146.45552,-90.700478
2857000000,146.31155,-90.925201
2858000000,145.73306,-91.426163
2859000000,145.70189,-91.380447
2860000000,145.34567,-91.549965
2861000000,144.95871,-91.814545
2862000000,144.71037,-92.319969
2863000000,144.33266,-92.792931
2864000000,144.04338,-92.737366
2865000000,143.9437,-92.83606
2866000000,143.70236,-93.124046
2867000000,143.49585,-93.261055
2868000000,143.23991,-93.903961
2869000000,142.87384,-93.934769
2870000000,142.6953,-93.628326
2871000000,142.32402,-94.334991
2872000000,142.02098,-94.820465
2873000000,141.72408,-94.611168
2874000000,141.67622,-94.591644
2875000000,141.3317,-95.062439
2876000000,141.22054,-95.167969
2877000000,140.85039,-95.578461
2878000000,140.59048,-95.616402
2879000000,140.42444,-95.671623
2880000000,139.88376,-96.43943
2881000000,139.89746,-96.338478
2882000000,139.7079,-96.444344
2883000000,139.34071,-96.591431
2884000000,139.11517,-96.471977
2885000000,138.74977,-96.99836
2886000000,138.53444,-96.964363
2887000000,138.40506,-97.157349
2888000000,138.26959,-97.33667
2889000000,137.92557,-97.651016
2890000000,137.62749,-97.703346
2891000000,137.3672,-97.787689
2892000000,137.32285,-98.431465
2893000000,136.99063,-98.2733
2894000000,136.65672,-98.238785
2895000000,136.4099,-98.642311
2896000000,136.51657,-98.81459
2897000000,136.0415,-98.601494
2898000000,135.74648,-99.220406
2899000000,135.56184,-99.522453
2900000000,135.36998,-99.054199
2901000000,135.28099,-99.174652
2902000000,134.89639,-99.228714
2903000000,134.54132,-99.804382
2904000000,134.42128,-99.962685
2905000000,134.50832,-99.703918
2906000000,134.14632,-99.878807
2907000000,133.92902,-99.987213
2908000000,133.40857,-100.05222
2909000000,133.47453,-100.3453
2910000000,133.21603,-100.42323
2911000000,132.89584,-100.42238
2912000000,132.56755,-100.435
2913000000,132.55739,-100.75214
2914000000,132.14252,-100.94612
2915000000,131.96504,-101.15152
2916000000,131.73177,-101.65373
2917000000,131.66579,-100.91627
2918000000,131.56671,-101.43796
2919000000,131.24716,-101.47389
2920000000,131.25313,-101.35313
2921000000,130.95253,-101.91252
2922000000,130.58482,-101.60913
2923000000,130.35674,-101.67802
2924000000,130.3766,-101.7941
2925000000,130.08864,-101.72482
2926000000,130.18176,-101.64114
2927000000,129.67165,-101.84113
2928000000,129.51793,-101.92666
2929000000,129.22952,-101.75964
2930000000,128.87392,-102.29607
2931000000,128.76318,-101.72881
2932000000,128.48152,-102.43982
2933000000,128.23271,-102.30648
2934000000,128.11926,-102.32619
2935000000,127.95776,-102.79251
2936000000,127.85831,-102.16077
2937000000,127.57022,-102.54012
2938000000,127.44437,-101.85559
2939000000,127.16444,-102.39645
2940000000,127.01418,-102.68086
2941000000,126.79029,-102.76738
2942000000,126.7934,-102.67049
2943000000,126.30129,-103.06673
2944000000,126.38262,-102.89453
2945000000,126.07465,-102.79724
2946000000,126.02523,-102.98411
2947000000,125.77876,-102.96085
2948000000,125.57285,-103.04438
2949000000,125.35634,-103.23151
2950000000,125.44019,-102.83682
2951000000,125.31917,-103.05029
2952000000,124.70387,-103.53866
2953000000,124.54335,-103.33148
2954000000,124.44722,-102.98828
2955000000,124.18598,-103.20497
2956000000,124.03011,-104.00417
2957000000,123.87876,-103.33147
2958000000,123.72621,-103.45561
2959000000,123.43131,-103.37678
2960000000,123.3642,-102.99763
2961000000,123.35375,-103.47741
2962000000,123.1797,-103.37874
2963000000,123.01641,-103.70603
2964000000,122.52709,-103.00289
2965000000,122.62505,-103.2816
2966000000,122.21198,-103.26057
2967000000,122.19255,-103.33288
2968000000,122.00248,-103.75902
2969000000,121.86523,-103.39397
2970000000,121.5455,-103.11282
2971000000,121.42454,-103.4887
2972000000,121.44403,-102.09318
2973000000,121.03014,-102.40524
2974000000,121.06647,-102.74483
2975000000,120.67054,-103.50192
2976000000,120.54365,-102.91897
2977000000,120.43436,-102.99448
2978000000,120.21987,-103.48496
2979000000,120.0254,-103.54617
2980000000,119.78607,-103.28037
2981000000,119.56693,-103.09858
2982000000,119.57234,-102.50354
2983000000,119.43488,-103.44083
2984000000,119.31059,-101.89706
2985000000,119.07374,-102.62297
2986000000,118.94595,-103.35161
2987000000,118.7058,-102.88916
2988000000,118.52743,-101.45149
2989000000,118.38332,-102.5149
2990000000,118.38827,-102.52836
2991000000,118.0634,-101.86791
2992000000,117.92567,-102.1631
2993000000,117.77522,-101.58469
2994000000,117.49585,-101.91192
2995000000,117.4131,-102.6516
2996000000,117.14655,-102.64485
2997000000,116.86024,-101.65485
2998000000,116.82323,-102.14958
2999000000,116.83264,-102.26526
3000000000,116.57498,-100.83771
3001000000,116.44569,-102.3343
3002000000,116.21359,-102.07178
3003000000,116.26572,-101.13
3004000000,115.97855,-100.81333
3005000000,115.65841,-102.05354
3006000000,115.7021,-101.35993
3007000000,115.47939,-101.09889
3008000000,115.2801,-101.1087
3009000000,115.28387,-101.75011
3010000000,115.02408,-100.05636
3011000000,114.78668,-100.19976
3012000000,114.80322,-100.41238
3013000000,114.56986,-100.7541
3014000000,114.43958,-100.71649
3015000000,114.17822,-100.51392
3016000000,114.09436,-102.03422
3017000000,113.80226,-100.00794
3018000000,113.90744,-100.23955
3019000000,113.46056,-100.36461
3020000000,113.56687,-101.63293
3021000000,113.05044,-99.5093
3022000000,112.98366,-99.710678
3023000000,113.05795,-100.30023
3024000000,112.75595,-100.29981
3025000000,112.64584,-99.104691
3026000000,112.45057,-99.396973
3027000000,112.4551,-100.01003
3028000000,112.36147,-98.800346
3029000000,111.96162,-100.12843
3030000000,111.7794,-97.886337
3031000000,111.83122,-99.66478
3032000000,111.54198,-98.668098
3033000000,111.42366,-98.849594
3034000000,111.46042,-99.886482
3035000000,111.26181,-99.087326
3036000000,111.03165,-99.368034
3037000000,110.84325,-97.081566
3038000000,110.86012,-97.464767
3039000000,110.57173,-97.4636
3040000000,110.25843,-99.845154
3041000000,110.28432,-97.14209
3042000000,110.27444,-98.984375
3043000000,109.89056,-97.960602
3044000000,109.78668,-98.473541
3045000000,109.70552,-99.060303
3046000000,109.44477,-96.459618
3047000000,109.30432,-98.305862
3048000000,109.10002,-96.896667
3049000000,108.96787,-97.547127
3050000000,108.87894,-97.67704
3051000000,108.94134,-97.288651
3052000000,108.49888,-96.964485
3053000000,108.62397,-96.690712
3054000000,108.31483,-96.883675
3055000000,108.05566,-96.278526
3056000000,107.94157,-97.988831
3057000000,107.95115,-94.523026
3058000000,107.86425,-97.12278
3059000000,107.5456,-96.496483
3060000000,107.54688,-96.296127
3061000000,107.40195,-97.407677
3062000000,107.12077,-95.213982
3063000000,106.96459,-95.57666
3064000000,106.8996,-95.338745
3065000000,106.73515,-96.741394
3066000000,106.70458,-96.335876
3067000000,106.4602,-97.358948
3068000000,106.36597,-96.116493
3069000000,106.29129,-97.567978
3070000000,105.80849,-96.185707
3071000000,105.78229,-96.663483
3072000000,105.88074,-94.864845
3073000000,105.64353,-96.18338
3074000000,105.57166,-96.757431
3075000000,105.4005,-95.0896
3076000000,105.12175,-96.519409
3077000000,105.12878,-96.475723
3078000000,104.84356,-96.764854
3079000000,104.83682,-95.471031
3080000000,104.51337,-95.174477
3081000000,104.43928,-96.088745
3082000000,104.38712,-95.164749
3083000000,104.27222,-96.171951
3084000000,104.37671,-96.818329
3085000000,104.10888,-94.509033
3086000000,103.80703,-97.524277
3087000000,103.70792,-95.408569
3088000000,103.38441,-92.83744
3089000000,103.24955,-94.512398
3090000000,103.30769,-95.512154
3091000000,103.02492,-94.340645
3092000000,102.83961,-93.936478
3093000000,102.81253,-95.454124
3094000000,102.81366,-93.464523
3095000000,102.51375,-95.135849
3096000000,102.34009,-94.790993
3097000000,102.01418,-95.149406
3098000000,102.09998,-96.025352
3099000000,101.97844,-92.858833
3100000000,101.98568,-94.458786
3101000000,101.52752,-94.876442
3102000000,101.53142,-96.144348
3103000000,101.52425,-92.972015
3104000000,101.443,-93.126167
3105000000,101.19527,-95.217201
3106000000,101.07164,-92.416214
3107000000,100.91651,-93.864265
3108000000,100.93609,-95.550644
3109000000,100.70293,-95.994217
3110000000,100.63837,-93.003151
3111000000,100.5025,-95.166367
3112000000,100.40398,-97.439651
3113000000,100.18128,-96.558235
3114000000,99.907196,-92.572411
3115000000,99.898781,-97.339317
3116000000,99.668915,-97.136475
3117000000,99.660797,-97.494064
3118000000,99.472443,-94.688995
3119000000,99.297966,-97.269524
3120000000,99.386795,-97.277084
3121000000,99.061737,-96.641594
3122000000,99.123894,-95.540291
3123000000,98.892845,-96.474007
3124000000,98.728035,-96.042587
3125000000,98.49321,-95.996681
3126000000,98.253548,-94.024498
3127000000,98.208939,-95.627289
3128000000,98.304062,-96.032181
3129000000,97.928246,-97.655472
3130000000,97.96006,-94.177391
3131000000,97.784035,-97.471107
3132000000,97.694962,-95.982887
3133000000,97.519554,-96.65316
3134000000,97.23246,-94.331612
3135000000,97.366653,-95.833412
3136000000,97.065697,-96.899185
3137000000,96.843498,-94.606659
3138000000,96.896606,-96.108444
3139000000,96.636246,-96.344032
3140000000,96.555855,-94.274178
3141000000,96.577339,-94.744415
3142000000,96.136032,-95.957878
3143000000,96.229866,-95.811577
3144000000,95.998726,-94.716194
3145000000,95.876694,-96.962395
3146000000,95.687378,-93.801559
3147000000,95.6726,-97.9711
3148000000,95.583748,-96.971222
3149000000,95.407547,-96.258698
3150000000,95.404297,-97.512962
3151000000,95.225677,-94.850021
3152000000,95.117867,-100.88812
3153000000,94.935913,-95.404175
3154000000,94.53347,-99.102303
3155000000,94.707497,-98.463051
3156000000,94.687279,-98.679153
3157000000,94.444817,-98.308144
3158000000,94.55442,-97.856895
3159000000,94.031113,-99.920998
3160000000,93.892982,-98.465393
3161000000,93.825562,-96.541626
3162000000,93.813988,-98.717644
3163000000,93.768799,-96.560066
3164000000,93.635391,-96.818512
3165000000,93.498962,-99.069283
3166000000,93.066673,-98.583557
3167000000,93.033188,-99.699318
3168000000,92.954933,-100.17706
3169000000,92.642807,-97.771309
3170000000,92.828758,-98.490555
3171000000,92.616386,-101.053
3172000000,92.447365,-99.969986
3173000000,92.338341,-101.18226
3174000000,92.10154,-99.511238
3175000000,91.963951,-98.091454
3176000000,91.728073,-98.213409
3177000000,91.670197,-98.006401
3178000000,91.712814,-100.10578
3179000000,91.49807,-99.997032
3180000000,91.491837,-101.36492
3181000000,91.233543,-98.538185
3182000000,91.072876,-100.25479
3183000000,91.043358,-101.01367
3184000000,90.849144,-102.60117
3185000000,90.792984,-101.92204
3186000000,90.732933,-101.11761
3187000000,90.343353,-102.46358
3188000000,90.541389,-101.6638
3189000000,90.339027,-103.5781
3190000000,90.311928,-103.01639
3191000000,90.112877,-103.68549
3192000000,89.940369,-101.75545
3193000000,89.79493,-104.96006
3194000000,89.711922,-104.24767
3195000000,89.561386,-104.03049
3196000000,89.388222,-103.0211
3197000000,89.242744,-104.69496
3198000000,89.20929,-101.28191
3199000000,89.009277,-105.69242
3200000000,88.962845,-106.70208
3201000000,88.762703,-105.30436
3202000000,88.648689,-103.60751
3203000000,88.427895,-103.84291
3204000000,88.445564,-103.75771
3205000000,88.425659,-102.9473
3206000000,88.30603,-107.81099
3207000000,88.095039,-106.26583
3208000000,87.999504,-103.90509
3209000000,87.607285,-107.52678
3210000000,87.500664,-107.29652
3211000000,87.483772,-106.55812
3212000000,87.203392,-104.78801
3213000000,87.357262,-107.94656
3214000000,87.169792,-107.70145
3215000000,87.081795,-105.62687
3216000000,86.932671,-105.85561
3217000000,86.796196,-103.24361
3218000000,86.727417,-104.04356
3219000000,86.530632,-106.45773
3220000000,86.380455,-106.15658
3221000000,86.465172,-106.47025
3222000000,86.179909,-103.99777
3223000000,85.956665,-106.85291
3224000000,85.979622,-106.69724
3225000000,85.864029,-106.23434
3226000000,85.635803,-111.06248
3227000000,85.410919,-108.08679
3228000000,85.42823,-110.62231
3229000000,85.218292,-110.75515
3230000000,85.248756,-111.97306
3231000000,84.98159,-107.55466
3232000000,85.040558,-110.53638
3233000000,84.495667,-109.56285
3234000000,84.661842,-112.19176
3235000000,84.507706,-110.22475
3236000000,84.320229,-113.17975
3237000000,84.229271,-111.73554
3238000000,84.294815,-109.10233
3239000000,83.99015,-111.26888
3240000000,84.046616,-112.99844
3241000000,83.745735,-109.48764
3242000000,83.846581,-108.70592
3243000000,83.591949,-112.52557
3244000000,83.410767,-110.22007
3245000000,83.194328,-114.60874
3246000000,83.314919,-110.94698
3247000000,83.351105,-111.89511
3248000000,82.768379,-109.63483
3249000000,82.839104,-109.53207
3250000000,82.870926,-109.83286
3251000000,82.482018,-111.70481
3252000000,82.390984,-110.62778
3253000000,82.340302,-112.73862
3254000000,82.242538,-113.10513
3255000000,82.145332,-110.99171
3256000000,81.97123,-112.81388
3257000000,81.889458,-114.75875
3258000000,81.91748,-112.69527
3259000000,81.401138,-115.32112
3260000000,81.594078,-113.94144
3261000000,81.288033,-111.67101
3262000000,81.291878,-113.67506
3263000000,81.135628,-115.32337
3264000000,81.041565,-114.61361
3265000000,80.755692,-114.12744
3266000000,80.693382,-116.72182
3267000000,80.549217,-115.74131
3268000000,80.367188,-116.27307
3269000000,80.518303,-114.05056
3270000000,80.060776,-117.82701
3271000000,80.245705,-115.58639
3272000000,80.020462,-115.87952
3273000000,80.079857,-116.30853
3274000000,79.816231,-120.30099
3275000000,79.702652,-117.64146
3276000000,79.496948,-120.69311
3277000000,79.426285,-121.93565
3278000000,79.380722,-119.95641
3279000000,79.111763,-121.87048
3280000000,79.11496,-118.99165
3281000000,78.954475,-119.91893
3282000000,78.84977,-116.9623
3283000000,78.602318,-120.75146
3284000000,78.660683,-121.94882
3285000000,78.528725,-120.61166
3286000000,78.381004,-120.72488
3287000000,78.231529,-125.68454
3288000000,78.055222,-121.29689
3289000000,78.033958,-121.33076
3290000000,77.768906,-119.89796
3291000000,77.8405,-119.7117
3292000000,77.383492,-123.01392
3293000000,77.589821,-121.98643
3294000000,77.389122,-120.43129
3295000000,77.185905,-123.11964
3296000000,77.112701,-123.56261
3297000000,76.931396,-124.14091
3298000000,76.866005,-119.59239
3299000000,76.912392,-126.00745
3300000000,76.502312,-120.06129
3301000000,76.169785,-124.25211
3302000000,76.345459,-125.34943
3303000000,76.062469,-122.9408
3304000000,76.067894,-124.87775
3305000000,75.784065,-126.87999
3306000000,75.801826,-122.62737
3307000000,75.572784,-120.47662
3308000000,75.498955,-126.58534
3309000000,75.401939,-123.35866
3310000000,75.417114,-119.81664
3311000000,75.219101,-127.04342
3312000000,75.072472,-117.09377
3313000000,74.86618,-125.13909
3314000000,74.926102,-124.7244
3315000000,74.719269,-123.59486
3316000000,74.553062,-126.08569
3317000000,74.518311,-126.11575
3318000000,74.427849,-124.21385
3319000000,74.110321,-121.15847
3320000000,74.160683,-126.84922
3321000000,74.001053,-121.09956
3322000000,73.609322,-124.96564
3323000000,73.694672,-124.78457
3324000000,73.556297,-122.88293
3325000000,73.220657,-125.56243
3326000000,73.155777,-122.7947
3327000000,73.321823,-125.65143
3328000000,73.150772,-124.10414
3329000000,72.869087,-124.67444
3330000000,72.799683,-123.87208
3331000000,72.878281,-122.77322
3332000000,72.720093,-121.18937
3333000000,72.534286,-124.36363
3334000000,72.418602,-122.13886
3335000000,72.269348,-120.55649
3336000000,71.939354,-125.40053
3337000000,71.972725,-126.77201
3338000000,71.723007,-125.3942
3339000000,71.584778,-121.96021
3340000000,71.605888,-123.3765
3341000000,71.515625,-122.20487
3342000000,71.425079,-127.87815
3343000000,71.246834,-120.22334
3344000000,71.038193,-122.67659
3345000000,70.891716,-122.41798
3346000000,70.832863,-123.10438
3347000000,70.589546,-124.00742
3348000000,70.628624,-123.82039
3349000000,70.268265,-125.56658
3350000000,70.398048,-124.231
3351000000,70.110695,-123.65935
3352000000,70.115295,-123.22278
3353000000,69.881042,-126.68787
3354000000,69.762474,-121.3299
3355000000,69.800102,-123.7112
3356000000,69.51973,-122.32777
3357000000,69.464317,-125.34668
3358000000,69.370895,-124.65676
3359000000,69.212769,-124.21413
3360000000,68.970436,-124.40666
3361000000,68.779533,-120.22353
3362000000,68.751343,-121.91236
3363000000,68.674164,-120.93029
3364000000,68.579971,-121.00108
3365000000,68.279343,-121.66341
3366000000,68.223274,-123.48664
3367000000,68.242691,-120.9804
3368000000,68.084923,-122.4764
3369000000,68.039436,-120.27386
3370000000,67.786545,-121.46401
3371000000,67.755371,-122.33381
3372000000,67.578262,-123.45671
3373000000,67.618263,-124.06415
3374000000,67.377968,-123.5411
3375000000,67.117027,-121.35658
3376000000,67.084129,-123.33147
3377000000,66.685783,-119.41084
3378000000,66.643356,-121.52938
3379000000,66.861641,-124.96783
3380000000,66.423721,-122.52407
3381000000,66.191025,-122.38093
3382000000,66.314926,-123.99031
3383000000,65.956703,-122.41876
3384000000,65.94368,-120.12527
3385000000,65.736137,-122.47408
3386000000,65.766747,-127.64957
3387000000,65.526154,-121.6969
3388000000,65.498474,-120.06991
3389000000,65.261177,-123.08258
3390000000,65.29438,-120.66228
3391000000,65.08049,-122.23701
3392000000,64.879097,-122.74784
3393000000,64.724312,-121.17767
3394000000,64.59951,-120.09731
3395000000,64.754967,-121.47421
3396000000,64.586319,-123.00877
3397000000,64.316216,-122.18555
3398000000,64.313202,-123.74205
3399000000,63.88047,-122.82967
3400000000,63.87907,-121.38521
3401000000,63.745972,-122.28302
3402000000,63.615742,-121.60029
3403000000,63.580341,-124.28901
3404000000,63.281124,-124.6873
3405000000,63.062565,-125.77936
3406000000,63.122429,-124.3624
3407000000,63.207111,-125.20096
3408000000,62.844597,-122.81271
3409000000,62.806923,-124.60003
3410000000,62.654343,-124.60532
3411000000,62.567642,-126.55189
3412000000,62.302773,-122.95219
3413000000,62.238476,-124.10065
3414000000,62.195465,-124.46612
3415000000,62.186359,-123.89734
3416000000,61.703568,-124.25894
3417000000,61.672619,-125.69759
3418000000,61.615433,-122.21939
3419000000,61.39521,-123.42951
3420000000,61.485519,-122.75603
3421000000,61.078167,-121.48559
3422000000,60.849358,-119.13251
3423000000,61.003296,-118.68347
3424000000,60.723625,-117.94055
3425000000,60.489563,-122.6655
3426000000,60.546539,-119.66534
3427000000,60.248055,-120.26716
3428000000,60.217129,-121.64491
3429000000,60.117992,-119.65236
3430000000,60.07476,-120.8195
3431000000,59.80817,-123.18451
3432000000,59.610226,-122.11317
3433000000,59.550426,-122.96745
3434000000,59.652306,-119.58147
3435000000,59.308598,-121.47874
3436000000,59.116306,-122.08559
3437000000,59.135975,-120.6162
3438000000,58.866962,-121.22607
3439000000,58.612812,-121.13035
3440000000,58.533829,-121.31389
3441000000,58.463116,-120.68048
3442000000,58.363918,-121.42787
3443000000,58.340225,-121.78386
3444000000,58.120903,-121.42966
3445000000,57.812279,-120.68573
3446000000,57.787128,-120.28325
3447000000,57.563824,-120.53473
3448000000,57.530964,-123.87766
3449000000,57.525997,-121.81181
3450000000,57.237522,-122.46787
3451000000,57.235271,-122.93536
3452000000,57.014393,-121.15503
3453000000,56.738838,-121.29644
3454000000,56.507366,-123.68368
3455000000,56.765896,-121.59372
3456000000,56.317066,-119.62621
3457000000,56.299503,-119.32352
3458000000,56.238979,-121.30456
3459000000,56.146088,-120.26283
3460000000,55.979382,-122.04565
3461000000,55.775986,-119.14957
3462000000,55.57127,-121.03515
3463000000,55.379772,-121.79839
3464000000,55.445774,-121.64371
3465000000,55.436756,-120.65424
3466000000,55.242599,-120.33111
3467000000,54.979374,-120.71533
3468000000,54.720387,-121.53054
3469000000,54.785908,-121.7747
3470000000,54.366421,-122.00928
3471000000,54.378502,-123.87061
3472000000,53.981274,-122.86961
3473000000,54.154762,-121.08153
3474000000,53.845707,-123.08751
3475000000,53.596134,-123.3027
3476000000,53.602325,-123.82129
3477000000,53.618408,-122.59966
3478000000,53.40461,-123.0056
3479000000,52.948154,-123.43503
3480000000,53.035221,-123.17191
3481000000,52.989075,-122.826
3482000000,52.783592,-122.785
3483000000,52.676952,-124.09818
3484000000,52.567425,-124.79657
3485000000,52.346664,-123.25584
3486000000,52.071751,-123.58891
3487000000,51.955956,-123.57291
3488000000,51.850487,-124.14085
3489000000,51.906136,-122.75489
3490000000,51.654114,-122.39005
3491000000,51.359138,-123.39876
3492000000,51.190948,-123.04185
3493000000,51.221485,-123.35415
3494000000,51.438972,-123.77221
3495000000,50.957756,-124.10158
3496000000,50.921318,-124.02046
3497000000,50.603916,-124.58166
3498000000,50.623249,-125.15282
3499000000,50.236225,-123.96606
3500000000,50.204586,-123.81384
3501000000,50.02005,-124.22225
3502000000,49.688351,-124.39622
3503000000,49.619591,-125.71716
3504000000,49.467361,-123.53705
3505000000,49.51413,-124.96113
3506000000,49.149357,-125.31059
3507000000,48.984413,-125.86654
3508000000,49.003826,-124.3382
3509000000,48.865826,-125.46831
3510000000,48.767426,-125.71957
3511000000,48.609486,-123.32721
3512000000,48.465549,-126.34135
3513000000,48.217014,-125.67666
3514000000,48.026688,-126.07729
3515000000,47.822685,-125.47449
3516000000,47.776104,-127.09212
3517000000,47.543022,-126.32137
3518000000,47.383949,-126.06776
3519000000,47.285969,-126.95174
3520000000,46.989002,-127.36412
3521000000,47.112579,-127.3087
3522000000,46.864834,-127.82337
3523000000,46.759689,-127.54558
3524000000,46.753551,-128.44141
3525000000,46.417278,-128.44206
3526000000,46.285786,-128.34647
3527000000,45.887249,-128.46367
3528000000,45.835461,-129.37436
3529000000,45.623039,-128.48714
3530000000,45.942406,-129.32851
3531000000,45.343025,-129.09314
3532000000,45.460934,-128.62616
3533000000,44.853226,-129.67892
3534000000,44.70232,-129.72882
3535000000,44.995205,-129.38565
3536000000,44.666912,-129.7932
3537000000,44.739586,-128.46408
3538000000,44.454533,-130.15208
3539000000,44.373581,-129.32701
3540000000,43.980564,-129.65199
3541000000,43.927113,-129.72786
3542000000,43.98624,-129.23499
3543000000,43.526848,-129.40517
3544000000,43.292255,-129.86128
3545000000,43.485649,-129.6582
3546000000,43.211201,-130.06329
3547000000,42.869579,-130.42511
3548000000,42.658665,-131.77051
3549000000,42.70813,-131.18454
3550000000,42.700539,-131.03654
3551000000,42.138119,-131.30733
3552000000,42.06403,-131.79642
3553000000,41.989124,-131.59441
3554000000,41.698299,-131.05154
3555000000,41.746536,-131.90155
3556000000,41.688175,-132.30194
3557000000,41.553524,-131.49796
3558000000,41.234459,-132.04434
3559000000,41.028976,-132.20023
3560000000,40.599136,-132.69188
3561000000,40.671268,-132.50719
3562000000,40.526772,-133.00934
3563000000,40.251728,-133.17683
3564000000,40.321152,-132.48369
3565000000,40.059738,-133.10735
3566000000,39.925167,-132.862
3567000000,39.706596,-133.32861
3568000000,39.379025,-133.62021
3569000000,39.175564,-133.39557
3570000000,39.372223,-133.86086
3571000000,39.159016,-134.13213
3572000000,38.974735,-134.21249
3573000000,38.873333,-134.29781
3574000000,38.577652,-134.61342
3575000000,38.09343,-134.99648
3576000000,38.119019,-134.77081
3577000000,37.960972,-135.3443
3578000000,37.836975,-135.22269
3579000000,37.752777,-134.6776
3580000000,37.472267,-135.02742
3581000000,37.207878,-135.25243
3582000000,36.985424,-135.36026
3583000000,36.811035,-135.72827
3584000000,36.448231,-136.21211
3585000000,36.67382,-135.45558
3586000000,36.240887,-135.64316
3587000000,36.537148,-136.28249
3588000000,36.26268,-135.99794
3589000000,35.77301,-136.56989
3590000000,35.699783,-136.85611
3591000000,35.526886,-136.88564
3592000000,35.452557,-137.17603
3593000000,35.119934,-137.44606
3594000000,35.005749,-137.97905
3595000000,34.585217,-138.09691
3596000000,34.565765,-138.50822
3597000000,34.485096,-138.66774
3598000000,34.370495,-139.16757
3599000000,33.997269,-139.13774
3600000000,34.097713,-139.37927
3601000000,33.715889,-140.10948
3602000000,33.614014,-140.39613
3603000000,33.365429,-140.41484
3604000000,33.352329,-140.57916
3605000000,33.113262,-140.69893
3606000000,32.951763,-140.96532
3607000000,32.624104,-141.21602
3608000000,32.495068,-141.54265
3609000000,32.398476,-141.56914
3610000000,31.950136,-141.70735
3611000000,31.993044,-141.5833
3612000000,31.73925,-141.96263
3613000000,31.405993,-142.31174
3614000000,31.499123,-142.40843
3615000000,31.233147,-142.83681
3616000000,30.993914,-143.34215
3617000000,30.823347,-143.06195
3618000000,30.839975,-143.34187
3619000000,30.293505,-144.06392
3620000000,30.258732,-144.10133
3621000000,30.267769,-144.18073
3622000000,29.89529,-144.55101
3623000000,29.618671,-144.92978
3624000000,29.362267,-145.56715
3625000000,29.413574,-145.68475
3626000000,29.138691,-145.85963
3627000000,29.094625,-146.10204
3628000000,28.745272,-146.84189
3629000000,28.439976,-147.11649
3630000000,28.219446,-147.44586
3631000000,28.430845,-147.84926
3632000000,28.00362,-148.03177
3633000000,27.864798,-148.53302
3634000000,27.695662,-148.95546
3635000000,27.232946,-149.33368
3636000000,27.336382,-149.73306
3637000000,27.137264,-150.27113
3638000000,26.666412,-150.40367
3639000000,26.694736,-150.77869
3640000000,26.453508,-151.28018
3641000000,26.406973,-151.68085
3642000000,25.993944,-152.06714
3643000000,25.896782,-152.44658
3644000000,25.846327,-152.7339
3645000000,25.674555,-153.15495
3646000000,25.390757,-153.61932
3647000000,25.263023,-153.89099
3648000000,24.974709,-154.38855
3649000000,24.667187,-154.53001
3650000000,24.640259,-155.13786
3651000000,24.656088,-155.45912
3652000000,24.387993,-155.66109
3653000000,23.850107,-156.17856
3654000000,23.589231,-156.65727
3655000000,23.526371,-157.05275
3656000000,23.234112,-157.6599
3657000000,22.800533,-158.0562
3658000000,23.114922,-158.4789
3659000000,22.782804,-159.15814
3660000000,22.609377,-159.47058
3661000000,22.156879,-159.96718
3662000000,22.329451,-160.21237
3663000000,21.956007,-161.14023
3664000000,21.824842,-161.4977
3665000000,21.511486,-162.47438
3666000000,21.418032,-162.79834
3667000000,21.261656,-163.40755
3668000000,20.835781,-164.2148
3669000000,20.946083,-164.40799
3670000000,20.751442,-165.19109
3671000000,20.546162,-165.79779
3672000000,20.217602,-166.66753
3673000000,19.944012,-167.07376
3674000000,19.901224,-167.56131
3675000000,19.594463,-168.3813
3676000000,19.384422,-168.89966
3677000000,19.334435,-169.40068
3678000000,18.900381,-170.16376
3679000000,19.028908,-170.68677
3680000000,18.656441,-171.26273
3681000000,18.473425,-172.00162
3682000000,18.179731,-172.80226
3683000000,18.021523,-173.31831
3684000000,17.825451,-174.03027
3685000000,17.745743,-174.64345
3686000000,17.615728,-175.06244
3687000000,17.213768,-176.03152
3688000000,17.017164,-176.5591
3689000000,16.742147,-177.37073
3690000000,16.675488,-178.08495
3691000000,16.614599,-178.45297
3692000000,16.573103,-179.22148
3693000000,16.307993,-179.93576
3694000000,15.909269,178.96828
3695000000,15.647629,178.4006
3696000000,15.660857,177.54929
3697000000,15.339379,176.9081
3698000000,15.1329,176.02797
3699000000,15.094493,175.30505
3700000000,14.762749,174.39285
3701000000,14.567244,173.54665
3702000000,14.358185,172.95695
3703000000,14.219943,172.21284
3704000000,13.811804,171.31714
3705000000,13.675773,170.58754
3706000000,13.463967,169.55785
3707000000,13.174103,168.74339
3708000000,13.003003,167.93881
3709000000,12.760077,167.24561
3710000000,12.558421,166.05063
3711000000,12.367362,165.63416
3712000000,12.311731,164.78851
3713000000,12.311653,164.17059
3714000000,12.066399,163.3157
3715000000,11.646829,162.20851
3716000000,11.43608,161.47107
3717000000,11.295489,160.81148
3718000000,11.158545,160.0479
3719000000,10.651726,159.00912
3720000000,10.568044,158.29706
3721000000,10.438125,157.31612
3722000000,10.166626,156.6073
3723000000,10.008299,155.78088
3724000000,9.7086372,154.94489
3725000000,9.6574059,154.04066
3726000000,9.3803015,153.14821
3727000000,9.1443777,152.44267
3728000000,8.7818356,151.53606
3729000000,8.8115206,150.76678
3730000000,8.6211853,150.02809
3731000000,8.5387468,149.24498
3732000000,8.0410547,148.27769
3733000000,7.8082733,147.56021
3734000000,7.6042247,146.74718
3735000000,7.2771306,145.82996
3736000000,7.2564511,145.24071
3737000000,6.8128285,144.32452
3738000000,6.7070117,143.43961
3739000000,6.5055099,142.76967
3740000000,6.2331772,142.07346
3741000000,5.8858089,140.95927
3742000000,5.2823348,140.00816
3743000000,5.2948174,139.32935
3744000000,5.2135348,138.53735
3745000000,4.7603984,137.6073
3746000000,4.4739742,136.71638
3747000000,4.3329654,136.03719
3748000000,4.0475388,135.26445
3749000000,3.7959905,134.49358
3750000000,3.5110474,133.50966
3751000000,3.2227082,132.81183
3752000000,2.8371024,132.04546
3753000000,2.7665811,131.40829
3754000000,2.39659,130.55176
3755000000,1.9842579,129.70804
3756000000,1.6866831,128.96046
3757000000,1.4005178,128.09805
3758000000,1.2350425,127.46813
3759000000,1.0355371,126.77546
3760000000,0.35596314,125.86057
3761000000,0.049494054,124.93877
3762000000,0.059778731,124.50191
3763000000,-0.34432146,123.79155
3764000000,-0.54036927,123.07934
3765000000,-0.83127993,122.34993
3766000000,-1.3222049,121.47612
3767000000,-1.5889037,120.90939
3768000000,-1.8809005,120.29356
3769000000,-2.1154873,119.51494
3770000000,-2.5769157,118.72367
3771000000,-2.5128698,118.21089
3772000000,-3.1417651,117.33923
3773000000,-3.5546458,116.56924
3774000000,-3.3610418,116.19691
3775000000,-4.2460012,115.12549
3776000000,-4.209815,114.64716
3777000000,-4.6695633,113.95481
3778000000,-4.9776974,113.21693
3779000000,-5.282773,112.63782
3780000000,-5.6063757,111.79524
3781000000,-6.204093,110.96738
3782000000,-6.2857294,110.38838
3783000000,-6.7683535,109.77605
3784000000,-6.9906292,108.95555
3785000000,-7.478446,108.3157
3786000000,-8.0518789,107.38982
3787000000,-8.0451889,107.05237
3788000000,-8.2263584,106.56282
3789000000,-8.6886473,105.66238
3790000000,-8.9838495,105.06128
3791000000,-9.4905634,104.26044
3792000000,-9.779973,103.80502
3793000000,-9.9345474,103.17791
3794000000,-10.311401,102.67439
3795000000,-10.711893,101.82967
3796000000,-11.169823,101.21932
3797000000,-11.653175,100.38528
3798000000,-11.788875,99.884621
3799000000,-12.178253,99.15152
3800000000,-12.445725,98.743011
3801000000,-13.077428,97.872459
3802000000,-13.440316,97.160896
3803000000,-13.740339,96.659134
3804000000,-14.203055,96.125725
3805000000,-14.45477,95.522842
3806000000,-14.931425,94.847191
3807000000,-15.161731,94.110596
3808000000,-15.658784,93.35392
3809000000,-15.950804,92.767075
3810000000,-16.333963,92.377312
3811000000,-16.494682,91.814171
3812000000,-16.996096,91.07373
3813000000,-17.425518,90.509453
3814000000,-17.829758,89.721382
3815000000,-18.26993,89.181137
3816000000,-18.632618,88.508179
3817000000,-18.968065,87.890953
3818000000,-19.255777,87.296692
3819000000,-19.698624,86.514771
3820000000,-20.128975,86.115242
3821000000,-20.197693,85.45298
3822000000,-20.749725,84.868744
3823000000,-21.212263,84.226044
3824000000,-21.953505,83.387642
3825000000,-22.117437,82.817024
3826000000,-22.449795,82.314766
3827000000,-22.804708,81.854813
3828000000,-23.070313,81.229088
3829000000,-23.318087,80.547066
3830000000,-23.940586,79.804611
3831000000,-24.123917,79.281319
3832000000,-24.698534,78.534889
3833000000,-24.927599,78.069099
3834000000,-25.120647,77.469849
3835000000,-25.496742,76.584587
3836000000,-25.942032,76.041046
3837000000,-26.259832,75.401588
3838000000,-26.550911,75.025673
3839000000,-26.995394,74.08992
3840000000,-27.220907,73.836006
3841000000,-27.642988,72.94754
3842000000,-28.260023,72.449265
3843000000,-28.422314,71.630791
3844000000,-28.877449,71.172173
3845000000,-29.077232,70.523483
3846000000,-29.355303,70.087486
3847000000,-29.286093,69.670547
3848000000,-30.000397,68.745018
3849000000,-30.475235,67.951424
3850000000,-30.640703,67.650078
3851000000,-30.700983,66.948868
3852000000,-31.049934,66.426193
3853000000,-31.457085,65.708549
3854000000,-31.855856,65.232666
3855000000,-32.145851,64.49646
3856000000,-32.386612,63.907463
3857000000,-33.094028,63.183617
3858000000,-32.919468,62.653484
3859000000,-33.187592,62.200882
3860000000,-33.698528,61.311787
3861000000,-34.053837,60.619576
3862000000,-33.925678,60.168995
3863000000,-34.095795,59.735443
3864000000,-34.082546,59.018265
3865000000,-34.470455,58.0896
3866000000,-34.145195,57.616005
3867000000,-34.155552,57.209782
3868000000,-34.85173,56.305637
3869000000,-34.98241,55.518764
3870000000,-34.887577,55.196487
3871000000,-34.999123,54.536133
3872000000,-35.017757,54.020317
3873000000,-34.655769,53.526833
3874000000,-34.818394,52.812004
3875000000,-34.45533,52.205303
3876000000,-34.67561,51.609989
3877000000,-34.346703,50.925507
3878000000,-34.535446,50.300564
3879000000,-34.040699,49.775375
3880000000,-33.373096,49.23465
3881000000,-33.156788,48.487526
3882000000,-32.755798,47.767586
3883000000,-32.439075,47.476116
3884000000,-32.018288,46.57761
3885000000,-31.313765,46.007084
3886000000,-30.755379,45.346397
3887000000,-30.263828,44.820778
3888000000,-28.555374,44.173092
3889000000,-27.810751,43.377869
3890000000,-26.710476,43.057911
3891000000,-25.18288,42.374386
3892000000,-23.880518,41.852646
3893000000,-22.732288,41.175667
3894000000,-20.627449,40.374531
3895000000,-18.809475,39.703526
3896000000,-16.564842,39.380344
3897000000,-14.302307,38.562912
3898000000,-11.378702,37.923698
3899000000,-8.688118,37.481117
3900000000,-5.8806882,36.557327
3901000000,-1.8783019,36.30872
3902000000,0.81887174,35.702076
3903000000,4.5537872,35.017044
3904000000,8.9179125,34.46529
3905000000,12.594425,33.873318
3906000000,15.804976,33.155437
3907000000,19.356358,32.578823
3908000000,22.707329,32.021484
3909000000,26.846466,31.383018
3910000000,30.146898,30.798597
3911000000,32.878838,30.220985
3912000000,36.763569,29.544092
3913000000,39.49984,28.937149
3914000000,41.48447,28.247742
3915000000,43.895023,27.749178
3916000000,45.557953,27.269014
3917000000,47.575459,26.648237
3918000000,50.240158,26.071033
3919000000,51.133286,25.380407
3920000000,52.337624,24.730803
3921000000,53.691334,24.040209
3922000000,54.555664,23.632528
3923000000,56.069065,23.199038
3924000000,56.518299,22.334202
3925000000,57.753845,21.91511
3926000000,58.943829,21.491779
3927000000,58.518002,20.484684
3928000000,59.476086,20.397425
3929000000,60.003841,19.55529
3930000000,60.578655,19.097591
3931000000,60.827766,18.515121
3932000000,61.130371,17.845036
3933000000,61.532463,17.259314
3934000000,61.570084,16.694422
3935000000,61.563377,16.120884
3936000000,62.310005,15.797644
3937000000,62.146664,15.207992
3938000000,62.134171,14.554778
3939000000,61.736217,13.93426
3940000000,62.319069,13.488202
3941000000,62.433147,12.929405
3942000000,61.968491,12.30849
3943000000,62.167152,11.946111
3944000000,62.159229,11.303008
3945000000,62.088264,10.877116
3946000000,61.759628,10.223554
3947000000,61.892647,9.7764311
3948000000,61.551575,9.1638346
3949000000,61.119831,8.5002451
3950000000,60.777489,7.8482475
3951000000,60.824284,7.3463655
3952000000,60.879498,6.950079
3953000000,60.347454,6.2590046
3954000000,60.163284,5.9200225
3955000000,59.787201,5.2198229
3956000000,59.725292,4.74192
3957000000,59.493256,4.3210611
3958000000,59.243252,3.8141117
3959000000,59.112938,3.5051322
3960000000,58.230431,2.6129272
3961000000,58.061432,2.3494115
3962000000,57.951015,1.6299626
3963000000,57.480694,1.0854862
3964000000,57.30246,0.70899928
3965000000,56.660961,0.20384052
3966000000,56.595802,-0.33397666
3967000000,56.31078,-0.8762418
3968000000,55.906261,-1.2484628
3969000000,55.553551,-1.8700533
3970000000,55.372154,-2.3814878
3971000000,55.036789,-2.8199761
3972000000,54.421089,-3.2740524
3973000000,54.319656,-3.7856474
3974000000,53.733456,-4.3017135
3975000000,53.380928,-4.7076426
3976000000,53.064693,-5.1470551
3977000000,52.707199,-5.7630358
3978000000,52.208652,-6.0618081
3979000000,51.899979,-6.5260177
3980000000,51.385448,-7.2073164
3981000000,50.981022,-7.5881381
3982000000,50.381767,-8.1404428
3983000000,50.478367,-8.7063255
3984000000,49.694614,-9.1249084
3985000000,49.317471,-9.5379524
3986000000,49.170094,-10.171696
3987000000,48.632195,-10.475395
3988000000,48.377811,-10.89061
3989000000,47.989662,-11.387469
3990000000,47.564449,-11.964722
3991000000,47.193691,-12.316518
3992000000,47.01049,-12.567137
3993000000,46.281593,-13.32332
3994000000,46.044559,-13.733893
3995000000,45.655415,-14.124335
3996000000,45.239555,-14.756843
3997000000,44.64624,-15.047942
3998000000,44.515144,-15.535029
3999000000,43.809093,-16.24468
4000000000,43.737793,-16.296852
4001000000,42.951084,-17.057888
4002000000,42.769958,-17.217545
4003000000,42.544029,-17.679377
4004000000,41.824059,-18.336023
4005000000,41.747231,-18.523222
4006000000,41.135468,-19.065731
4007000000,40.771477,-19.358856
4008000000,40.525562,-19.809837
4009000000,40.117371,-20.170805
4010000000,39.622654,-20.486326
4011000000,39.202427,-21.023199
4012000000,38.815319,-21.662033
4013000000,38.338985,-22.090034
4014000000,38.097824,-22.298656
4015000000,37.519405,-22.714993
4016000000,37.184494,-23.185747
4017000000,36.806808,-23.629251
4018000000,36.591,-23.785269
4019000000,35.943314,-24.446468
4020000000,35.910564,-24.667967
4021000000,35.305668,-25.257591
4022000000,34.915653,-25.75519
4023000000,34.274143,-26.070442
4024000000,33.946522,-26.499817
4025000000,33.652287,-26.829142
4026000000,33.104221,-27.293592
4027000000,33.023113,-27.578659
4028000000,32.403515,-28.244707
4029000000,31.802263,-28.596874
4030000000,31.813717,-28.754879
4031000000,31.480459,-29.308205
4032000000,30.483654,-29.818773
4033000000,30.490139,-29.95299
4034000000,30.26825,-30.391365
4035000000,29.562777,-30.819456
4036000000,29.270647,-31.230259
4037000000,28.968994,-31.569689
4038000000,28.239708,-32.240093
4039000000,27.963207,-32.474693
4040000000,27.889013,-32.617451
4041000000,27.08363,-33.302391
4042000000,26.967606,-33.461937
4043000000,26.576338,-33.89513
4044000000,26.011932,-34.349758
4045000000,25.885471,-34.61076
4046000000,25.411098,-35.042011
4047000000,25.014648,-35.324821
4048000000,24.709131,-35.797787
4049000000,24.401819,-35.953331
4050000000,23.819502,-36.677704
4051000000,23.6,-36.888618
4052000000,23.048624,-37.339661
4053000000,22.548769,-37.693203
4054000000,22.423729,-37.995762
4055000000,21.861845,-38.441765
4056000000,21.560843,-38.889069
4057000000,21.37652,-38.966324
4058000000,20.7976,-39.458645
4059000000,20.366459,-39.802872
4060000000,20.043388,-39.999134
4061000000,19.382504,-40.764023
4062000000,19.529772,-40.702961
4063000000,18.842773,-41.203308
4064000000,18.380838,-41.64502
4065000000,18.117754,-41.905563
4066000000,17.764074,-42.199085
4067000000,17.476942,-42.627342
4068000000,16.996586,-42.931934
4069000000,16.300404,-43.457657
4070000000,16.335997,-43.650497
4071000000,15.907256,-43.873886
4072000000,15.653783,-44.463203
4073000000,15.077331,-44.757122
4074000000,14.641243,-44.990463
4075000000,14.123755,-45.574188
4076000000,13.795223,-45.95924
4077000000,13.630999,-46.128906
4078000000,13.251522,-46.45549
4079000000,12.823144,-46.980431
4080000000,12.415575,-47.153439
4081000000,12.235539,-47.54895
4082000000,11.881412,-47.712715
4083000000,11.100814,-48.300186
4084000000,11.041716,-48.556709
4085000000,10.566004,-48.844849
4086000000,10.38494,-49.276058
4087000000,9.9570494,-49.582561
4088000000,9.1862469,-50.12611
4089000000,9.1030159,-50.382763
4090000000,8.4955597,-50.703365
4091000000,8.3584003,-51.105625
4092000000,7.9835343,-51.273987
4093000000,7.6287923,-51.595486
4094000000,7.4294887,-51.898357
4095000000,6.6734624,-52.376396
4096000000,6.4861302,-52.418545
4097000000,5.9493737,-53.021622
4098000000,5.7811189,-53.317791
4099000000,5.124959,-53.58416
4100000000,4.8560581,-54.038589
4101000000,4.414,-54.388058
4102000000,4.4519906,-54.444122
4103000000,3.9733832,-54.827404
4104000000,3.4792831,-55.133999
4105000000,2.9091594,-55.650074
4106000000,2.5998893,-55.997051
4107000000,2.2345631,-56.273048
4108000000,1.8033131,-56.724857
4109000000,1.7054378,-56.83926
4110000000,0.68518806,-57.577026
4111000000,0.89484519,-57.631626
4112000000,0.23377897,-58.033024
4113000000,0.3670674,-57.984051
4114000000,-0.19231126,-58.576603
4115000000,-0.90958911,-58.994217
4116000000,-1.0521026,-59.265694
4117000000,-1.3575711,-59.464958
4118000000,-1.5557573,-59.900276
4119000000,-2.2123761,-60.054035
4120000000,-2.6282868,-60.686035
4121000000,-2.9007707,-60.86319
4122000000,-3.3288846,-61.069523
4123000000,-3.6460404,-61.388565
4124000000,-4.1339035,-61.840473
4125000000,-4.2345886,-62.01469
4126000000,-4.7255044,-62.516735
4127000000,-5.2872715,-62.78754
4128000000,-5.6086187,-63.166958
4129000000,-5.8070774,-63.331596
4130000000,-6.3744555,-63.833557
4131000000,-6.6489468,-63.986942
4132000000,-7.1842089,-64.423401
4133000000,-7.3914027,-64.880836
4134000000,-7.8798246,-65.1577
4135000000,-8.1490622,-65.302246
4136000000,-8.7977543,-65.692284
4137000000,-8.9136219,-65.906738
4138000000,-9.3200712,-66.233192
4139000000,-9.7557859,-66.611702
4140000000,-10.262702,-66.964867
4141000000,-10.586152,-67.197227
4142000000,-10.98432,-67.687698
4143000000,-11.249292,-67.928345
4144000000,-11.625783,-68.12159
4145000000,-12.071939,-68.529762
4146000000,-12.443339,-68.827759
4147000000,-12.739244,-69.129112
4148000000,-13.11251,-69.485489
4149000000,-13.537659,-69.705101
4150000000,-14.029355,-70.094482
4151000000,-14.583967,-70.537392
4152000000,-14.852261,-70.806374
4153000000,-15.151025,-71.161263
4154000000,-15.317619,-71.362785
4155000000,-15.884773,-71.672234
4156000000,-16.520632,-72.078537
4157000000,-16.648182,-72.276405
4158000000,-16.868279,-72.466049
4159000000,-17.366518,-73.108345
4160000000,-17.794817,-73.240112
4161000000,-18.304756,-73.631973
4162000000,-18.664721,-73.722809
4163000000,-18.84059,-74.044807
4164000000,-19.122389,-74.476357
4165000000,-19.538954,-74.598015
4166000000,-20.364727,-75.085205
4167000000,-20.446621,-75.292854
4168000000,-20.856373,-75.655647
4169000000,-21.314442,-76.170853
4170000000,-21.756361,-76.32077
4171000000,-22.176069,-76.735207
4172000000,-22.682568,-77.123306
4173000000,-22.971252,-77.35994
4174000000,-23.219101,-77.418091
4175000000,-23.709753,-77.696884
4176000000,-24.25848,-78.248642
4177000000,-24.449526,-78.58358
4178000000,-25.238375,-79.055977
4179000000,-25.298813,-79.19548
4180000000,-25.815884,-79.569489
4181000000,-26.166618,-79.834915
4182000000,-26.322746,-80.047752
4183000000,-27.049458,-80.624428
4184000000,-27.390236,-80.78167
4185000000,-27.748703,-80.894508
4186000000,-28.224745,-81.380463
4187000000,-28.72769,-81.78656
4188000000,-28.925032,-81.91375
4189000000,-29.271559,-82.380585
4190000000,-29.693281,-82.683632
4191000000,-30.159716,-82.961418
4192000000,-30.511599,-83.086967
4193000000,-30.873039,-83.532906
4194000000,-31.313721,-83.74649
4195000000,-31.616499,-84.076767
4196000000,-32.388641,-84.671989
4197000000,-32.477692,-84.852722
4198000000,-32.804283,-84.89711
4199000000,-33.520668,-85.397797
4200000000,-33.688583,-85.753372
4201000000,-34.294598,-85.972511
4202000000,-34.458302,-86.282356
4203000000,-35.038372,-86.84082
4204000000,-35.496513,-86.903656
4205000000,-35.859222,-87.236122
4206000000,-36.479771,-87.660934
4207000000,-36.856464,-88.085281
4208000000,-37.079044,-88.154381
4209000000,-37.540218,-88.528931
4210000000,-38.122955,-88.878716
4211000000,-38.545864,-89.297363
4212000000,-38.811234,-89.566872
4213000000,-39.231949,-89.748978
4214000000,-39.70475,-90.13549
4215000000,-39.999447,-90.511581
4216000000,-40.397034,-90.664703
4217000000,-40.935215,-91.081314
4218000000,-41.558334,-91.59993
4219000000,-41.645195,-91.609505
4220000000,-42.335682,-91.949791
4221000000,-42.558922,-92.035675
4222000000,-43.24918,-92.658592
4223000000,-43.567272,-92.860954
4224000000,-43.989506,-93.276886
4225000000,-44.467346,-93.662735
4226000000,-44.876888,-94.000099
4227000000,-45.226402,-94.216499
4228000000,-45.991413,-94.622383
4229000000,-45.98922,-95.006599
4230000000,-46.567535,-95.093208
4231000000,-47.175694,-95.483894
4232000000,-47.532848,-95.717087
4233000000,-48.044037,-96.259674
4234000000,-48.292854,-96.417328
4235000000,-48.836937,-96.821815
4236000000,-49.551144,-97.26207
4237000000,-49.657822,-97.537895
4238000000,-50.044353,-97.731865
4239000000,-50.592438,-98.032043
4240000000,-50.883724,-98.307915
4241000000,-51.819012,-98.780792
4242000000,-51.984894,-99.016319
4243000000,-52.249294,-99.320175
4244000000,-52.79969,-99.547523
4245000000,-53.26313,-99.979431
4246000000,-53.860909,-100.35094
4247000000,-54.304455,-100.58833
4248000000,-54.70118,-100.85803
4249000000,-54.967068,-101.07335
4250000000,-55.650963,-101.33824
4251000000,-56.091194,-101.83504
4252000000,-56.741219,-102.40241
4253000000,-57.00629,-102.47334
4254000000,-57.712223,-102.79257
4255000000,-58.326324,-103.25352
4256000000,-58.647339,-103.38438
4257000000,-58.908619,-103.74948
4258000000,-59.75975,-104.25435
4259000000,-60.051346,-104.40279
4260000000,-60.609097,-104.74326
4261000000,-61.090279,-105.15561
4262000000,-61.228325,-105.14553
4263000000,-62.23473,-105.75107
4264000000,-62.566288,-105.9902
4265000000,-62.702072,-106.34167
4266000000,-63.37999,-106.56406
4267000000,-63.875439,-106.89313
4268000000,-64.27475,-107.40105
4269000000,-65.142906,-107.63695
4270000000,-65.443336,-108.03085
4271000000,-65.876602,-108.28353
4272000000,-66.425446,-108.69913
4273000000,-67.184784,-108.96851
4274000000,-67.334854,-109.25172
4275000000,-68.095268,-109.6685
4276000000,-68.727127,-110.03941
4277000000,-68.97274,-110.41629
4278000000,-69.613754,-110.53185
4279000000,-70.159286,-111.01583
4280000000,-70.564857,-111.20827
4281000000,-70.910286,-111.68829
4282000000,-71.470116,-111.79974
4283000000,-71.945786,-112.11658
4284000000,-72.794182,-112.53806
4285000000,-73.151375,-112.83524
4286000000,-73.844521,-113.08312
4287000000,-74.625648,-113.4549
4288000000,-74.843269,-113.86694
4289000000,-75.373116,-114.11029
4290000000,-75.747574,-114.48447
4291000000,-76.329491,-114.85835
4292000000,-76.919548,-114.98312
4293000000,-77.507431,-115.47264
4294000000,-77.911797,-115.79693
4295000000,-78.531914,-115.94081
4296000000,-79.265968,-116.45882
4297000000,-79.774544,-116.64129
4298000000,-80.304062,-116.93265
4299000000,-80.940239,-117.35428
4300000000,-81.603668,-117.65782
4301000000,-82.019653,-117.84224
4302000000,-83.080223,-118.30286
4303000000,-83.122139,-118.49347
4304000000,-83.957947,-118.87465
4305000000,-84.453552,-119.32224
4306000000,-85.194557,-119.6658
4307000000,-85.976715,-119.94724
4308000000,-86.459015,-120.27552
4309000000,-86.94973,-120.69316
4310000000,-87.724327,-120.88477
4311000000,-88.601845,-121.33549
4312000000,-88.889565,-121.66177
4313000000,-89.584183,-121.95609
4314000000,-90.347664,-122.36899
4315000000,-90.995293,-122.42191
4316000000,-91.387497,-122.85546
4317000000,-92.366417,-123.26581
4318000000,-93.048599,-123.3992
4319000000,-93.628807,-123.99752
4320000000,-94.321259,-124.0729
4321000000,-95.084633,-124.52875
4322000000,-95.698769,-124.85928
4323000000,-96.426689,-125.2533
4324000000,-96.99382,-125.31799
4325000000,-97.640274,-126.04253
4326000000,-98.370079,-126.15171
4327000000,-99.165176,-126.74419
4328000000,-99.657036,-126.7982
4329000000,-100.53209,-127.22568
4330000000,-101.20481,-127.68562
4331000000,-102.13039,-128.03941
4332000000,-102.88502,-127.97676
4333000000,-103.44414,-128.4832
4334000000,-104.19523,-128.72189
4335000000,-104.91058,-128.93658
4336000000,-105.91,-129.38762
4337000000,-106.69367,-129.60805
4338000000,-107.53569,-130.18942
4339000000,-108.45168,-130.50357
4340000000,-109.40277,-130.80923
4341000000,-110.19205,-131.05818
4342000000,-111.24067,-131.44171
4343000000,-111.96854,-131.72206
4344000000,-112.88688,-131.89189
4345000000,-114.11236,-132.35645
4346000000,-114.69402,-132.627
4347000000,-115.75465,-132.97906
4348000000,-116.70459,-133.41884
4349000000,-117.72543,-133.49142
4350000000,-118.46314,-133.95724
4351000000,-119.88078,-134.39214
4352000000,-120.54414,-134.61401
4353000000,-122.12534,-134.81596
4354000000,-123.23077,-135.3576
4355000000,-124.28284,-135.54115
4356000000,-125.23215,-135.9518
4357000000,-126.45516,-136.19843
4358000000,-127.6059,-136.50955
4359000000,-128.57204,-136.95949
4360000000,-129.82039,-137.12816
4361000000,-131.08516,-137.51546
4362000000,-132.73073,-137.72372
4363000000,-133.65179,-138.03526
4364000000,-134.62723,-138.57402
4365000000,-136.14911,-138.76363
4366000000,-137.77557,-139.3248
4367000000,-139.31525,-139.44383
4368000000,-140.13515,-139.58371
4369000000,-141.57462,-139.95665
4370000000,-142.86845,-140.39116
4371000000,-144.46301,-140.69768
4372000000,-145.92542,-141.26723
4373000000,-147.40463,-141.37898
4374000000,-149.12141,-141.71895
4375000000,-150.71393,-141.78545
4376000000,-152.2937,-142.47324
4377000000,-154.28204,-142.72812
4378000000,-155.21246,-143.06
4379000000,-157.61913,-143.28027
4380000000,-159.78905,-143.67946
4381000000,-161.15161,-143.90427
4382000000,-162.79726,-144.20015
4383000000,-164.78415,-144.46031
4384000000,-166.68481,-144.77866
4385000000,-168.46785,-145.21696
4386000000,-170.46243,-145.53369
4387000000,-171.99905,-145.78235
4388000000,-173.93414,-146.35597
4389000000,-176.20309,-146.58385
4390000000,-178.12018,-146.71246
4391000000,-179.7197,-147.16692
4392000000,178.06636,-147.32062
4393000000,175.59886,-147.80324
4394000000,174.12408,-148.05763
4395000000,172.15288,-148.30312
4396000000,169.19199,-148.87309
4397000000,167.2419,-149.17395
4398000000,165.22081,-149.40266
4399000000,163.69025,-149.66006
4400000000,161.31976,-149.98711
4401000000,159.21738,-150.33116
4402000000,157.01749,-150.88348
4403000000,155.67313,-150.86952
4404000000,153.38008,-151.13597
4405000000,151.85022,-151.55371
4406000000,149.49458,-151.86774
4407000000,148.0528,-152.15883
4408000000,145.666,-152.65848
4409000000,144.04596,-152.89035
4410000000,142.36562,-152.90128
4411000000,141.04987,-153.48528
4412000000,139.20174,-153.83757
4413000000,137.10506,-154.21109
4414000000,135.11171,-154.44649
4415000000,134.15248,-154.81371
4416000000,132.18504,-155.01694
4417000000,131.11284,-155.39445
4418000000,129.73015,-155.68925
4419000000,128.10457,-155.94209
4420000000,126.34251,-156.25763
4421000000,124.72274,-156.58241
4422000000,123.43273,-157.02078
4423000000,121.95031,-157.25381
4424000000,120.31612,-157.52182
4425000000,119.3018,-157.84302
4426000000,118.05267,-157.98384
4427000000,116.8531,-158.38036
4428000000,115.80094,-158.83003
4429000000,114.56783,-159.10472
4430000000,112.75837,-159.36754
4431000000,111.98711,-159.71855
4432000000,110.52088,-160.08348
4433000000,108.97779,-160.39307
4434000000,108.33995,-160.65991
4435000000,106.86783,-161.07619
4436000000,105.96062,-161.33366
4437000000,104.95284,-161.49028
4438000000,103.7148,-162.01381
4439000000,102.67963,-162.09285
4440000000,102.20409,-162.48415
4441000000,100.68763,-162.91888
4442000000,99.769691,-163.10994
4443000000,98.662743,-163.59854
4444000000,97.892082,-163.65523
4445000000,97.285927,-164.01401
4446000000,96.122299,-164.32152
4447000000,95.30899,-164.61192
4448000000,94.07531,-165.05788
4449000000,93.352203,-165.31316
4450000000,92.189354,-165.51784
4451000000,91.203407,-166.14075
4452000000,90.771912,-166.2688
4453000000,89.940399,-166.44867
4454000000,89.20536,-166.88077
4455000000,88.205948,-167.04878
4456000000,87.685471,-167.35847
4457000000,87.07164,-167.52243
4458000000,86.353439,-167.9304
4459000000,85.332344,-168.24419
4460000000,85.066856,-168.54784
4461000000,83.760086,-168.96327
4462000000,83.578026,-169.07787
4463000000,82.661522,-169.27155
4464000000,81.377945,-169.82866
4465000000,81.415161,-170.01895
4466000000,80.461586,-170.30469
4467000000,79.569077,-170.7027
4468000000,78.682854,-171.05399
4469000000,78.36676,-171.29083
4470000000,77.565025,-171.49625
4471000000,76.8843,-171.83833
4472000000,75.92543,-172.1508
4473000000,75.92466,-172.3454
4474000000,75.257675,-172.71147
4475000000,74.576057,-173.02324
4476000000,73.821175,-173.37076
4477000000,73.605179,-173.3954
4478000000,72.762848,-173.82033
4479000000,72.022079,-174.22453
4480000000,71.276833,-174.40263
4481000000,70.719589,-174.7493
4482000000,70.51886,-174.96356
4483000000,69.409004,-175.28677
4484000000,69.116714,-175.65445
4485000000,68.358673,-175.89708
4486000000,68.024559,-176.15619
4487000000,66.954704,-176.60684
4488000000,66.827187,-176.71657
4489000000,65.900024,-177.1046
4490000000,65.579308,-177.26445
4491000000,64.916306,-177.7393
4492000000,64.484741,-177.89102
4493000000,63.826813,-178.30467
4494000000,63.311729,-178.60593
4495000000,62.678463,-178.83376
4496000000,61.897457,-179.15492
4497000000,61.662197,-179.46733
4498000000,61.213638,-179.57719
4499000000,60.243629,179.90839
4500000000,59.948009,179.90689
4501000000,59.438274,179.4558
4502000000,59.296703,179.42212
4503000000,58.805614,179.13007
4504000000,57.775463,178.76965
4505000000,57.49197,178.39354
4506000000,56.961624,178.15242
4507000000,56.036228,177.73099
4508000000,56.143353,177.72668
4509000000,55.230217,177.28159
4510000000,54.901947,177.0704
4511000000,54.365967,176.74188
4512000000,54.054981,176.56174
4513000000,53.226902,176.18152
4514000000,52.765053,175.75397
4515000000,52.23859,175.56892
4516000000,52.238869,175.52359
4517000000,51.497887,175.04288
4518000000,50.901062,174.67245
4519000000,50.544216,174.54878
4520000000,49.966148,174.13234
4521000000,49.670403,174.0058
4522000000,48.908955,173.56573
4523000000,48.605412,173.38495
4524000000,48.183784,173.0657
4525000000,47.678093,172.82909
4526000000,47.214481,172.53003
4527000000,46.817589,172.3824
4528000000,46.200962,171.98813
4529000000,45.88739,171.80688
4530000000,45.611958,171.54269
4531000000,44.854618,171.16402
4532000000,44.348392,170.90529
4533000000,44.133522,170.76006
4534000000,43.659275,170.32317
4535000000,43.26162,170.14194
4536000000,42.952888,170.02362
4537000000,42.386929,169.67143
4538000000,41.850395,169.20671
4539000000,41.207371,168.97754
4540000000,41.017136,168.66638
4541000000,40.434063,168.56425
4542000000,40.041584,168.25113
4543000000,39.633366,167.86557
4544000000,39.320431,167.7724
4545000000,38.571301,167.4117
4546000000,38.391323,167.19255
4547000000,37.688797,166.74745
4548000000,37.287964,166.57434
4549000000,36.829472,166.36476
4550000000,36.42849,166.12332
4551000000,36.003567,165.80023
4552000000,35.86763,165.649
4553000000,35.319946,165.2984
4554000000,34.594997,164.90575
4555000000,34.400665,164.76767
4556000000,33.837997,164.44958
4557000000,33.627766,164.29254
4558000000,33.576,164.0605
4559000000,32.619736,163.65451
4560000000,32.589737,163.51901
4561000000,31.908499,163.09035
4562000000,31.446585,162.89302
4563000000,30.87151,162.76048
4564000000,30.705645,162.48976
4565000000,30.502975,162.29027
4566000000,29.935425,161.9166
4567000000,29.74143,161.76016
4568000000,29.124426,161.37717
4569000000,28.88398,161.18369
4570000000,28.243111,160.94327
4571000000,27.98568,160.7262
4572000000,27.537607,160.29895
4573000000,27.112867,160.16443
4574000000,26.563066,159.68958
4575000000,26.238848,159.68358
4576000000,26.285936,159.40233
4577000000,25.585873,159.00101
4578000000,24.970858,158.9281
4579000000,24.785816,158.71367
4580000000,24.320898,158.41602
4581000000,24.010075,158.14124
4582000000,23.395182,157.858
4583000000,23.254646,157.67932
4584000000,22.77437,157.37244
4585000000,22.535666,157.30457
4586000000,22.052629,157.03906
4587000000,21.448093,156.655
4588000000,21.061075,156.30345
4589000000,20.726839,156.09663
4590000000,20.367567,155.93375
4591000000,20.129917,155.64856
4592000000,19.751379,155.35304
4593000000,19.193928,155.22267
4594000000,18.991142,154.94333
4595000000,18.429501,154.763
4596000000,18.075508,154.2361
4597000000,17.501411,154.11128
4598000000,17.239216,153.79846
4599000000,17.2117,153.72801
4600000000,16.738705,153.39568
4601000000,16.241991,153.26506
4602000000,15.588457,152.83583
4603000000,15.424332,152.58723
4604000000,14.929952,152.47186
4605000000,14.585769,152.16292
4606000000,14.133362,151.98218
4607000000,13.834299,151.67906
4608000000,13.355994,151.44293
4609000000,13.071664,151.08394
4610000000,12.4528,150.84467
4611000000,12.556358,150.81256
4612000000,12.041553,150.38046
4613000000,11.657384,150.18454
4614000000,11.432076,150.05003
4615000000,10.833993,149.62903
4616000000,10.161154,149.19507
4617000000,9.9505901,149.16763
4618000000,9.7915821,148.93521
4619000000,9.4432211,148.71696
4620000000,9.0025415,148.52924
4621000000,8.6542759,148.28693
4622000000,8.4113379,148.09119
4623000000,7.8526959,147.78825
4624000000,7.6726332,147.50113
4625000000,7.308907,147.31737
4626000000,6.736536,147.14536
4627000000,6.4895077,147.00589
4628000000,6.3170285,146.60168
4629000000,5.8513131,146.47745
4630000000,5.483902,146.28365
4631000000,5.1065297,146.00581
4632000000,4.670146,145.8069
4633000000,4.4466977,145.42218
4634000000,4.109005,145.34077
4635000000,3.678684,145.02991
4636000000,3.2866392,144.79074
4637000000,2.8985267,144.52914
4638000000,2.3151045,144.34448
4639000000,2.1683254,144.03413
4640000000,1.582715,143.81673
4641000000,1.6244289,143.72421
4642000000,1.1526986,143.37619
4643000000,0.55246085,143.12872
4644000000,0.35846663,142.89166
4645000000,0.080634601,142.74751
4646000000,-0.30119058,142.45293
4647000000,-0.73659337,142.35139
4648000000,-1.1382338,141.94481
4649000000,-1.663754,141.56805
4650000000,-1.5808051,141.47519
4651000000,-2.1448405,141.31169
4652000000,-2.449471,141.09251
4653000000,-2.8788409,140.97874
4654000000,-3.1157577,140.5985
4655000000,-3.7507472,140.25768
4656000000,-3.6436396,139.9948
4657000000,-4.1680293,139.90906
4658000000,-4.4373679,139.79675
4659000000,-5.1367998,139.39668
4660000000,-5.4626412,139.16591
4661000000,-5.6672359,139.11179
4662000000,-6.0871253,138.62387
4663000000,-6.3722701,138.41823
4664000000,-6.6497469,138.35136
4665000000,-6.8089299,138.13037
4666000000,-7.449245,137.90453
4667000000,-7.7592058,137.63776
4668000000,-8.157382,137.39445
4669000000,-8.3757935,137.19057
4670000000,-8.5906639,137.04283
4671000000,-9.1598444,136.71185
4672000000,-9.4904356,136.3698
4673000000,-9.914463,136.25732
4674000000,-10.243554,136.00681
4675000000,-10.576198,135.8119
4676000000,-10.727305,135.55463
4677000000,-11.334361,135.3139
4678000000,-11.512744,135.10632
4679000000,-12.025981,134.79773
4680000000,-12.195185,134.67609
4681000000,-12.504045,134.41945
4682000000,-12.82842,134.24944
4683000000,-13.348614,133.94218
4684000000,-13.622728,133.86469
4685000000,-13.822782,133.61719
4686000000,-14.221822,133.30067
4687000000,-14.788239,133.05092
4688000000,-15.032992,132.76146
4689000000,-15.429007,132.68114
4690000000,-15.617072,132.47694
4691000000,-16.010534,132.13052
4692000000,-16.394808,132.14124
4693000000,-16.752365,131.7072
4694000000,-17.175327,131.34258
4695000000,-17.375692,131.45747
4696000000,-17.58251,131.13187
4697000000,-18.174349,130.9153
4698000000,-18.361246,130.64189
4699000000,-18.488136,130.51852
4700000000,-19.216509,130.24733
4701000000,-19.27541,130.08891
4702000000,-19.700603,129.77356
4703000000,-19.867689,129.57784
4704000000,-20.098938,129.43463
4705000000,-20.573345,129.20743
4706000000,-20.797075,128.96762
4707000000,-21.414984,128.96976
4708000000,-21.775442,128.57115
4709000000,-21.948219,128.34636
4710000000,-22.301268,128.09045
4711000000,-22.581842,127.81728
4712000000,-22.963074,127.57864
4713000000,-23.243734,127.3619
4714000000,-23.603327,127.29874
4715000000,-24.023432,126.82568
4716000000,-24.391647,126.71747
4717000000,-24.706617,126.43634
4718000000,-24.989632,126.28468
4719000000,-25.206615,125.95409
4720000000,-25.542973,126.10303
4721000000,-25.794676,125.6058
4722000000,-26.076422,125.45379
4723000000,-26.458046,125.28188
4724000000,-26.823515,125.11833
4725000000,-27.268698,124.86695
4726000000,-27.637642,124.45641
4727000000,-27.63171,124.42866
4728000000,-28.240015,124.22227
4729000000,-28.504374,123.96246
4730000000,-28.701021,123.63524
4731000000,-29.111677,123.61464
4732000000,-29.408493,123.40919
4733000000,-29.775677,123.00783
4734000000,-30.043097,122.85101
4735000000,-30.646189,122.53744
4736000000,-30.722105,122.4279
4737000000,-30.966866,122.28034
4738000000,-31.233961,121.87609
4739000000,-31.735092,121.68161
4740000000,-32.048527,121.5284
4741000000,-32.329498,121.34868
4742000000,-32.552273,121.19462
4743000000,-32.804741,120.99406
4744000000,-33.434708,120.62224
4745000000,-33.572952,120.44254
4746000000,-34.109997,120.409
4747000000,-34.24102,120.12587
4748000000,-34.782314,119.91304
4749000000,-34.771095,119.63096
4750000000,-35.283714,119.33745
4751000000,-35.6423,119.17713
4752000000,-35.955765,118.98023
4753000000,-36.09697,118.90791
4754000000,-36.504967,118.52557
4755000000,-36.913719,118.3131
4756000000,-37.214325,118.12281
4757000000,-37.530972,118.05177
4758000000,-37.823303,117.62687
4759000000,-38.117805,117.49866
4760000000,-38.489555,117.32395
4761000000,-38.779114,117.03421
4762000000,-39.289242,117.01386
4763000000,-39.293842,116.48824
4764000000,-39.680321,116.46981
4765000000,-40.24052,116.09691
4766000000,-40.280785,115.97503
4767000000,-40.554817,115.71808
4768000000,-41.071609,115.57828
4769000000,-41.362179,115.40618
4770000000,-41.477928,115.20681
4771000000,-41.818047,115.02962
4772000000,-42.347973,114.87672
4773000000,-42.645374,114.46726
4774000000,-42.915321,114.38751
4775000000,-43.299076,114.14285
4776000000,-43.681522,113.87193
4777000000,-43.720047,113.62526
4778000000,-44.210358,113.37035
4779000000,-44.56575,113.18044
4780000000,-44.900574,112.86242
4781000000,-45.276371,112.8764
4782000000,-45.412971,112.55687
4783000000,-45.626629,112.28401
4784000000,-45.955105,112.08066
4785000000,-46.16497,112.02666
4786000000,-46.491791,111.67503
4787000000,-46.787155,111.76515
4788000000,-47.541973,111.41391
4789000000,-47.717964,111.13729
4790000000,-47.847244,110.80926
4791000000,-48.342003,110.79246
4792000000,-48.673668,110.59295
4793000000,-48.811687,110.25416
4794000000,-49.231285,110.07961
4795000000,-49.300079,109.76781
4796000000,-49.716106,109.59271
4797000000,-50.045345,109.49627
4798000000,-50.466778,109.23952
4799000000,-50.800243,109.11279
4800000000,-51.010323,108.95439
4801000000,-51.37323,108.53699
4802000000,-51.481552,108.43414
4803000000,-52.133839,108.05466
4804000000,-52.290462,107.87427
4805000000,-52.64896,107.69847
4806000000,-52.993217,107.45052
4807000000,-53.221924,107.3159
4808000000,-53.561802,107.10413
4809000000,-53.900604,106.9371
4810000000,-54.184975,106.55471
4811000000,-54.432198,106.30095
4812000000,-55.01524,106.23473
4813000000,-55.070175,106.00375
4814000000,-55.385361,105.89285
4815000000,-55.782551,105.49728
4816000000,-55.810268,105.52146
4817000000,-56.511387,105.19154
4818000000,-56.672871,104.9615
4819000000,-56.861202,104.78714
4820000000,-57.336243,104.50367
4821000000,-57.458019,104.27884
4822000000,-57.695503,103.99126
4823000000,-58.173359,104.15123
4824000000,-58.445309,103.70355
4825000000,-58.709759,103.57249
4826000000,-59.279388,103.42144
4827000000,-59.256653,103.1281
4828000000,-59.830109,102.97118
4829000000,-60.084225,102.71557
4830000000,-60.14571,102.6371
4831000000,-60.355869,102.23643
4832000000,-61.045616,102.26989
4833000000,-61.270008,101.77695
4834000000,-61.733154,101.60681
4835000000,-61.968403,101.41912
4836000000,-62.182644,101.3173
4837000000,-62.3936,101.08549
4838000000,-62.635288,100.77596
4839000000,-63.076393,100.66405
4840000000,-63.439877,100.49046
4841000000,-63.628624,100.29372
4842000000,-63.757748,99.936943
4843000000,-64.356964,99.930069
4844000000,-64.444542,99.68177
4845000000,-64.620743,99.384529
4846000000,-65.137848,99.157486
4847000000,-65.474159,98.963722
4848000000,-65.739227,98.568481
4849000000,-66.150703,98.703484
4850000000,-66.514458,98.27166
4851000000,-66.764816,98.305946
4852000000,-66.858253,97.975365
4853000000,-67.34156,97.912514
4854000000,-67.452019,97.591988
4855000000,-67.95118,97.304085
4856000000,-68.39994,97.154327
4857000000,-68.525383,96.834724
4858000000,-68.905609,96.647552
4859000000,-69.086647,96.350616
4860000000,-69.2967,96.337898
4861000000,-69.790443,95.862335
4862000000,-70.24482,95.809204
4863000000,-70.313683,95.598465
4864000000,-70.746437,95.415771
4865000000,-71.021378,95.190262
4866000000,-71.462181,94.946075
4867000000,-71.458382,94.703278
4868000000,-71.796997,94.748276
4869000000,-72.038605,94.367844
4870000000,-72.60434,94.169426
4871000000,-72.630844,93.848587
4872000000,-73.027084,93.744919
4873000000,-73.375443,93.554008
4874000000,-73.59066,93.317406
4875000000,-73.856728,93.329231
4876000000,-74.275291,93.188148
4877000000,-74.663422,92.813698
4878000000,-74.891319,92.473122
4879000000,-75.063393,92.273308
4880000000,-75.31414,92.017204
4881000000,-75.77758,91.9767
4882000000,-75.996132,91.674362
4883000000,-76.30072,91.555695
4884000000,-76.83902,91.3321
4885000000,-77.125511,90.907066
4886000000,-77.185143,90.843132
4887000000,-77.447777,90.684753
4888000000,-77.687187,90.535683
4889000000,-78.222885,90.193382
4890000000,-78.509438,89.912003
4891000000,-78.568604,89.852455
4892000000,-78.991798,89.611488
4893000000,-79.359207,89.585922
4894000000,-79.659538,89.291573
4895000000,-79.675369,89.067268
4896000000,-80.334877,88.671326
4897000000,-80.453827,88.544014
4898000000,-80.924316,88.45208
4899000000,-80.943077,88.094017
4900000000,-81.419479,87.89212
4901000000,-81.759117,87.970688
4902000000,-82.275032,87.476891
4903000000,-82.268326,87.42997
4904000000,-82.470871,87.187317
4905000000,-82.884453,87.061577
4906000000,-83.082169,86.67514
4907000000,-83.344772,86.634232
4908000000,-83.901375,86.439873
4909000000,-83.877914,86.127449
4910000000,-84.302147,85.979477
4911000000,-84.886024,85.735497
4912000000,-84.632256,85.509834
4913000000,-85.041504,85.296234
4914000000,-85.18663,85.146172
4915000000,-85.818497,84.953995
4916000000,-86.25074,84.769287
4917000000,-86.319374,84.422195
4918000000,-86.741867,84.291382
4919000000,-87.197243,84.0504
4920000000,-87.546684,83.970482
4921000000,-87.597061,83.761063
4922000000,-88.246048,83.374977
4923000000,-88.175583,83.19503
4924000000,-88.551773,83.014465
4925000000,-88.815361,82.779083
4926000000,-89.399361,82.635963
4927000000,-89.515121,82.327614
4928000000,-89.948959,82.078804
4929000000,-89.941795,81.982239
4930000000,-90.458763,81.821098
4931000000,-90.740425,81.532776
4932000000,-90.987167,81.338425
4933000000,-91.46656,81.14473
4934000000,-91.689529,80.901283
4935000000,-92.009949,80.800362
4936000000,-92.236588,80.60305
4937000000,-92.481216,80.454185
4938000000,-92.832916,80.225731
4939000000,-93.044174,79.973457
4940000000,-93.248199,79.636856
4941000000,-93.459587,79.548447
4942000000,-94.234695,79.416718
4943000000,-94.229141,79.050247
4944000000,-94.53685,78.826736
4945000000,-94.791,78.706726
4946000000,-95.10762,78.51561
4947000000,-95.385254,78.292496
4948000000,-95.898308,78.210899
4949000000,-96.050011,78.02494
4950000000,-96.414467,77.738121
4951000000,-96.646988,77.556328
4952000000,-96.749306,77.452812
4953000000,-97.486534,77.121147
4954000000,-97.558907,76.863655
4955000000,-97.82888,76.672302
4956000000,-98.090942,76.56958
4957000000,-98.389183,76.363724
4958000000,-98.751488,75.951073
4959000000,-99.112839,75.835503
4960000000,-99.474724,75.604553
4961000000,-99.710114,75.416626
4962000000,-99.977303,75.429993
4963000000,-100.43385,75.041054
4964000000,-100.52676,74.794685
4965000000,-101.09505,74.723648
4966000000,-101.18501,74.424591
4967000000,-101.68767,74.279823
4968000000,-101.75152,74.073746
4969000000,-102.33295,73.818146
4970000000,-102.50867,73.801987
4971000000,-102.72924,73.454956
4972000000,-102.90656,73.375595
4973000000,-103.35739,73.031914
4974000000,-103.606,72.68396
4975000000,-103.96619,72.575821
4976000000,-104.16495,72.331558
4977000000,-104.77863,72.026001
4978000000,-104.80424,72.130623
4979000000,-105.16918,71.873344
4980000000,-105.658,71.638168
4981000000,-106.078,71.35994
4982000000,-106.09525,71.012199
4983000000,-106.60019,70.994804
4984000000,-106.64999,70.679649
4985000000,-107.10152,70.591583
4986000000,-107.45862,70.251244
4987000000,-107.50147,70.120819
4988000000,-108.12399,69.925407
4989000000,-108.40114,69.686729
4990000000,-108.48759,69.492943
4991000000,-108.86121,69.278168
4992000000,-109.06617,69.026825
4993000000,-109.76645,68.939865
4994000000,-109.8375,68.620865
4995000000,-110.32479,68.346306
4996000000,-110.8714,68.284035
4997000000,-110.75263,67.949142
4998000000,-111.17268,67.794937
4999000000,-111.63369,67.568039
5000000000,-111.94227,67.510651
END

