!CSV A.01.01
!Agilent Technologies,E8362C,MY49020225,A.09.42.22
!Agilent E8362C: A.09.42.22
!Date: Friday, March 04, 2016 14:02:28
!Source: Standard

BEGIN CH1_DATA
Freq(Hz),S11 Phase(°),S21 Phase(°)
1000000000,87.537048,-146.14862
1001000000,86.518021,-146.37582
1002000000,87.161385,-146.37936
1003000000,86.515076,-146.64252
1004000000,87.652611,-146.79713
1005000000,86.586517,-146.93996
1006000000,86.691368,-146.94321
1007000000,87.556664,-147.10661
1008000000,88.076599,-147.19299
1009000000,87.856369,-147.22737
1010000000,87.249863,-147.55193
1011000000,87.488571,-147.91133
1012000000,87.355255,-147.90411
1013000000,87.964394,-148.08244
1014000000,87.349907,-148.1131
1015000000,87.318542,-148.39233
1016000000,86.817108,-148.62148
1017000000,87.30822,-148.79526
1018000000,88.074883,-148.91873
1019000000,87.029533,-148.83
1020000000,87.868271,-148.96881
1021000000,87.760941,-149.18365
1022000000,86.433067,-149.29645
1023000000,86.916702,-149.61292
1024000000,87.858658,-149.69281
1025000000,88.23391,-149.84517
1026000000,87.958405,-149.9846
1027000000,88.691025,-150.09938
1028000000,87.280075,-150.23552
1029000000,88.039497,-150.35553
1030000000,87.925812,-150.53526
1031000000,87.702995,-150.49219
1032000000,88.322731,-150.95656
1033000000,87.944893,-150.97823
1034000000,88.134949,-151.12666
1035000000,87.156448,-151.35899
1036000000,87.785721,-151.36436
1037000000,88.205231,-151.47087
1038000000,87.82959,-151.64655
1039000000,88.090805,-151.81482
1040000000,87.875504,-152.02911
1041000000,88.129471,-151.96669
1042000000,87.346985,-152.22726
1043000000,87.607803,-152.51616
1044000000,87.203415,-152.56671
1045000000,87.790222,-152.68481
1046000000,87.736633,-152.83136
1047000000,87.026382,-153.21979
1048000000,87.435875,-153.2962
1049000000,87.963966,-153.24191
1050000000,87.486526,-153.41452
1051000000,87.175301,-153.73938
1052000000,87.877007,-153.75845
1053000000,87.984741,-153.87213
1054000000,88.35453,-153.78575
1055000000,88.016701,-154.13718
1056000000,88.527901,-154.20715
1057000000,88.263779,-154.45717
1058000000,87.947495,-154.59697
1059000000,87.850594,-154.64961
1060000000,88.579681,-154.81595
1061000000,88.713623,-154.86777
1062000000,88.220886,-155.20293
1063000000,87.79245,-155.47672
1064000000,88.392822,-155.46992
1065000000,88.494347,-155.64906
1066000000,88.060234,-155.77783
1067000000,88.554039,-155.899
1068000000,88.633148,-155.78786
1069000000,88.59919,-156.27957
1070000000,88.266731,-156.30135
1071000000,88.660431,-156.15401
1072000000,87.813354,-156.69543
1073000000,88.63327,-156.89758
1074000000,88.608826,-156.84923
1075000000,89.267807,-156.96025
1076000000,87.940781,-157.17365
1077000000,88.693642,-157.30226
1078000000,88.842766,-157.55353
1079000000,87.834122,-157.71678
1080000000,87.980423,-157.8194
1081000000,88.407028,-158.02296
1082000000,88.005684,-158.11229
1083000000,88.276161,-158.09903
1084000000,88.156647,-158.3911
1085000000,88.500626,-158.41081
1086000000,88.200668,-158.56116
1087000000,88.89975,-158.59245
1088000000,88.550491,-159.08476
1089000000,88.674263,-158.85699
1090000000,88.206802,-159.18976
1091000000,88.346848,-159.45557
1092000000,88.725876,-159.5005
1093000000,88.757492,-159.56593
1094000000,88.619873,-159.74173
1095000000,89.096947,-159.93993
1096000000,89.069382,-160.18315
1097000000,88.717918,-160.31917
1098000000,88.172821,-160.44803
1099000000,89.579018,-160.47575
1100000000,88.753326,-160.71497
1101000000,89.538017,-160.92297
1102000000,89.14257,-160.91858
1103000000,88.60424,-161.22948
1104000000,88.829903,-161.11696
1105000000,89.033966,-161.31818
1106000000,89.532501,-161.38562
1107000000,88.79512,-161.72702
1108000000,89.128311,-161.89586
1109000000,88.766716,-162.09998
1110000000,89.34938,-162.20023
1111000000,88.869606,-162.36905
1112000000,88.881104,-162.505
1113000000,88.99868,-162.62657
1114000000,88.149956,-162.92911
1115000000,88.615364,-163.09087
1116000000,88.739456,-163.08594
1117000000,88.866234,-163.38937
1118000000,89.169579,-163.24568
1119000000,88.951736,-163.42708
1120000000,88.49559,-163.69151
1121000000,88.640282,-163.90634
1122000000,88.631577,-164.03337
1123000000,89.055336,-164.01619
1124000000,88.722031,-164.10428
1125000000,88.757545,-164.31886
1126000000,88.891312,-164.44893
1127000000,88.568817,-164.44748
1128000000,88.771828,-164.79935
1129000000,88.731033,-165.07469
1130000000,88.064468,-165.07664
1131000000,88.742294,-165.19255
1132000000,88.073387,-165.5269
1133000000,88.673393,-165.67255
1134000000,88.238556,-165.76212
1135000000,88.594559,-165.68292
1136000000,88.400131,-166.20027
1137000000,88.197426,-166.1152
1138000000,88.389908,-166.36641
1139000000,88.032326,-166.54025
1140000000,88.587296,-166.61977
1141000000,88.097389,-166.78558
1142000000,88.302162,-166.95503
1143000000,88.013603,-167.18381
1144000000,88.254669,-167.28171
1145000000,88.165871,-167.44884
1146000000,87.800217,-167.6861
1147000000,88.770699,-167.56413
1148000000,88.130394,-167.71965
1149000000,88.173042,-167.9711
1150000000,88.461685,-168.02029
1151000000,87.838699,-168.32993
1152000000,87.789078,-168.3632
1153000000,88.014877,-168.63689
1154000000,88.470535,-168.60255
1155000000,87.739365,-168.7823
1156000000,87.976357,-168.87373
1157000000,88.235573,-169.02133
1158000000,87.772537,-169.22603
1159000000,87.544685,-169.31461
1160000000,88.370789,-169.32248
1161000000,87.849495,-169.75034
1162000000,87.669731,-169.7861
1163000000,88.029388,-169.80708
1164000000,87.802841,-170.0865
1165000000,87.726883,-170.35959
1166000000,87.806274,-170.27679
1167000000,87.648148,-170.56406
1168000000,87.35051,-170.84647
1169000000,87.702057,-170.75726
1170000000,87.376373,-171.01213
1171000000,87.790489,-171.02728
1172000000,87.217506,-171.29443
1173000000,87.660538,-171.32069
1174000000,87.738373,-171.35619
1175000000,87.550888,-171.53217
1176000000,87.677574,-171.65155
1177000000,87.815178,-171.92528
1178000000,87.588867,-172.06435
1179000000,87.471062,-172.41051
1180000000,87.051674,-172.52107
1181000000,87.686707,-172.3856
1182000000,87.642456,-172.58592
1183000000,87.757622,-172.85907
1184000000,87.524254,-172.80771
1185000000,87.200012,-173.14528
1186000000,87.778877,-173.18069
1187000000,87.291145,-173.35251
1188000000,87.637283,-173.5269
1189000000,87.678673,-173.68613
1190000000,87.335472,-173.90915
1191000000,87.241425,-174.01248
1192000000,87.168419,-174.23581
1193000000,87.640808,-174.26941
1194000000,87.365166,-174.42256
1195000000,87.562042,-174.54346
1196000000,87.489128,-174.82564
1197000000,87.242828,-174.87721
1198000000,87.729889,-174.91812
1199000000,87.4702,-175.15277
1200000000,87.046326,-175.3438
1201000000,87.327156,-175.43332
1202000000,87.072197,-175.6913
1203000000,87.084267,-175.82495
1204000000,87.299637,-175.81821
1205000000,87.183662,-176.07347
1206000000,87.274208,-176.04877
1207000000,86.862984,-176.40379
1208000000,87.711655,-176.39122
1209000000,87.191566,-176.56587
1210000000,87.314461,-176.71567
1211000000,86.964066,-176.9353
1212000000,87.188469,-176.98241
1213000000,87.664124,-176.97826
1214000000,87.177872,-177.27847
1215000000,87.293442,-177.43503
1216000000,87.183617,-177.68629
1217000000,87.335106,-177.7542
1218000000,87.20491,-177.85228
1219000000,87.119232,-178.02121
1220000000,87.354301,-177.93007
1221000000,87.335236,-178.41006
1222000000,87.117233,-178.59486
1223000000,87.273117,-178.67963
1224000000,87.079216,-178.9127
1225000000,87.266739,-178.9346
1226000000,87.374023,-179.01289
1227000000,87.322395,-179.2926
1228000000,87.353462,-179.36807
1229000000,87.497009,-179.69377
1230000000,87.635811,-179.59924
1231000000,87.783577,-179.71613
1232000000,87.648682,-179.96213
1233000000,87.596916,179.9288
1234000000,87.535316,179.53557
1235000000,87.715111,179.77364
1236000000,87.780571,179.46114
1237000000,87.760941,179.2771
1238000000,87.635475,179.13615
1239000000,87.846298,178.97476
1240000000,87.552032,178.79082
1241000000,87.699532,178.47034
1242000000,87.770226,178.46063
1243000000,87.949677,178.5331
1244000000,87.846825,178.05246
1245000000,87.530937,178.05588
1246000000,88.186722,178.04648
1247000000,88.001793,177.83058
1248000000,88.355492,177.70934
1249000000,88.206711,177.64658
1250000000,88.5196,177.60638
1251000000,87.884972,177.28568
1252000000,88.40271,177.31831
1253000000,88.285141,177.01349
1254000000,88.161133,176.9471
1255000000,88.363449,176.69762
1256000000,88.656342,176.6377
1257000000,88.625153,176.48663
1258000000,88.864563,176.37125
1259000000,88.902527,176.33728
1260000000,88.596596,175.99385
1261000000,88.269157,175.71852
1262000000,88.857864,175.67082
1263000000,88.889496,175.71336
1264000000,88.976143,175.35001
1265000000,89.105934,175.27661
1266000000,89.066162,175.14117
1267000000,88.810562,174.83421
1268000000,89.104904,174.79906
1269000000,89.214615,174.55971
1270000000,88.86525,174.43993
1271000000,89.270859,174.37076
1272000000,89.423309,174.22925
1273000000,89.617683,174.14731
1274000000,89.477173,173.87657
1275000000,89.439751,173.63396
1276000000,89.470749,173.42036
1277000000,89.593964,173.39087
1278000000,89.47451,173.24701
1279000000,89.890518,173.06952
1280000000,90.291412,173.04924
1281000000,89.784607,172.84256
1282000000,90.325554,172.90927
1283000000,89.93808,172.57185
1284000000,89.945541,172.48863
1285000000,89.776062,172.07835
1286000000,90.365715,172.2574
1287000000,90.313179,172.06497
1288000000,90.162994,171.80812
1289000000,90.345383,171.72137
1290000000,90.530907,171.56285
1291000000,90.388741,171.38597
1292000000,90.936172,171.28667
1293000000,91.165756,171.30148
1294000000,91.172386,170.9879
1295000000,91.33567,170.85278
1296000000,90.922226,170.70177
1297000000,90.738991,170.53047
1298000000,91.229736,170.47362
1299000000,91.276207,170.25244
1300000000,91.279106,170.03163
1301000000,91.395279,169.91765
1302000000,91.891434,169.94365
1303000000,91.752052,169.82028
1304000000,92.011826,169.58113
1305000000,91.373062,169.50491
1306000000,91.344215,169.16429
1307000000,91.917328,169.2612
1308000000,91.900269,168.92067
1309000000,91.655937,168.77252
1310000000,91.813782,168.84567
1311000000,91.929123,168.41528
1312000000,92.121124,168.39813
1313000000,92.485077,168.21515
1314000000,92.152908,168.03651
1315000000,92.354149,167.93597
1316000000,92.361572,167.77371
1317000000,92.264214,167.55756
1318000000,92.458855,167.43307
1319000000,92.378075,167.18474
1320000000,93.00029,167.28171
1321000000,92.541664,167.00316
1322000000,92.827469,166.94994
1323000000,92.85791,166.688
1324000000,93.418465,166.59135
1325000000,92.786125,166.39954
1326000000,93.268921,166.2361
1327000000,93.810966,166.246
1328000000,94.104027,166.00533
1329000000,93.5364,165.92644
1330000000,94.022957,165.72375
1331000000,93.573563,165.55534
1332000000,94.17067,165.34848
1333000000,94.115692,165.25745
1334000000,94.828255,165.10591
1335000000,94.267433,164.89587
1336000000,94.681938,164.98973
1337000000,94.464546,164.63196
1338000000,95.187225,164.49731
1339000000,95.249481,164.41197
1340000000,94.945663,164.24113
1341000000,95.4216,164.10532
1342000000,95.11084,163.77318
1343000000,95.849388,163.7923
1344000000,95.897278,163.62923
1345000000,96.120369,163.57166
1346000000,96.357635,163.38309
1347000000,95.952957,163.3954
1348000000,96.248947,163.18918
1349000000,97.010246,162.9482
1350000000,96.308456,162.9091
1351000000,96.53318,162.63362
1352000000,96.683914,162.36566
1353000000,96.89505,162.34062
1354000000,97.339539,162.12823
1355000000,97.850739,162.15955
1356000000,97.602448,161.79105
1357000000,96.945412,161.76437
1358000000,97.556984,161.61732
1359000000,98.473724,161.62206
1360000000,97.667564,161.28403
1361000000,98.603989,161.19197
1362000000,98.354317,161.16331
1363000000,98.636475,160.98438
1364000000,98.659454,160.74806
1365000000,98.122429,160.56055
1366000000,98.480232,160.44945
1367000000,99.354515,160.37077
1368000000,100.10043,160.29486
1369000000,99.564209,160.05504
1370000000,99.356026,159.80339
1371000000,100.0163,159.83357
1372000000,100.70606,159.64278
1373000000,100.00989,159.45035
1374000000,100.79852,159.32457
1375000000,100.51603,159.28609
1376000000,100.60126,159.15086
1377000000,101.52136,158.86555
1378000000,101.93079,158.67943
1379000000,102.02042,158.50197
1380000000,102.23801,158.7516
1381000000,101.81355,158.26642
1382000000,102.83902,158.00206
1383000000,102.88777,157.96252
1384000000,102.51379,157.81676
1385000000,103.06184,157.65065
1386000000,103.71299,157.57784
1387000000,103.10359,157.22545
1388000000,103.82081,157.26205
1389000000,104.50123,157.02744
1390000000,103.99641,156.88058
1391000000,104.99471,156.72174
1392000000,104.44425,156.53804
1393000000,104.56339,156.37256
1394000000,105.65518,156.42694
1395000000,105.22609,156.21233
1396000000,105.30312,155.95302
1397000000,105.69489,155.98122
1398000000,105.23372,155.80791
1399000000,106.67455,155.51677
1400000000,107.22673,155.52168
1401000000,107.12688,155.4653
1402000000,106.91624,155.26573
1403000000,107.70029,155.24931
1404000000,108.07721,154.99359
1405000000,108.053,154.7981
1406000000,108.84787,154.63812
1407000000,108.47258,154.46458
1408000000,108.76595,154.35928
1409000000,108.81525,154.0903
1410000000,109.19296,154.06479
1411000000,108.44867,153.81177
1412000000,109.34894,153.73199
1413000000,110.47021,153.56544
1414000000,110.47655,153.49574
1415000000,110.77108,153.29022
1416000000,110.80815,153.13017
1417000000,111.45543,153.12456
1418000000,111.44312,152.94757
1419000000,111.47904,152.71326
1420000000,111.03096,152.48087
1421000000,111.38856,152.34946
1422000000,113.12403,152.43732
1423000000,111.98304,151.98531
1424000000,113.08414,152.17026
1425000000,113.20171,151.86214
1426000000,115.33246,151.84164
1427000000,113.61401,151.55827
1428000000,113.95934,151.37129
1429000000,115.62597,151.4608
1430000000,114.41778,150.92761
1431000000,114.55589,150.75992
1432000000,116.06225,150.85275
1433000000,115.38732,150.5784
1434000000,116.65285,150.54652
1435000000,116.67825,150.42334
1436000000,116.7611,150.09123
1437000000,116.41258,150.03658
1438000000,116.5064,149.93562
1439000000,117.77704,149.82294
1440000000,117.01796,149.66124
1441000000,117.16281,149.44296
1442000000,118.68019,149.22319
1443000000,117.86234,149.16891
1444000000,119.53369,149.01402
1445000000,118.79818,148.86842
1446000000,119.81384,148.7399
1447000000,120.87304,148.68506
1448000000,120.24663,148.36154
1449000000,121.01933,148.42216
1450000000,120.84988,148.21991
1451000000,122.11662,148.05832
1452000000,122.6915,147.98778
1453000000,121.78013,147.69022
1454000000,123.03124,147.64485
1455000000,123.72314,147.42625
1456000000,123.26537,147.37206
1457000000,123.75806,147.20769
1458000000,123.93684,147.13359
1459000000,123.97168,146.86302
1460000000,125.87646,146.66034
1461000000,124.55904,146.42749
1462000000,124.77141,146.33121
1463000000,125.10871,146.21826
1464000000,126.96404,146.18388
1465000000,126.71149,146.05302
1466000000,125.54079,145.84785
1467000000,127.87651,145.71622
1468000000,127.51884,145.64029
1469000000,127.86509,145.50307
1470000000,127.66411,145.27827
1471000000,128.05946,144.96457
1472000000,129.2065,144.75153
1473000000,129.20593,144.91908
1474000000,130.83354,144.67409
1475000000,129.85393,144.39282
1476000000,130.39273,144.37788
1477000000,130.98973,144.33618
1478000000,130.2892,144.07159
1479000000,130.3307,143.99231
1480000000,131.26521,143.67201
1481000000,131.48004,143.58218
1482000000,131.92567,143.39639
1483000000,131.35251,143.38367
1484000000,132.9563,143.19881
1485000000,132.70157,142.97583
1486000000,133.55826,142.98985
1487000000,133.53795,142.8441
1488000000,134.18883,142.50038
1489000000,134.33517,142.4805
1490000000,134.77699,142.34503
1491000000,134.16559,142.04272
1492000000,134.90846,142.14302
1493000000,135.40088,141.72569
1494000000,134.75378,141.71428
1495000000,136.17049,141.57893
1496000000,136.56404,141.4677
1497000000,137.14211,141.24741
1498000000,138.25403,141.16747
1499000000,137.57343,140.91489
1500000000,138.3967,140.905
1501000000,137.60966,140.65187
1502000000,139.14447,140.71872
1503000000,138.39006,140.26459
1504000000,139.76027,140.30334
1505000000,140.86954,140.25076
1506000000,141.16318,139.99762
1507000000,141.27336,139.8286
1508000000,141.70685,139.78529
1509000000,140.72279,139.52032
1510000000,142.3922,139.31335
1511000000,141.30862,139.23262
1512000000,141.83995,139.19421
1513000000,142.34932,139.02385
1514000000,142.66049,138.81848
1515000000,142.05963,138.82056
1516000000,143.03821,138.54202
1517000000,143.43791,138.40787
1518000000,143.11533,138.32053
1519000000,143.94684,138.0761
1520000000,144.59616,137.96391
1521000000,143.61763,137.74493
1522000000,144.16238,137.61111
1523000000,143.87486,137.40698
1524000000,144.12054,137.11617
1525000000,145.18546,137.25974
1526000000,145.64906,137.06009
1527000000,144.72722,136.88982
1528000000,146.84814,136.63565
1529000000,145.6844,136.50294
1530000000,146.38606,136.4753
1531000000,146.19785,136.30475
1532000000,147.5295,136.20276
1533000000,148.35478,135.9875
1534000000,148.02869,136.00159
1535000000,147.24052,135.69829
1536000000,148.20482,135.54596
1537000000,148.65375,135.35416
1538000000,148.81909,135.34247
1539000000,148.39772,135.24132
1540000000,148.50517,134.90919
1541000000,148.58592,134.85136
1542000000,150.95963,134.76659
1543000000,150.37183,134.55646
1544000000,150.54091,134.39096
1545000000,149.76102,134.07088
1546000000,151.17577,134.23877
1547000000,151.04024,134.05208
1548000000,150.48192,133.73688
1549000000,151.93947,133.7823
1550000000,151.63686,133.83792
1551000000,151.46655,133.32451
1552000000,152.65262,133.28845
1553000000,152.12244,133.03653
1554000000,153.09196,132.99655
1555000000,152.51607,132.79076
1556000000,152.75134,132.74904
1557000000,153.80708,132.68062
1558000000,153.2619,132.46135
1559000000,152.80077,132.18517
1560000000,153.72882,132.05997
1561000000,153.52666,132.00354
1562000000,154.31499,131.77834
1563000000,153.81042,131.48903
1564000000,154.45703,131.51241
1565000000,155.16971,131.30469
1566000000,154.35403,131.25812
1567000000,153.93243,130.88397
1568000000,155.7213,130.85077
1569000000,155.32526,130.7247
1570000000,154.40773,130.49915
1571000000,156.52808,130.38702
1572000000,156.00807,130.37215
1573000000,155.95857,130.33072
1574000000,155.8568,130.01303
1575000000,156.29158,129.81906
1576000000,155.88417,129.74002
1577000000,156.1864,129.52678
1578000000,155.87675,129.38504
1579000000,156.22025,129.26199
1580000000,156.88919,129.09911
1581000000,157.36208,129.12553
1582000000,157.22534,128.79333
1583000000,157.2245,128.67648
1584000000,157.31461,128.57724
1585000000,157.45728,128.2951
1586000000,157.41939,128.34233
1587000000,158.63638,128.13766
1588000000,157.80589,127.84378
1589000000,157.81192,127.78574
1590000000,158.34195,127.82362
1591000000,158.27602,127.64206
1592000000,158.43246,127.33437
1593000000,158.9872,127.25172
1594000000,158.79263,127.05058
1595000000,158.93971,127.09772
1596000000,158.94804,126.891
1597000000,159.54384,126.89251
1598000000,159.1666,126.49268
1599000000,159.86403,126.48808
1600000000,158.93248,126.33326
1601000000,158.87573,125.95248
1602000000,159.40227,126.03042
1603000000,159.90611,125.80617
1604000000,159.34258,125.64326
1605000000,158.75931,125.46175
1606000000,160.09177,125.37964
1607000000,160.04755,125.23341
1608000000,159.78421,125.12643
1609000000,160.46378,125.00475
1610000000,159.76439,124.66241
1611000000,159.47766,124.56715
1612000000,159.85962,124.46785
1613000000,160.7616,124.32458
1614000000,160.5246,124.09486
1615000000,160.48477,124.04868
1616000000,160.69479,123.93587
1617000000,161.39542,123.82853
1618000000,161.24879,123.66055
1619000000,159.71628,123.44064
1620000000,160.46446,123.30859
1621000000,161.00186,123.07993
1622000000,160.70058,122.85933
1623000000,161.24104,122.71756
1624000000,160.01898,122.69636
1625000000,161.19116,122.66563
1626000000,160.83772,122.38919
1627000000,161.37399,122.21135
1628000000,161.16812,122.2189
1629000000,161.87698,122.07539
1630000000,162.10167,121.92599
1631000000,161.01039,121.5083
1632000000,161.83524,121.52221
1633000000,161.87761,121.45822
1634000000,161.44312,121.1189
1635000000,161.92365,121.07835
1636000000,161.32437,121.15416
1637000000,161.03766,120.47644
1638000000,161.86366,120.54414
1639000000,161.2762,120.36407
1640000000,161.74872,120.44392
1641000000,162.41016,120.02963
1642000000,162.59955,119.90296
1643000000,162.34998,119.99944
1644000000,162.46298,119.9168
1645000000,161.93269,119.62187
1646000000,162.66148,119.42268
1647000000,162.30475,119.32015
1648000000,163.89096,119.29549
1649000000,162.16739,119.04002
1650000000,162.37425,119.04221
1651000000,163.06087,118.77496
1652000000,162.06331,118.49129
1653000000,162.94243,118.5094
1654000000,162.95226,118.27616
1655000000,162.37949,118.1961
1656000000,162.43471,117.96667
1657000000,163.04369,117.8499
1658000000,163.22075,117.68695
1659000000,162.74048,117.63228
1660000000,162.69879,117.38995
1661000000,162.62653,117.15179
1662000000,162.96242,117.14684
1663000000,163.13005,116.9724
1664000000,162.98341,116.99643
1665000000,162.992,116.69083
1666000000,163.66277,116.57056
1667000000,162.93726,116.3916
1668000000,163.25764,116.51924
1669000000,163.88295,115.99747
1670000000,162.42641,115.90881
1671000000,162.89542,115.76111
1672000000,162.90564,115.68592
1673000000,162.55154,115.54735
1674000000,163.2683,115.43378
1675000000,162.86989,115.18813
1676000000,164.18007,115.09721
1677000000,163.23595,115.06925
1678000000,163.7225,114.86285
1679000000,163.3725,114.73745
1680000000,162.56657,114.48192
1681000000,163.50708,114.27287
1682000000,163.73631,114.14542
1683000000,163.5994,114.03582
1684000000,163.0536,113.96907
1685000000,164.07463,113.60789
1686000000,163.81311,113.76379
1687000000,163.44228,113.59869
1688000000,164.1461,113.35915
1689000000,163.52544,113.0324
1690000000,163.7883,113.02354
1691000000,163.91203,112.73163
1692000000,164.03891,112.73399
1693000000,163.30101,112.56765
1694000000,163.73398,112.33727
1695000000,164.21298,112.23374
1696000000,163.56259,112.11005
1697000000,163.05652,111.98708
1698000000,164.31548,111.85263
1699000000,163.82089,111.77165
1700000000,163.59442,111.53539
1701000000,163.91371,111.49631
1702000000,163.96233,111.35649
1703000000,163.30089,110.99639
1704000000,163.12683,110.90872
1705000000,164.10828,110.7907
1706000000,163.2677,110.66302
1707000000,163.08417,110.52359
1708000000,163.71623,110.36581
1709000000,163.69806,110.2527
1710000000,163.57053,110.14257
1711000000,162.98021,109.98016
1712000000,163.26933,109.8377
1713000000,163.59105,109.59706
1714000000,163.6535,109.54567
1715000000,163.32668,109.33812
1716000000,164.1198,109.29544
1717000000,163.67706,109.18732
1718000000,164.18231,109.06822
1719000000,163.57993,108.66309
1720000000,163.99217,108.72427
1721000000,163.01935,108.42533
1722000000,163.19078,108.23971
1723000000,163.23276,108.12975
1724000000,162.95958,108.02497
1725000000,163.21014,107.83993
1726000000,162.60036,107.70909
1727000000,163.1057,107.50693
1728000000,163.50648,107.47729
1729000000,163.12238,107.22774
1730000000,163.6472,107.19207
1731000000,163.20514,107.19115
1732000000,163.30009,106.83209
1733000000,163.73093,106.81755
1734000000,163.4409,106.61594
1735000000,163.43785,106.32504
1736000000,162.78233,106.14546
1737000000,163.10146,105.89098
1738000000,162.96202,106.05056
1739000000,163.26305,105.84245
1740000000,163.1002,105.53194
1741000000,163.61914,105.59555
1742000000,163.00623,105.32946
1743000000,163.40025,105.13898
1744000000,162.52129,104.98942
1745000000,162.54044,104.86109
1746000000,163.28328,104.64474
1747000000,162.84149,104.68409
1748000000,162.3159,104.47284
1749000000,162.53171,104.34769
1750000000,162.47086,104.37354
1751000000,161.99413,104.17496
1752000000,162.58588,103.97152
1753000000,162.69382,103.86937
1754000000,162.69342,103.50866
1755000000,162.04544,103.39955
1756000000,161.89153,103.28078
1757000000,162.49399,103.22347
1758000000,162.6236,103.17471
1759000000,162.15424,102.80421
1760000000,162.43472,102.76054
1761000000,162.10318,102.49734
1762000000,162.70152,102.44906
1763000000,162.57526,102.47606
1764000000,163.03236,102.35619
1765000000,162.12924,102.10205
1766000000,161.87903,101.92937
1767000000,162.3511,101.50932
1768000000,161.91705,101.68327
1769000000,162.34731,101.51329
1770000000,162.26761,101.32897
1771000000,162.3558,101.20729
1772000000,161.41341,100.95206
1773000000,161.62746,100.97379
1774000000,161.59944,100.74181
1775000000,161.47441,100.68966
1776000000,161.91243,100.37962
1777000000,161.1255,100.12158
1778000000,161.47258,100.12214
1779000000,161.57416,100.00383
1780000000,161.46889,99.770287
1781000000,160.92093,99.595131
1782000000,162.30516,99.555473
1783000000,161.47644,99.320778
1784000000,161.31049,99.165154
1785000000,161.37466,99.132011
1786000000,160.74936,99.140747
1787000000,161.84865,98.92289
1788000000,161.22108,98.698868
1789000000,160.76123,98.508789
1790000000,160.6004,98.39592
1791000000,161.3539,98.387627
1792000000,161.12183,98.013046
1793000000,161.06775,98.00264
1794000000,161.12537,97.866806
1795000000,160.94933,97.583351
1796000000,160.60829,97.492859
1797000000,160.76721,97.25724
1798000000,160.79549,97.175179
1799000000,161.40364,97.117081
1800000000,161.01569,97.042198
1801000000,159.98222,96.958923
1802000000,160.46506,96.642708
1803000000,160.29439,96.394821
1804000000,160.36821,96.29837
1805000000,160.4438,96.151375
1806000000,160.22568,95.983955
1807000000,160.24669,95.922806
1808000000,160.20273,95.695099
1809000000,160.58708,95.595551
1810000000,160.14249,95.511772
1811000000,160.11728,95.360481
1812000000,160.2382,95.131271
1813000000,159.31641,94.875656
1814000000,160.11792,94.880447
1815000000,159.67279,94.742683
1816000000,159.53711,94.473976
1817000000,159.98206,94.481041
1818000000,159.58444,94.254402
1819000000,159.8707,94.188866
1820000000,159.4572,93.968285
1821000000,159.52586,93.850014
1822000000,159.1759,93.669868
1823000000,159.46452,93.460556
1824000000,159.46667,93.392693
1825000000,159.73122,93.087776
1826000000,159.83516,93.30999
1827000000,159.65125,92.972542
1828000000,158.91783,92.744194
1829000000,159.53511,92.76889
1830000000,159.22696,92.426407
1831000000,158.7227,92.336075
1832000000,159.54077,92.292549
1833000000,159.02455,92.223366
1834000000,158.45688,92.062225
1835000000,159.29546,91.857773
1836000000,158.51994,91.74482
1837000000,158.63071,91.628761
1838000000,158.82108,91.500793
1839000000,158.38498,91.30368
1840000000,158.43002,90.98838
1841000000,158.90439,91.18438
1842000000,158.32597,90.813133
1843000000,158.53783,90.74334
1844000000,158.62169,90.308022
1845000000,158.61923,90.353592
1846000000,157.99245,90.272911
1847000000,157.84212,90.09111
1848000000,158.53934,90.024864
1849000000,157.76808,89.684792
1850000000,157.77568,89.504944
1851000000,158.33257,89.537079
1852000000,158.19098,89.493179
1853000000,157.653,89.109848
1854000000,157.61273,89.176872
1855000000,157.88644,88.846703
1856000000,158.15405,88.720909
1857000000,158.23013,88.643745
1858000000,157.49333,88.562691
1859000000,157.8654,88.385483
1860000000,157.79562,88.206543
1861000000,157.70067,87.980614
1862000000,157.26738,88.068611
1863000000,157.29066,87.679756
1864000000,157.69893,87.732788
1865000000,157.00879,87.405594
1866000000,157.26106,87.289627
1867000000,157.19301,87.211166
1868000000,157.3904,87.09124
1869000000,156.98994,86.814934
1870000000,157.08414,86.778587
1871000000,156.49391,86.522423
1872000000,157.16048,86.387672
1873000000,156.85669,86.285942
1874000000,156.50977,86.280037
1875000000,156.76932,85.90815
1876000000,156.67598,85.828667
1877000000,156.92989,85.717354
1878000000,156.7261,85.572357
1879000000,156.57967,85.477028
1880000000,156.39145,85.364479
1881000000,156.3342,85.220329
1882000000,156.242,84.881927
1883000000,156.44427,84.740089
1884000000,155.9101,84.590874
1885000000,156.27724,84.626198
1886000000,156.03102,84.451622
1887000000,156.02275,84.203232
1888000000,155.5616,84.08284
1889000000,156.00526,84.139069
1890000000,156.13945,83.941635
1891000000,155.94186,83.739372
1892000000,155.07813,83.483543
1893000000,155.31831,83.318047
1894000000,155.30739,83.191666
1895000000,155.65071,83.327362
1896000000,155.30861,82.985939
1897000000,154.99843,82.974716
1898000000,155.11551,82.619797
1899000000,154.86243,82.636688
1900000000,155.04433,82.228645
1901000000,155.08603,82.254082
1902000000,155.21556,82.210663
1903000000,155.23738,81.902504
1904000000,154.8007,81.819855
1905000000,154.66916,81.766884
1906000000,154.59167,81.497658
1907000000,155.07037,81.522659
1908000000,154.43967,81.271156
1909000000,154.24666,81.067101
1910000000,154.58592,80.878113
1911000000,154.18881,80.748688
1912000000,154.25336,80.592186
1913000000,154.35458,80.385483
1914000000,154.2487,80.276016
1915000000,154.22322,80.210068
1916000000,153.96465,79.984734
1917000000,153.97293,79.964478
1918000000,154.02478,79.741699
1919000000,153.85396,79.539841
1920000000,154.13327,79.240753
1921000000,153.40906,79.336563
1922000000,153.8161,78.96347
1923000000,153.54375,78.893837
1924000000,153.62773,78.950157
1925000000,153.64803,78.698547
1926000000,153.99249,78.55246
1927000000,153.21234,78.331139
1928000000,153.15315,78.274765
1929000000,153.32913,77.934143
1930000000,153.43544,77.912857
1931000000,153.13669,77.803795
1932000000,152.81123,77.642197
1933000000,152.96967,77.630745
1934000000,153.38782,77.263329
1935000000,153.64218,77.422134
1936000000,153.1792,77.145782
1937000000,152.39919,76.813835
1938000000,152.38391,76.888863
1939000000,152.50165,76.563911
1940000000,152.37427,76.550575
1941000000,152.42348,76.349358
1942000000,151.92232,76.172112
1943000000,151.73671,76.101128
1944000000,152.72931,75.96563
1945000000,151.58778,75.640121
1946000000,152.01158,75.614792
1947000000,152.0345,75.515869
1948000000,151.88637,75.419594
1949000000,151.61133,75.101906
1950000000,151.57204,74.908661
1951000000,151.79012,74.922073
1952000000,151.25165,74.760712
1953000000,151.04228,74.69474
1954000000,151.08095,74.316353
1955000000,150.74542,74.26992
1956000000,151.12811,74.102036
1957000000,151.07074,73.862831
1958000000,151.01396,73.853249
1959000000,150.80727,73.774391
1960000000,151.01349,73.614769
1961000000,151.13911,73.445313
1962000000,150.33247,73.443909
1963000000,150.84134,73.192535
1964000000,150.54388,72.815186
1965000000,150.58047,72.822792
1966000000,150.6151,72.733246
1967000000,150.11047,72.539207
1968000000,149.9243,72.444153
1969000000,150.11108,72.254807
1970000000,150.35266,72.295891
1971000000,150.2955,72.122017
1972000000,150.30144,71.82795
1973000000,150.43951,71.530327
1974000000,150.11809,71.569031
1975000000,149.97267,71.396873
1976000000,149.7135,71.296249
1977000000,149.57155,71.065369
1978000000,149.66908,70.817482
1979000000,149.23924,70.771492
1980000000,149.52116,70.542809
1981000000,149.10587,70.361107
1982000000,149.27745,70.296707
1983000000,149.16046,70.195572
1984000000,149.32269,70.040466
1985000000,149.1864,69.980156
1986000000,149.23634,69.847206
1987000000,149.36345,69.701736
1988000000,149.36113,69.541916
1989000000,148.88911,69.359879
1990000000,149.11519,69.333435
1991000000,148.88608,69.13633
1992000000,147.96547,68.874153
1993000000,148.59821,68.842972
1994000000,149.00456,68.708397
1995000000,148.01329,68.458229
1996000000,148.42719,68.289093
1997000000,148.0995,68.24305
1998000000,148.52235,68.167404
1999000000,147.92242,67.717705
2000000000,148.43564,67.634422
2001000000,148.40855,67.676559
2002000000,147.75912,67.307487
2003000000,147.52191,67.283073
2004000000,148.07439,67.260986
2005000000,147.40373,66.796494
2006000000,147.68373,66.783989
2007000000,147.90843,66.556694
2008000000,147.40404,66.530243
2009000000,147.46695,66.458252
2010000000,147.02405,66.201012
2011000000,146.86043,66.085907
2012000000,147.15955,65.982445
2013000000,146.70526,65.688744
2014000000,146.53012,65.623856
2015000000,146.49077,65.403755
2016000000,146.40762,65.411163
2017000000,146.82126,65.336563
2018000000,146.57443,65.071312
2019000000,146.66745,65.01239
2020000000,146.91653,65.010765
2021000000,146.03616,64.566437
2022000000,146.34918,64.647026
2023000000,146.35237,64.350266
2024000000,146.13908,64.368027
2025000000,145.95071,64.019119
2026000000,146.23199,64.0653
2027000000,146.22812,63.548599
2028000000,145.93312,63.601418
2029000000,145.95485,63.70092
2030000000,145.77306,63.395576
2031000000,145.62215,63.118687
2032000000,145.65007,63.061886
2033000000,145.53925,62.94173
2034000000,145.42703,62.646774
2035000000,145.23949,62.653
2036000000,145.3714,62.632488
2037000000,144.88672,62.266914
2038000000,145.08885,62.067547
2039000000,145.00854,62.033009
2040000000,144.71236,61.793823
2041000000,144.93842,61.667355
2042000000,144.91454,61.571472
2043000000,144.89806,61.300362
2044000000,144.7312,61.269535
2045000000,145.09166,61.25507
2046000000,144.18553,61.139324
2047000000,144.63719,60.814743
2048000000,144.78174,60.942379
2049000000,144.43422,60.366611
2050000000,144.70638,60.627117
2051000000,144.32845,60.273628
2052000000,143.97339,60.131039
2053000000,143.98117,59.856152
2054000000,144.17165,59.758507
2055000000,144.31744,59.816689
2056000000,143.97589,59.703442
2057000000,144.0459,59.488918
2058000000,143.50111,59.337563
2059000000,143.37184,59.077988
2060000000,143.84102,58.885822
2061000000,143.62399,58.722401
2062000000,143.34167,58.612984
2063000000,143.76421,58.590839
2064000000,143.21576,58.415855
2065000000,143.10017,58.148182
2066000000,143.20885,58.063507
2067000000,143.32254,58.100506
2068000000,142.57762,57.862713
2069000000,142.54546,57.592628
2070000000,142.79002,57.497379
2071000000,142.67197,57.369137
2072000000,142.68126,57.207829
2073000000,142.3212,56.879364
2074000000,142.26892,56.890877
2075000000,142.81857,56.692726
2076000000,142.31201,56.710854
2077000000,142.19342,56.597675
2078000000,142.32494,56.523674
2079000000,142.14117,56.046829
2080000000,141.98047,56.038578
2081000000,142.00554,55.976566
2082000000,142.1929,55.818855
2083000000,142.27258,55.622601
2084000000,142.24652,55.414398
2085000000,142.10298,55.494904
2086000000,142.06996,55.087585
2087000000,141.53162,55.031467
2088000000,141.14075,54.864933
2089000000,141.17715,54.689987
2090000000,141.71651,54.712524
2091000000,141.67143,54.50082
2092000000,141.96078,54.366776
2093000000,140.96368,54.190914
2094000000,141.12061,53.951
2095000000,141.34966,53.882744
2096000000,140.76762,53.608856
2097000000,140.78194,53.655334
2098000000,141.37904,53.437557
2099000000,141.16515,53.333279
2100000000,141.1895,53.251991
2101000000,141.10234,52.991985
2102000000,141.11568,52.89455
2103000000,140.64798,52.478821
2104000000,140.79597,52.649498
2105000000,140.70131,52.38636
2106000000,140.99461,52.368214
2107000000,140.6263,52.193371
2108000000,140.431,52.080559
2109000000,140.39542,51.745941
2110000000,139.87956,51.691662
2111000000,139.88576,51.379009
2112000000,139.98744,51.415157
2113000000,139.98979,51.053391
2114000000,139.83934,50.938614
2115000000,139.78085,50.90554
2116000000,139.65747,50.623032
2117000000,139.37111,50.718616
2118000000,139.35306,50.406075
2119000000,139.4836,50.297485
2120000000,139.85545,50.286095
2121000000,139.808,50.050949
2122000000,139.07777,49.845982
2123000000,139.48828,49.836273
2124000000,139.80669,49.678104
2125000000,139.2256,49.501713
2126000000,139.7688,49.353977
2127000000,139.39394,49.333687
2128000000,139.25409,49.151802
2129000000,138.90041,48.909683
2130000000,138.62688,48.764378
2131000000,139.12561,48.592216
2132000000,138.43414,48.595226
2133000000,138.88266,48.426079
2134000000,138.85497,48.202145
2135000000,138.64349,48.133144
2136000000,138.3596,48.058739
2137000000,138.67113,47.934608
2138000000,138.3089,47.715778
2139000000,138.61827,47.376358
2140000000,138.76347,47.30954
2141000000,138.21364,47.164635
2142000000,138.69914,46.943272
2143000000,138.13567,46.902966
2144000000,137.85661,46.745872
2145000000,137.98267,46.474426
2146000000,138.06729,46.309727
2147000000,137.46303,46.460388
2148000000,138.40474,46.290871
2149000000,137.52972,45.866348
2150000000,137.49547,45.923771
2151000000,138.21913,45.81078
2152000000,138.18744,45.802521
2153000000,138.25964,45.574986
2154000000,137.60181,45.195953
2155000000,137.43944,45.13538
2156000000,137.55038,45.018726
2157000000,137.49373,44.723858
2158000000,137.65858,44.816372
2159000000,137.74901,44.361092
2160000000,137.2798,44.412369
2161000000,137.0556,44.12569
2162000000,137.22331,43.943359
2163000000,137.73154,44.059963
2164000000,137.03787,43.954567
2165000000,137.09058,43.724697
2166000000,136.76082,43.425701
2167000000,137.2838,43.468605
2168000000,137.19847,43.339039
2169000000,136.75917,43.059643
2170000000,136.68007,42.915115
2171000000,136.58202,42.807762
2172000000,136.39218,42.569508
2173000000,136.25496,42.289467
2174000000,136.68024,42.338947
2175000000,136.22392,42.123722
2176000000,136.5802,41.924892
2177000000,136.13951,41.867279
2178000000,136.37634,41.799332
2179000000,136.20566,41.747688
2180000000,136.11401,41.602829
2181000000,136.03459,41.243851
2182000000,136.28102,41.146366
2183000000,135.59213,41.08934
2184000000,136.50612,41.041882
2185000000,135.69885,40.57069
2186000000,136.13411,40.560497
2187000000,135.98776,40.656807
2188000000,135.51997,40.347973
2189000000,135.89432,40.292015
2190000000,135.78751,40.066971
2191000000,135.47983,39.736237
2192000000,136.07581,39.66608
2193000000,135.62241,39.491673
2194000000,135.52925,39.574333
2195000000,136.01927,39.279125
2196000000,135.41835,38.97855
2197000000,135.69133,39.060699
2198000000,135.42378,38.894447
2199000000,135.6132,38.758278
2200000000,135.45302,38.598129
2201000000,135.42859,38.481884
2202000000,135.78082,38.354729
2203000000,135.42264,38.423985
2204000000,135.40501,37.998741
2205000000,135.11618,37.786037
2206000000,135.34491,37.891262
2207000000,134.61794,37.440552
2208000000,135.15106,37.497814
2209000000,135.04359,37.218796
2210000000,135.26865,37.130665
2211000000,135.31184,36.945602
2212000000,134.6469,36.827236
2213000000,134.58742,36.477261
2214000000,134.61642,36.524742
2215000000,134.99553,36.460381
2216000000,134.50105,36.231888
2217000000,134.60086,35.945782
2218000000,134.50372,36.078373
2219000000,134.47215,35.692001
2220000000,135.06108,35.865368
2221000000,134.44878,35.682575
2222000000,134.93416,35.449512
2223000000,134.22678,35.259365
2224000000,133.69131,35.010784
2225000000,133.91479,34.757259
2226000000,133.62053,34.670582
2227000000,133.78973,34.353241
2228000000,134.10011,34.458885
2229000000,133.92157,34.489254
2230000000,133.87613,34.143646
2231000000,133.79073,34.128578
2232000000,134.10445,33.955734
2233000000,133.41705,33.81279
2234000000,133.53716,33.446354
2235000000,134.16119,33.438328
2236000000,134.03391,33.289726
2237000000,133.56656,33.092159
2238000000,133.65584,32.904835
2239000000,133.44704,32.636829
2240000000,133.61449,32.748539
2241000000,133.80978,32.440998
2242000000,133.63214,32.513351
2243000000,133.5825,32.208691
2244000000,133.77182,32.115017
2245000000,133.63878,31.917856
2246000000,133.66452,31.905043
2247000000,133.40813,31.635155
2248000000,133.18849,31.457666
2249000000,133.61589,31.523369
2250000000,133.35703,31.280396
2251000000,133.55611,31.193146
2252000000,133.71935,30.84281
2253000000,133.32114,30.836386
2254000000,133.02411,30.637281
2255000000,132.51918,30.45026
2256000000,132.9068,30.424995
2257000000,133.06546,30.447208
2258000000,132.944,30.23049
2259000000,132.83917,29.820469
2260000000,133.05249,29.941891
2261000000,132.68033,29.824217
2262000000,132.79918,29.633869
2263000000,132.65146,29.235174
2264000000,132.82132,29.246529
2265000000,133.26613,29.1339
2266000000,132.51686,28.867241
2267000000,132.69589,28.478811
2268000000,132.45818,28.59482
2269000000,132.96304,28.439201
2270000000,132.81972,28.449526
2271000000,132.2309,28.114397
2272000000,132.74004,28.059189
2273000000,132.67326,27.913929
2274000000,132.26419,27.763735
2275000000,132.5652,27.627249
2276000000,132.18166,27.484165
2277000000,132.02136,27.375139
2278000000,132.33054,27.159374
2279000000,131.70537,26.892778
2280000000,132.12367,26.811613
2281000000,131.98094,26.448111
2282000000,131.65982,26.64682
2283000000,132.007,26.455128
2284000000,131.7364,26.325117
2285000000,132.01262,26.233793
2286000000,131.88745,26.057219
2287000000,131.66701,25.713547
2288000000,131.63039,25.862822
2289000000,131.87912,25.450523
2290000000,131.78311,25.45048
2291000000,131.84439,25.293619
2292000000,131.59573,25.012543
2293000000,131.79422,24.994144
2294000000,131.75523,24.863956
2295000000,131.56761,24.73296
2296000000,131.74741,24.477697
2297000000,131.30504,24.319323
2298000000,131.16843,24.37359
2299000000,131.15186,23.921803
2300000000,130.73119,23.834745
2301000000,131.3949,23.778118
2302000000,131.62964,23.686085
2303000000,131.10802,23.519815
2304000000,131.25711,23.472303
2305000000,131.19682,23.389317
2306000000,131.11285,23.198139
2307000000,131.18478,22.800453
2308000000,131.33044,22.896492
2309000000,131.19815,22.596601
2310000000,131.01315,22.281858
2311000000,131.67929,22.220619
2312000000,130.82213,22.047277
2313000000,130.79568,22.05827
2314000000,130.85239,21.734016
2315000000,130.89923,21.693722
2316000000,130.49274,21.36586
2317000000,131.0994,21.399668
2318000000,131.25529,21.310736
2319000000,130.85435,21.058035
2320000000,130.53064,21.023163
2321000000,131.10997,20.777411
2322000000,130.3951,20.431774
2323000000,131.06213,20.636002
2324000000,130.28461,20.311968
2325000000,130.68744,20.141853
2326000000,130.87361,20.278456
2327000000,130.53557,19.681263
2328000000,130.59787,19.73909
2329000000,130.15868,19.566521
2330000000,130.59467,19.570417
2331000000,130.10829,19.166512
2332000000,130.30429,19.352715
2333000000,130.18234,19.131742
2334000000,130.87202,19.088005
2335000000,130.58044,18.880859
2336000000,130.28662,18.543045
2337000000,129.66951,18.352787
2338000000,130.38713,18.188917
2339000000,130.3354,18.106543
2340000000,130.29652,18.131796
2341000000,130.1796,17.899437
2342000000,129.50386,17.637587
2343000000,129.59123,17.587152
2344000000,129.97597,17.311941
2345000000,130.29884,17.389589
2346000000,129.87347,17.189724
2347000000,130.25124,17.150427
2348000000,130.06366,16.846216
2349000000,129.52286,16.51071
2350000000,129.73311,16.657053
2351000000,129.6033,16.331827
2352000000,129.95316,16.211018
2353000000,129.78215,16.023439
2354000000,129.71617,16.212299
2355000000,130.01678,15.710559
2356000000,129.72581,15.622366
2357000000,129.73283,15.61383
2358000000,129.96986,15.347685
2359000000,129.70476,15.313228
2360000000,129.49191,15.014044
2361000000,129.28627,14.921121
2362000000,129.15146,14.815519
2363000000,129.5752,14.758282
2364000000,129.3373,14.48365
2365000000,129.26161,14.451113
2366000000,128.83896,14.048369
2367000000,129.21086,14.209316
2368000000,128.9682,13.993775
2369000000,129.12645,13.693925
2370000000,129.13834,13.573215
2371000000,129.05229,13.656475
2372000000,129.49362,13.487072
2373000000,128.75655,13.062402
2374000000,128.894,13.02479
2375000000,128.68336,13.030215
2376000000,128.85416,12.719299
2377000000,129.19421,12.763503
2378000000,128.88757,12.579116
2379000000,128.48985,12.447862
2380000000,128.62384,11.946463
2381000000,128.56053,11.971367
2382000000,128.39375,11.939605
2383000000,128.90651,11.844666
2384000000,127.83127,11.511086
2385000000,128.66544,11.550613
2386000000,128.86165,11.231407
2387000000,128.24159,11.143801
2388000000,128.53056,11.071342
2389000000,128.29745,10.646267
2390000000,128.35136,10.733368
2391000000,127.76749,10.416169
2392000000,128.00702,10.266044
2393000000,128.39253,10.250853
2394000000,127.7018,10.221329
2395000000,128.29596,9.9960556
2396000000,127.76309,9.7631302
2397000000,127.80182,9.9545918
2398000000,127.74386,9.6099653
2399000000,127.95543,9.3007336
2400000000,127.76194,9.094594
2401000000,128.10167,8.8683224
2402000000,128.05933,9.0076656
2403000000,127.76816,8.8935785
2404000000,127.62924,8.5579405
2405000000,127.4059,8.4838505
2406000000,127.96587,8.3675184
2407000000,127.49902,8.0524521
2408000000,127.41057,7.7969079
2409000000,127.41236,7.7857265
2410000000,127.59959,7.7271218
2411000000,126.92159,7.7333999
2412000000,127.62587,7.4887528
2413000000,126.79555,7.2780962
2414000000,127.26499,7.1792803
2415000000,127.03934,6.9304924
2416000000,127.19793,6.9643435
2417000000,126.38023,6.7386656
2418000000,127.13995,6.6098351
2419000000,127.64893,6.6018043
2420000000,126.72073,6.225265
2421000000,126.43679,6.0898819
2422000000,127.33871,5.7956257
2423000000,126.75509,5.8733034
2424000000,126.66013,5.6815066
2425000000,126.89024,5.6524658
2426000000,126.82055,5.2457395
2427000000,126.83553,5.3443904
2428000000,126.60419,5.1425104
2429000000,126.6525,5.0845752
2430000000,127.11705,4.8544893
2431000000,126.66169,4.6767712
2432000000,126.55731,4.6303682
2433000000,126.5411,4.33108
2434000000,126.88103,4.1909661
2435000000,126.55014,4.2568283
2436000000,127.14391,3.9134312
2437000000,126.82784,3.7971025
2438000000,126.62498,3.6415799
2439000000,126.39604,3.3214591
2440000000,126.15448,3.1450953
2441000000,126.27359,3.0088847
2442000000,126.72531,3.0328484
2443000000,127.01468,3.0056589
2444000000,126.53147,2.9108603
2445000000,125.47067,2.223583
2446000000,126.34685,2.3440728
2447000000,126.40888,2.4231234
2448000000,126.02354,2.0736597
2449000000,126.07998,2.0609956
2450000000,125.998,1.8038183
2451000000,125.79352,1.718273
2452000000,125.59556,1.5998079
2453000000,126.0511,1.4418181
2454000000,125.41622,1.3478724
2455000000,126.01308,1.1204144
2456000000,125.40193,1.1732883
2457000000,125.77248,0.9602769
2458000000,125.43763,0.69667941
2459000000,125.85554,0.60913599
2460000000,126.27366,0.39339694
2461000000,125.41472,0.28416204
2462000000,125.72054,0.083580203
2463000000,125.46338,-0.21868122
2464000000,126.20623,-0.34669474
2465000000,125.77373,-0.55059797
2466000000,125.64961,-0.57593101
2467000000,125.71404,-0.65242749
2468000000,125.77319,-0.52687913
2469000000,125.30153,-0.63604069
2470000000,125.32561,-0.97730017
2471000000,125.80169,-1.0499092
2472000000,126.09175,-1.3204679
2473000000,125.98174,-1.5891207
2474000000,126.02091,-1.7698036
2475000000,125.58176,-1.7779007
2476000000,125.69408,-1.8979318
2477000000,126.13905,-2.1872315
2478000000,125.77086,-2.2634437
2479000000,125.79739,-2.4430182
2480000000,126.06424,-2.5074327
2481000000,125.6838,-2.6906717
2482000000,126.19944,-2.8563881
2483000000,125.67609,-2.8383279
2484000000,125.74806,-3.1785185
2485000000,125.73025,-3.3599076
2486000000,125.98784,-3.3159428
2487000000,125.62617,-3.5653875
2488000000,125.98635,-3.5459552
2489000000,126.11067,-3.8173637
2490000000,125.99364,-4.0109482
2491000000,125.67329,-4.2111082
2492000000,126.29879,-4.4206562
2493000000,125.33846,-4.5011158
2494000000,125.75101,-4.51689
2495000000,125.49229,-4.9160242
2496000000,126.06012,-4.8756804
2497000000,125.70618,-5.1073027
2498000000,125.90752,-5.0886049
2499000000,125.14465,-5.5103211
2500000000,126.11746,-5.5388389
2501000000,125.74406,-5.6730709
2502000000,125.25372,-5.9238639
2503000000,125.81677,-5.8149233
2504000000,126.06322,-5.9952526
2505000000,124.91022,-6.4274907
2506000000,125.79075,-6.3268118
2507000000,125.59801,-6.8062205
2508000000,125.37302,-6.9446392
2509000000,126.57298,-6.7646484
2510000000,125.6763,-6.7975302
2511000000,125.70172,-7.0925488
2512000000,126.69364,-7.409029
2513000000,125.67891,-7.5600667
2514000000,125.64944,-7.3451862
2515000000,125.33156,-7.9801607
2516000000,125.46385,-7.6947827
2517000000,126.20309,-8.2574501
2518000000,125.4523,-8.2320538
2519000000,126.16718,-8.1912575
2520000000,125.86485,-8.6665154
2521000000,125.66716,-8.736146
2522000000,125.49043,-8.6152887
2523000000,126.10677,-8.9799948
2524000000,125.70099,-9.0879059
2525000000,126.04624,-9.5097923
2526000000,125.62392,-9.3383694
2527000000,125.88136,-9.2202606
2528000000,125.93794,-9.5922604
2529000000,125.85023,-9.91014
2530000000,125.83065,-9.8576612
2531000000,125.69425,-9.8421221
2532000000,125.6629,-10.178877
2533000000,126.19093,-10.268889
2534000000,125.73552,-10.359048
2535000000,126.46804,-10.512211
2536000000,125.90118,-10.78129
2537000000,126.18871,-10.824777
2538000000,126.11386,-11.076734
2539000000,126.0333,-11.185287
2540000000,125.93732,-11.416903
2541000000,126.37952,-11.460247
2542000000,126.57378,-11.831544
2543000000,127.0162,-11.875515
2544000000,126.28296,-12.214188
2545000000,126.67871,-12.030024
2546000000,126.38908,-12.341857
2547000000,126.29057,-12.423212
2548000000,126.60677,-12.718663
2549000000,126.70997,-12.780096
2550000000,126.68742,-12.798144
2551000000,127.36189,-12.838295
2552000000,126.28696,-13.152827
2553000000,126.00135,-13.515559
2554000000,126.28087,-13.625882
2555000000,127.17576,-13.555466
2556000000,127.20235,-13.592613
2557000000,126.97307,-13.844748
2558000000,126.85254,-14.124434
2559000000,126.97613,-14.194126
2560000000,127.08408,-14.358504
2561000000,126.74574,-14.505717
2562000000,126.95383,-14.671694
2563000000,126.38882,-14.706439
2564000000,127.06184,-14.955071
2565000000,127.96693,-14.972557
2566000000,127.42712,-15.299658
2567000000,127.61433,-15.402349
2568000000,126.71545,-15.544242
2569000000,128.451,-15.785597
2570000000,128.24379,-15.76508
2571000000,127.14223,-15.881054
2572000000,127.27267,-16.195301
2573000000,127.80913,-16.22909
2574000000,127.1986,-16.310238
2575000000,128.52072,-16.587023
2576000000,128.06773,-16.704971
2577000000,127.73951,-16.956694
2578000000,127.30882,-16.992048
2579000000,127.10687,-16.96137
2580000000,127.9072,-17.378866
2581000000,128.10674,-17.220724
2582000000,127.61989,-17.708229
2583000000,127.85994,-17.707771
2584000000,128.13161,-17.958969
2585000000,128.90077,-18.061247
2586000000,128.57487,-18.007572
2587000000,128.31096,-18.230659
2588000000,129.43309,-18.346889
2589000000,129.54828,-18.586401
2590000000,129.2303,-18.711506
2591000000,128.9212,-18.853191
2592000000,129.45145,-19.282242
2593000000,129.0197,-19.055668
2594000000,129.60797,-19.281197
2595000000,129.91362,-19.619045
2596000000,129.42323,-19.679602
2597000000,129.69109,-19.817797
2598000000,130.06818,-20.044336
2599000000,129.21945,-20.221973
2600000000,129.83299,-20.235708
2601000000,129.94524,-20.503298
2602000000,129.61147,-20.469067
2603000000,130.21852,-20.806389
2604000000,130.34322,-20.731073
2605000000,131.25964,-21.092148
2606000000,130.63069,-21.253757
2607000000,131.22701,-21.102156
2608000000,130.6759,-21.27039
2609000000,131.11676,-21.370975
2610000000,130.77705,-21.697439
2611000000,130.92427,-22.074751
2612000000,131.63072,-22.009232
2613000000,132.04968,-22.063992
2614000000,132.08727,-22.174633
2615000000,131.68202,-22.371428
2616000000,130.76605,-22.7241
2617000000,131.30678,-22.753439
2618000000,131.73547,-22.847649
2619000000,131.83673,-23.016125
2620000000,131.94469,-23.132545
2621000000,131.32611,-23.288652
2622000000,131.45338,-23.200859
2623000000,131.87137,-23.568718
2624000000,131.71056,-23.694559
2625000000,132.43556,-23.889334
2626000000,132.19847,-24.200935
2627000000,131.81462,-24.151651
2628000000,133.44353,-24.295538
2629000000,132.46997,-24.506569
2630000000,132.52393,-24.335615
2631000000,131.99004,-24.813467
2632000000,133.01064,-25.050098
2633000000,133.44357,-24.930151
2634000000,132.77916,-25.183195
2635000000,132.14598,-25.560583
2636000000,133.51889,-25.497469
2637000000,132.98001,-25.415596
2638000000,134.06503,-25.884233
2639000000,133.73103,-26.033779
2640000000,134.41258,-26.102884
2641000000,134.60008,-26.165047
2642000000,134.07864,-26.206236
2643000000,134.50157,-26.556774
2644000000,134.63548,-26.746326
2645000000,134.40479,-26.726711
2646000000,134.11316,-26.961941
2647000000,134.11813,-27.216356
2648000000,135.27792,-27.167397
2649000000,134.67082,-27.45632
2650000000,135.3696,-27.489538
2651000000,136.35936,-27.52906
2652000000,135.81581,-28.09683
2653000000,136.48257,-28.019066
2654000000,136.14665,-28.117743
2655000000,136.33102,-28.29874
2656000000,135.42976,-28.434217
2657000000,136.68297,-28.653244
2658000000,136.65097,-28.776995
2659000000,137.40167,-28.895313
2660000000,137.0688,-28.9209
2661000000,136.99023,-29.36161
2662000000,138.2756,-29.281055
2663000000,137.59998,-29.402807
2664000000,138.64529,-29.512728
2665000000,137.95869,-29.757448
2666000000,137.83801,-29.994184
2667000000,139.43233,-30.162287
2668000000,138.12007,-30.527237
2669000000,137.71538,-30.490601
2670000000,137.77481,-30.573977
2671000000,139.60274,-30.569553
2672000000,140.1512,-30.941887
2673000000,138.3107,-31.026712
2674000000,139.24559,-31.150833
2675000000,138.96101,-31.058886
2676000000,138.54947,-31.441107
2677000000,139.25204,-31.42075
2678000000,140.89651,-31.591173
2679000000,139.17197,-32.017212
2680000000,139.24992,-31.925373
2681000000,139.77505,-32.006504
2682000000,140.78468,-32.335018
2683000000,141.80328,-32.720451
2684000000,140.68968,-32.476738
2685000000,139.91853,-32.772934
2686000000,139.68437,-33.084435
2687000000,141.04836,-33.079746
2688000000,141.79549,-33.241638
2689000000,141.60701,-33.20369
2690000000,142.94742,-33.589397
2691000000,142.43413,-33.668633
2692000000,142.08771,-33.882904
2693000000,142.52428,-33.978577
2694000000,142.15056,-34.034271
2695000000,143.20721,-34.210098
2696000000,142.73657,-34.214939
2697000000,142.02481,-34.374912
2698000000,143.20659,-34.7925
2699000000,143.65459,-34.855984
2700000000,144.50476,-35.127411
2701000000,143.1971,-34.850536
2702000000,143.71933,-35.289982
2703000000,145.35718,-35.587856
2704000000,145.55682,-35.5424
2705000000,144.1553,-35.558094
2706000000,144.85487,-35.922222
2707000000,145.79482,-36.083817
2708000000,144.83836,-36.282253
2709000000,146.4205,-36.314758
2710000000,146.80196,-36.493908
2711000000,148.40717,-36.378754
2712000000,147.27094,-36.619591
2713000000,148.11836,-36.890274
2714000000,147.20398,-37.023247
2715000000,147.89597,-37.314751
2716000000,149.50803,-37.318104
2717000000,150.97517,-37.217049
2718000000,147.73309,-37.586933
2719000000,148.73436,-37.681019
2720000000,148.90598,-37.982613
2721000000,148.40698,-38.076614
2722000000,149.33516,-38.210831
2723000000,148.69217,-38.497223
2724000000,149.66165,-38.605179
2725000000,149.55042,-38.430847
2726000000,151.8571,-38.729618
2727000000,149.80415,-38.857754
2728000000,151.29411,-39.163342
2729000000,152.83183,-39.190826
2730000000,150.06934,-39.444565
2731000000,154.22064,-39.439659
2732000000,150.49963,-39.789165
2733000000,153.51666,-39.932976
2734000000,153.5247,-39.976814
2735000000,153.15428,-40.155262
2736000000,154.06473,-40.185165
2737000000,152.10866,-40.33815
2738000000,154.03023,-40.61871
2739000000,153.40953,-40.613159
2740000000,154.87001,-40.67767
2741000000,154.73834,-40.901737
2742000000,152.13283,-41.109627
2743000000,155.33315,-41.170128
2744000000,154.53131,-41.314629
2745000000,157.48616,-41.676922
2746000000,154.29355,-41.663643
2747000000,155.53572,-41.862743
2748000000,157.73323,-42.075691
2749000000,155.79878,-42.268814
2750000000,159.29663,-42.29752
2751000000,158.67497,-42.522526
2752000000,160.84969,-42.733601
2753000000,159.04128,-42.847038
2754000000,161.04068,-43.036392
2755000000,159.54773,-43.186085
2756000000,160.771,-43.317638
2757000000,160.46825,-43.247143
2758000000,159.77147,-43.408447
2759000000,162.30855,-43.59296
2760000000,161.84348,-43.928692
2761000000,164.33795,-43.960178
2762000000,161.54001,-43.809395
2763000000,164.33752,-44.269562
2764000000,164.1295,-44.406094
2765000000,165.06711,-44.601116
2766000000,165.55096,-44.723461
2767000000,165.20596,-44.904694
2768000000,166.30698,-45.085636
2769000000,167.87376,-45.116962
2770000000,167.51761,-45.164131
2771000000,167.84427,-45.358898
2772000000,167.54552,-45.777706
2773000000,168.38696,-45.780247
2774000000,171.37439,-45.801868
2775000000,169.64487,-45.887482
2776000000,170.70515,-46.000828
2777000000,170.5627,-46.328121
2778000000,172.27028,-46.558792
2779000000,170.4687,-46.662743
2780000000,171.5954,-46.707359
2781000000,173.59749,-46.77964
2782000000,174.14873,-46.952206
2783000000,176.18201,-47.117634
2784000000,172.65137,-47.369705
2785000000,174.45882,-47.40456
2786000000,176.12254,-47.501122
2787000000,177.17587,-47.660255
2788000000,174.41797,-47.993645
2789000000,179.05188,-47.921459
2790000000,179.29527,-48.120949
2791000000,178.01965,-48.274944
2792000000,178.58315,-48.544743
2793000000,-179.89433,-48.622608
2794000000,-179.35428,-48.653706
2795000000,177.08202,-49.064816
2796000000,-176.92601,-49.092133
2797000000,178.74907,-49.228645
2798000000,-178.43372,-49.31152
2799000000,-179.13718,-49.519451
2800000000,-177.99602,-49.796623
2801000000,179.00867,-49.864902
2802000000,-177.56863,-50.010235
2803000000,-175.733,-50.184517
2804000000,-176.09476,-50.387478
2805000000,-173.48029,-50.459015
2806000000,-174.83493,-50.64653
2807000000,-175.15672,-50.951553
2808000000,-175.07642,-50.834541
2809000000,-170.8127,-51.029617
2810000000,-172.68228,-51.298611
2811000000,-172.20526,-51.300663
2812000000,-169.90219,-51.171917
2813000000,-170.56271,-51.834415
2814000000,-171.74252,-51.824703
2815000000,-169.80656,-52.055244
2816000000,-170.44572,-52.153465
2817000000,-169.68806,-52.24194
2818000000,-165.8167,-52.37825
2819000000,-168.34137,-52.584671
2820000000,-166.42212,-52.653545
2821000000,-166.49843,-52.793114
2822000000,-165.64136,-52.946182
2823000000,-165.15002,-52.983261
2824000000,-166.92522,-53.303486
2825000000,-162.93767,-53.596024
2826000000,-162.88147,-53.668362
2827000000,-162.8835,-53.467991
2828000000,-162.36497,-53.995701
2829000000,-162.40694,-54.010971
2830000000,-162.39502,-54.216537
2831000000,-163.14551,-54.353867
2832000000,-159.75894,-54.506767
2833000000,-158.44287,-54.589737
2834000000,-160.33978,-54.803722
2835000000,-158.35306,-55.04974
2836000000,-159.49229,-54.96986
2837000000,-159.1563,-55.244995
2838000000,-157.07816,-55.23494
2839000000,-157.63077,-55.253849
2840000000,-155.70775,-55.650108
2841000000,-157.48836,-55.720444
2842000000,-156.45479,-55.841618
2843000000,-156.24658,-56.169338
2844000000,-152.36105,-56.261913
2845000000,-156.76477,-56.431713
2846000000,-154.55034,-56.390182
2847000000,-152.41942,-56.838806
2848000000,-152.8522,-56.861374
2849000000,-153.1963,-57.00774
2850000000,-150.96518,-57.098938
2851000000,-150.23564,-57.301899
2852000000,-151.03365,-57.299843
2853000000,-152.3719,-57.615223
2854000000,-152.23755,-57.495911
2855000000,-149.26396,-57.805031
2856000000,-149.0831,-57.955475
2857000000,-149.43713,-58.324741
2858000000,-150.59927,-58.412735
2859000000,-149.83238,-58.355995
2860000000,-146.77594,-58.410118
2861000000,-151.5808,-58.750523
2862000000,-149.71455,-58.918388
2863000000,-148.15157,-59.195145
2864000000,-146.24371,-59.078403
2865000000,-145.59566,-59.32729
2866000000,-146.36345,-59.398788
2867000000,-146.07434,-59.600784
2868000000,-145.94614,-59.899399
2869000000,-144.60501,-59.942142
2870000000,-142.44243,-59.857605
2871000000,-144.7439,-60.227707
2872000000,-144.07683,-60.592079
2873000000,-143.25778,-60.477673
2874000000,-144.9109,-60.509766
2875000000,-143.20937,-60.967041
2876000000,-140.19899,-60.863392
2877000000,-141.04791,-61.11047
2878000000,-142.19571,-61.293175
2879000000,-141.16992,-61.445477
2880000000,-139.92583,-61.65506
2881000000,-140.99155,-61.626217
2882000000,-141.81067,-61.88818
2883000000,-141.8336,-62.024231
2884000000,-140.51135,-62.238209
2885000000,-139.03404,-62.171757
2886000000,-139.04318,-62.460003
2887000000,-142.09653,-62.734058
2888000000,-140.38353,-62.697041
2889000000,-140.63937,-63.144039
2890000000,-140.59406,-63.068676
2891000000,-137.80835,-63.284813
2892000000,-139.09962,-63.4487
2893000000,-140.01813,-63.483234
2894000000,-139.89308,-63.690205
2895000000,-138.83141,-63.857189
2896000000,-138.16675,-64.007164
2897000000,-135.43347,-64.066048
2898000000,-135.84599,-64.139763
2899000000,-136.50522,-64.439163
2900000000,-137.25072,-64.645226
2901000000,-136.3909,-64.672211
2902000000,-135.52483,-64.785675
2903000000,-139.51939,-65.033813
2904000000,-136.13274,-65.06395
2905000000,-134.04953,-65.253967
2906000000,-137.25903,-65.49939
2907000000,-135.8268,-65.493408
2908000000,-132.89461,-65.742867
2909000000,-134.08176,-65.991135
2910000000,-134.72112,-66.107353
2911000000,-134.2027,-65.99939
2912000000,-133.54169,-66.210815
2913000000,-133.91042,-66.503609
2914000000,-133.80396,-66.707893
2915000000,-135.02634,-66.956184
2916000000,-133.62505,-66.947975
2917000000,-132.52982,-67.039589
2918000000,-133.71844,-67.06469
2919000000,-132.01024,-67.21524
2920000000,-132.10898,-67.505562
2921000000,-134.9308,-67.782768
2922000000,-133.23595,-67.683815
2923000000,-133.88672,-67.872322
2924000000,-132.37889,-68.085526
2925000000,-133.95473,-68.231873
2926000000,-133.1501,-68.247864
2927000000,-133.22746,-68.522903
2928000000,-131.80052,-68.579224
2929000000,-131.32268,-68.857063
2930000000,-131.86996,-69.127739
2931000000,-132.65309,-69.083092
2932000000,-133.22,-69.419762
2933000000,-130.98419,-69.428329
2934000000,-131.97853,-69.640068
2935000000,-131.14417,-69.786209
2936000000,-131.21484,-69.879242
2937000000,-131.06943,-70.062233
2938000000,-130.53477,-70.185822
2939000000,-129.81636,-70.231308
2940000000,-131.99182,-70.612747
2941000000,-131.40674,-70.490921
2942000000,-129.18443,-70.642464
2943000000,-129.96252,-70.888382
2944000000,-129.68037,-71.001427
2945000000,-128.10274,-71.192268
2946000000,-129.94838,-71.293518
2947000000,-130.53328,-71.441231
2948000000,-130.33513,-71.676041
2949000000,-129.16507,-71.860817
2950000000,-128.02844,-71.918793
2951000000,-129.81075,-72.052094
2952000000,-129.26056,-72.290771
2953000000,-128.73907,-72.501007
2954000000,-128.5843,-72.681267
2955000000,-127.27268,-72.561554
2956000000,-127.6924,-72.824135
2957000000,-129.70615,-72.954765
2958000000,-127.80598,-73.030617
2959000000,-129.44009,-73.391403
2960000000,-127.77106,-73.492546
2961000000,-127.13027,-73.446289
2962000000,-129.15291,-73.743507
2963000000,-130.01341,-74.072327
2964000000,-126.46751,-73.873047
2965000000,-128.75134,-73.99614
2966000000,-128.37766,-74.386276
2967000000,-127.27372,-74.45118
2968000000,-127.77118,-74.556458
2969000000,-128.54872,-74.620148
2970000000,-128.26698,-75.070496
2971000000,-126.56776,-74.923737
2972000000,-126.23489,-75.128654
2973000000,-127.84753,-75.443291
2974000000,-127.81349,-75.541992
2975000000,-127.51193,-75.544098
2976000000,-127.91192,-75.788177
2977000000,-127.7762,-76.02317
2978000000,-128.62816,-76.083847
2979000000,-128.77554,-76.281281
2980000000,-126.6191,-76.484604
2981000000,-126.10757,-76.60228
2982000000,-127.29727,-76.718246
2983000000,-126.56207,-76.855896
2984000000,-128.03737,-77.013077
2985000000,-127.15811,-77.084793
2986000000,-127.46593,-77.229042
2987000000,-127.62798,-77.520676
2988000000,-127.55688,-77.523422
2989000000,-128.1147,-77.480751
2990000000,-126.61709,-77.905602
2991000000,-128.10536,-78.229187
2992000000,-126.56592,-78.003464
2993000000,-126.28293,-78.198257
2994000000,-126.59595,-78.409576
2995000000,-126.96756,-78.643562
2996000000,-126.88262,-78.874268
2997000000,-127.02196,-78.798225
2998000000,-126.98708,-79.297737
2999000000,-127.85591,-79.18885
3000000000,-126.09203,-79.364586
3001000000,-126.09144,-79.509918
3002000000,-126.10559,-79.668579
3003000000,-126.26732,-79.776207
3004000000,-126.54196,-79.936607
3005000000,-125.36512,-80.157509
3006000000,-126.42207,-80.254051
3007000000,-125.86006,-80.37619
3008000000,-125.60509,-80.525902
3009000000,-127.25633,-80.692085
3010000000,-124.73143,-80.904121
3011000000,-125.56261,-80.890053
3012000000,-124.26044,-81.014389
3013000000,-126.56879,-81.312927
3014000000,-126.33214,-81.311371
3015000000,-125.15421,-81.660751
3016000000,-126.41589,-81.707596
3017000000,-125.90144,-81.873199
3018000000,-124.68355,-81.89959
3019000000,-125.31107,-82.321266
3020000000,-126.1191,-82.389816
3021000000,-126.06859,-82.574562
3022000000,-124.31189,-82.432793
3023000000,-126.68643,-82.805679
3024000000,-126.1955,-82.873878
3025000000,-125.64526,-83.073669
3026000000,-125.13076,-82.958862
3027000000,-125.89619,-83.544792
3028000000,-126.13557,-83.51667
3029000000,-125.4292,-83.588097
3030000000,-124.80994,-83.823174
3031000000,-125.37248,-83.825142
3032000000,-125.6314,-84.214317
3033000000,-127.48843,-84.318069
3034000000,-124.98748,-84.406067
3035000000,-125.15852,-84.448723
3036000000,-124.54507,-84.626816
3037000000,-126.46441,-84.94062
3038000000,-125.54803,-84.980507
3039000000,-125.29557,-84.920937
3040000000,-124.78587,-85.228424
3041000000,-124.87514,-85.312553
3042000000,-126.03902,-85.593384
3043000000,-125.81347,-85.818893
3044000000,-127.15097,-86.02179
3045000000,-125.41373,-85.830475
3046000000,-126.60983,-86.236755
3047000000,-126.367,-86.226082
3048000000,-125.19972,-86.339394
3049000000,-125.18659,-86.627945
3050000000,-126.79696,-86.773239
3051000000,-126.22279,-86.872429
3052000000,-126.29982,-87.00499
3053000000,-125.64156,-87.379929
3054000000,-126.76865,-87.377991
3055000000,-124.13831,-87.485825
3056000000,-125.93188,-87.53363
3057000000,-125.35252,-87.632652
3058000000,-126.1434,-87.754036
3059000000,-125.50567,-88.026581
3060000000,-125.48844,-88.227226
3061000000,-125.52895,-88.305969
3062000000,-123.72111,-88.259583
3063000000,-124.26625,-88.632164
3064000000,-124.82565,-88.785095
3065000000,-125.25245,-88.966415
3066000000,-125.11524,-89.093559
3067000000,-124.97482,-89.136749
3068000000,-126.34567,-89.478333
3069000000,-125.42236,-89.591454
3070000000,-125.53921,-89.867706
3071000000,-125.56754,-89.927559
3072000000,-124.68751,-89.955727
3073000000,-126.51557,-90.342514
3074000000,-126.74356,-90.407532
3075000000,-126.13786,-90.528175
3076000000,-126.2303,-90.533752
3077000000,-126.10626,-90.610008
3078000000,-126.23374,-90.900932
3079000000,-126.40681,-90.886215
3080000000,-125.86229,-91.386154
3081000000,-126.52106,-91.293594
3082000000,-126.45743,-91.25386
3083000000,-125.69434,-91.649437
3084000000,-126.10603,-91.709526
3085000000,-126.42494,-91.940933
3086000000,-126.24349,-92.369408
3087000000,-128.15753,-92.389854
3088000000,-126.38799,-92.512337
3089000000,-127.18993,-92.568474
3090000000,-125.64151,-92.704361
3091000000,-126.68679,-92.799171
3092000000,-126.76386,-92.912453
3093000000,-125.95888,-92.955376
3094000000,-127.01174,-93.203857
3095000000,-126.68809,-93.364441
3096000000,-125.84517,-93.321609
3097000000,-125.9291,-93.751076
3098000000,-126.45499,-93.932549
3099000000,-127.61974,-94.119377
3100000000,-126.50129,-93.964836
3101000000,-127.18816,-94.455231
3102000000,-126.72272,-94.327553
3103000000,-126.24483,-94.503357
3104000000,-125.37763,-94.672821
3105000000,-126.75851,-94.995567
3106000000,-127.43677,-95.107948
3107000000,-126.0891,-95.207687
3108000000,-126.97977,-95.302429
3109000000,-126.5129,-95.597244
3110000000,-127.10746,-95.679298
3111000000,-125.80523,-95.642067
3112000000,-126.87373,-95.934402
3113000000,-126.56886,-96.124222
3114000000,-125.70847,-95.953857
3115000000,-127.7089,-96.314644
3116000000,-126.15965,-96.462791
3117000000,-127.0593,-96.665405
3118000000,-126.43481,-96.738007
3119000000,-126.31773,-96.854149
3120000000,-126.4615,-97.038055
3121000000,-127.45589,-97.411697
3122000000,-126.70544,-97.284546
3123000000,-126.34116,-97.469849
3124000000,-126.9791,-97.538322
3125000000,-126.84343,-97.842613
3126000000,-127.78795,-98.054817
3127000000,-127.28653,-98.202301
3128000000,-126.58935,-98.258644
3129000000,-127.09687,-98.575577
3130000000,-127.13336,-98.401566
3131000000,-127.52436,-98.638145
3132000000,-127.07907,-99.041313
3133000000,-128.31526,-98.974319
3134000000,-126.44713,-99.042992
3135000000,-126.77741,-99.056274
3136000000,-126.94127,-99.573967
3137000000,-128.20898,-99.482773
3138000000,-127.13584,-99.510284
3139000000,-127.38618,-99.926735
3140000000,-127.67546,-99.968628
3141000000,-127.4573,-100.25819
3142000000,-128.36769,-100.44042
3143000000,-126.99619,-100.44543
3144000000,-128.54256,-100.52293
3145000000,-128.37515,-100.72669
3146000000,-127.12825,-100.78407
3147000000,-128.18819,-100.99635
3148000000,-128.71443,-101.33389
3149000000,-128.80205,-101.42817
3150000000,-127.96561,-101.55733
3151000000,-128.20271,-101.6361
3152000000,-128.93396,-101.90478
3153000000,-128.52142,-102.01346
3154000000,-128.82036,-102.15121
3155000000,-128.34793,-102.26636
3156000000,-128.96089,-102.37001
3157000000,-128.27205,-102.43244
3158000000,-128.75507,-102.68009
3159000000,-128.82542,-102.94975
3160000000,-129.44043,-103.13599
3161000000,-128.14665,-102.99855
3162000000,-129.22507,-103.13461
3163000000,-128.23849,-103.35201
3164000000,-129.4958,-103.42491
3165000000,-128.64771,-103.68419
3166000000,-128.66806,-103.84881
3167000000,-129.20735,-103.91827
3168000000,-128.41675,-104.10889
3169000000,-129.8943,-104.51765
3170000000,-128.55489,-104.48705
3171000000,-128.91438,-104.4799
3172000000,-128.93164,-104.89101
3173000000,-127.82669,-104.85859
3174000000,-129.24026,-105.0689
3175000000,-128.86832,-105.35596
3176000000,-129.41719,-105.43143
3177000000,-128.39525,-105.54559
3178000000,-128.99962,-105.8989
3179000000,-129.27087,-105.84214
3180000000,-129.00369,-105.93595
3181000000,-129.33707,-106.01827
3182000000,-130.27942,-106.31018
3183000000,-129.61383,-106.2952
3184000000,-128.97305,-106.50912
3185000000,-129.82152,-106.74561
3186000000,-128.98056,-106.87924
3187000000,-129.11287,-106.97819
3188000000,-129.21973,-107.21008
3189000000,-129.3315,-107.12502
3190000000,-128.86212,-107.17068
3191000000,-129.13342,-107.4782
3192000000,-129.93927,-107.6021
3193000000,-129.62146,-107.76854
3194000000,-130.26732,-108.04725
3195000000,-130.16052,-108.12495
3196000000,-130.13904,-108.37398
3197000000,-129.69867,-108.45598
3198000000,-130.31088,-108.75159
3199000000,-129.80864,-108.7411
3200000000,-130.50958,-108.96073
3201000000,-130.05339,-109.02219
3202000000,-130.4162,-109.2706
3203000000,-129.80515,-109.2702
3204000000,-130.69542,-109.5277
3205000000,-129.56944,-109.51251
3206000000,-130.30992,-109.75239
3207000000,-130.40987,-109.86318
3208000000,-129.39005,-110.1172
3209000000,-131.10193,-110.25622
3210000000,-131.03889,-110.45143
3211000000,-130.89166,-110.37454
3212000000,-130.81047,-110.83088
3213000000,-131.24844,-110.96695
3214000000,-131.35463,-111.01659
3215000000,-130.46059,-111.05759
3216000000,-130.90784,-111.30071
3217000000,-130.72162,-111.33273
3218000000,-130.98984,-111.63296
3219000000,-130.50984,-111.69929
3220000000,-131.36047,-111.84216
3221000000,-131.55092,-112.03141
3222000000,-130.94044,-112.28177
3223000000,-131.06563,-112.2068
3224000000,-130.65977,-112.43027
3225000000,-130.66087,-112.64628
3226000000,-130.94563,-112.63165
3227000000,-130.85117,-112.98621
3228000000,-131.21913,-112.90999
3229000000,-131.13007,-113.13746
3230000000,-131.14182,-113.48719
3231000000,-131.7097,-113.56013
3232000000,-131.61983,-113.66357
3233000000,-131.48909,-114.03427
3234000000,-131.86365,-113.72621
3235000000,-132.02437,-113.96293
3236000000,-131.79366,-114.16015
3237000000,-131.5677,-114.34676
3238000000,-132.08954,-114.53597
3239000000,-131.20587,-114.62064
3240000000,-132.04601,-114.49114
3241000000,-131.6774,-114.94602
3242000000,-131.75777,-114.87743
3243000000,-131.82553,-115.41325
3244000000,-132.08508,-115.3712
3245000000,-132.08469,-115.63367
3246000000,-131.81371,-115.66843
3247000000,-132.25867,-115.63311
3248000000,-133.1524,-115.91318
3249000000,-133.19675,-115.98901
3250000000,-132.41704,-116.37254
3251000000,-133.54422,-116.49603
3252000000,-133.34204,-116.76677
3253000000,-133.05939,-116.90536
3254000000,-132.46709,-116.81358
3255000000,-133.50226,-117.07698
3256000000,-132.80284,-117.22528
3257000000,-133.42659,-117.27742
3258000000,-133.52032,-117.50032
3259000000,-134.48238,-117.67064
3260000000,-134.04382,-117.69103
3261000000,-132.85809,-117.92187
3262000000,-133.30339,-117.87103
3263000000,-133.66422,-118.29604
3264000000,-133.36421,-118.16045
3265000000,-134.05586,-118.40451
3266000000,-133.25378,-118.53235
3267000000,-133.90434,-118.67241
3268000000,-133.68709,-118.95082
3269000000,-133.95505,-119.0792
3270000000,-133.51372,-119.28514
3271000000,-134.14063,-119.43867
3272000000,-133.62286,-119.45513
3273000000,-134.1494,-119.6799
3274000000,-133.92088,-119.70238
3275000000,-133.89883,-119.96754
3276000000,-133.8875,-120.07734
3277000000,-133.73332,-120.20332
3278000000,-133.92871,-120.50349
3279000000,-134.36787,-120.69235
3280000000,-134.15819,-120.63982
3281000000,-135.25224,-121.09509
3282000000,-134.43941,-120.90345
3283000000,-134.15242,-120.95047
3284000000,-133.94038,-121.40175
3285000000,-135.29655,-121.33174
3286000000,-134.91127,-121.61333
3287000000,-135.08363,-121.48037
3288000000,-134.29277,-121.98001
3289000000,-134.96513,-122.12061
3290000000,-135.39078,-122.23368
3291000000,-134.99277,-122.10302
3292000000,-135.58994,-122.50634
3293000000,-134.67714,-122.44095
3294000000,-135.91278,-122.84421
3295000000,-135.61507,-123.07273
3296000000,-136.24585,-122.79874
3297000000,-134.83719,-122.9184
3298000000,-135.92419,-123.21573
3299000000,-135.91722,-123.4043
3300000000,-136.6506,-123.72443
3301000000,-136.15846,-124.02665
3302000000,-135.96033,-123.96175
3303000000,-136.59653,-124.40125
3304000000,-135.71576,-124.20535
3305000000,-137.22089,-124.61154
3306000000,-136.60507,-124.56792
3307000000,-136.40227,-124.45815
3308000000,-136.39662,-124.88531
3309000000,-136.43181,-125.13307
3310000000,-136.75446,-124.99538
3311000000,-136.94656,-125.31817
3312000000,-136.80992,-125.37262
3313000000,-136.52597,-125.64642
3314000000,-136.64737,-125.76621
3315000000,-137.03534,-125.84413
3316000000,-137.74008,-126.06348
3317000000,-137.76994,-126.04102
3318000000,-137.64822,-126.23187
3319000000,-137.10229,-126.56847
3320000000,-137.86893,-126.65555
3321000000,-138.34041,-126.58748
3322000000,-137.85626,-127.02251
3323000000,-136.80588,-127.00446
3324000000,-138.00639,-127.21741
3325000000,-137.51787,-127.33104
3326000000,-137.35518,-127.44382
3327000000,-138.4859,-127.64792
3328000000,-137.20816,-127.73322
3329000000,-138.17914,-127.88625
3330000000,-137.04831,-128.10901
3331000000,-138.0824,-127.99317
3332000000,-137.49481,-128.33675
3333000000,-138.09834,-128.68475
3334000000,-139.06018,-128.56154
3335000000,-137.65924,-128.98088
3336000000,-137.37088,-128.79587
3337000000,-138.16989,-129.09669
3338000000,-138.31706,-129.20786
3339000000,-138.14644,-129.56607
3340000000,-137.44701,-129.59341
3341000000,-138.35597,-129.54373
3342000000,-138.91249,-129.98744
3343000000,-138.13527,-129.93076
3344000000,-138.99364,-129.98024
3345000000,-138.24553,-130.32883
3346000000,-139.32564,-130.45648
3347000000,-138.56242,-130.36125
3348000000,-139.44627,-130.66229
3349000000,-139.79582,-130.89456
3350000000,-139.7278,-130.97127
3351000000,-139.36115,-131.32626
3352000000,-139.63594,-131.48775
3353000000,-139.21016,-131.34808
3354000000,-139.60245,-131.58823
3355000000,-140.31116,-131.69002
3356000000,-140.42476,-131.87297
3357000000,-140.06047,-132.26193
3358000000,-139.87549,-132.30713
3359000000,-140.62247,-132.41148
3360000000,-140.52422,-132.53444
3361000000,-139.92773,-132.67705
3362000000,-141.51416,-132.65895
3363000000,-140.26086,-132.80327
3364000000,-141.39128,-132.92311
3365000000,-139.99736,-133.36124
3366000000,-141.47943,-133.51927
3367000000,-141.42334,-133.55122
3368000000,-141.1985,-133.70847
3369000000,-141.5813,-133.80975
3370000000,-139.81985,-133.90508
3371000000,-141.06116,-134.0135
3372000000,-141.9429,-134.34665
3373000000,-140.93019,-134.29454
3374000000,-141.50961,-134.71994
3375000000,-142.36475,-134.49744
3376000000,-141.73727,-134.95238
3377000000,-141.38107,-135.00243
3378000000,-142.66563,-135.18773
3379000000,-141.45085,-135.16713
3380000000,-141.94919,-135.59279
3381000000,-142.63275,-135.47928
3382000000,-142.65129,-135.74538
3383000000,-142.22813,-136.00346
3384000000,-142.63054,-136.05737
3385000000,-142.4346,-136.36754
3386000000,-142.32607,-136.23174
3387000000,-141.31129,-136.61919
3388000000,-142.18713,-136.63927
3389000000,-142.75235,-136.76044
3390000000,-142.32556,-136.85204
3391000000,-143.17052,-137.12555
3392000000,-142.67331,-137.28853
3393000000,-143.51321,-137.30701
3394000000,-142.98473,-137.55878
3395000000,-143.47783,-137.50743
3396000000,-143.97255,-137.83926
3397000000,-143.4173,-138.13585
3398000000,-144.22765,-138.03056
3399000000,-143.05956,-138.31746
3400000000,-143.67978,-138.4165
3401000000,-143.942,-138.47517
3402000000,-144.25067,-138.72824
3403000000,-143.99083,-138.7115
3404000000,-143.63353,-139.05933
3405000000,-144.45461,-139.28308
3406000000,-144.55328,-139.22012
3407000000,-143.7805,-139.42807
3408000000,-145.12477,-139.63487
3409000000,-145.10822,-139.69652
3410000000,-144.47702,-139.90021
3411000000,-144.83188,-140.01726
3412000000,-144.04727,-140.15442
3413000000,-143.85046,-140.31029
3414000000,-145.59067,-140.41989
3415000000,-143.90729,-140.79205
3416000000,-144.25163,-140.81429
3417000000,-145.28285,-140.99559
3418000000,-146.32715,-141.16016
3419000000,-146.46313,-141.45309
3420000000,-144.88878,-141.37624
3421000000,-145.80801,-141.55711
3422000000,-145.79134,-141.86066
3423000000,-145.72849,-141.78651
3424000000,-146.4332,-142.0071
3425000000,-145.44395,-142.08278
3426000000,-146.3143,-142.07201
3427000000,-145.63461,-142.39177
3428000000,-145.97859,-142.57408
3429000000,-145.53416,-142.69319
3430000000,-147.12892,-142.90176
3431000000,-146.65152,-143.05533
3432000000,-145.72331,-143.09958
3433000000,-146.52806,-143.36153
3434000000,-147.00412,-143.30644
3435000000,-147.43732,-143.48987
3436000000,-147.3956,-143.81853
3437000000,-147.95874,-143.89377
3438000000,-147.02411,-143.90099
3439000000,-147.92618,-144.28578
3440000000,-147.38698,-144.28377
3441000000,-148.81165,-144.44533
3442000000,-147.5946,-144.69789
3443000000,-147.78896,-144.78944
3444000000,-147.13162,-144.91513
3445000000,-147.71152,-145.09105
3446000000,-148.56859,-145.1992
3447000000,-148.12653,-145.63332
3448000000,-148.0175,-145.2953
3449000000,-148.16251,-145.57146
3450000000,-147.92296,-145.81149
3451000000,-148.38217,-145.80009
3452000000,-148.88641,-146.30157
3453000000,-149.24937,-146.27728
3454000000,-148.13762,-146.44638
3455000000,-148.92088,-146.47403
3456000000,-148.30298,-146.8255
3457000000,-148.41089,-146.56161
3458000000,-147.4817,-147.04123
3459000000,-148.40074,-146.96669
3460000000,-149.5399,-147.33972
3461000000,-148.75717,-147.48947
3462000000,-149.60074,-147.50412
3463000000,-149.42668,-147.96785
3464000000,-150.3232,-147.97003
3465000000,-149.86836,-147.99272
3466000000,-149.51563,-148.08611
3467000000,-150.50127,-148.38861
3468000000,-150.31421,-148.47423
3469000000,-149.41777,-148.64439
3470000000,-149.70717,-148.79182
3471000000,-150.58427,-148.91931
3472000000,-149.68661,-149.02042
3473000000,-150.37448,-149.08943
3474000000,-150.97499,-149.33281
3475000000,-151.23947,-149.39925
3476000000,-151.1201,-149.58369
3477000000,-150.77061,-149.74655
3478000000,-151.75012,-150.01315
3479000000,-150.90887,-150.17671
3480000000,-150.86127,-150.16646
3481000000,-151.10889,-150.31175
3482000000,-151.20465,-150.26317
3483000000,-152.21547,-150.76266
3484000000,-150.83878,-150.75639
3485000000,-151.23073,-150.70265
3486000000,-151.20107,-151.23621
3487000000,-151.05644,-151.47299
3488000000,-151.92386,-151.33725
3489000000,-151.40318,-151.47522
3490000000,-151.88409,-151.66475
3491000000,-151.39586,-151.89967
3492000000,-151.49228,-151.99861
3493000000,-151.61429,-152.3252
3494000000,-152.4229,-152.34422
3495000000,-152.02699,-152.47505
3496000000,-152.2157,-152.65924
3497000000,-152.99994,-152.47115
3498000000,-153.25529,-152.90417
3499000000,-152.82536,-153.06729
3500000000,-151.86053,-153.14452
3501000000,-153.05583,-153.18147
3502000000,-153.59232,-153.54909
3503000000,-153.63406,-153.44475
3504000000,-152.44476,-153.94473
3505000000,-152.09332,-154.04512
3506000000,-154.09277,-154.08264
3507000000,-152.60207,-154.07013
3508000000,-154.20557,-154.22614
3509000000,-153.78212,-154.47462
3510000000,-153.32121,-154.50632
3511000000,-152.97571,-154.74654
3512000000,-153.99475,-154.99455
3513000000,-153.85704,-155.09268
3514000000,-154.55043,-155.25035
3515000000,-154.18889,-155.66412
3516000000,-154.0416,-155.56786
3517000000,-154.10886,-155.54813
3518000000,-153.84161,-155.98618
3519000000,-155.78706,-155.99284
3520000000,-153.9975,-155.99432
3521000000,-154.75694,-156.2796
3522000000,-153.72459,-156.38742
3523000000,-154.75807,-156.47664
3524000000,-154.14941,-156.87581
3525000000,-155.9165,-156.81758
3526000000,-155.91258,-157.03828
3527000000,-154.88646,-157.00569
3528000000,-154.47076,-157.47801
3529000000,-154.51622,-157.44629
3530000000,-155.54259,-157.53587
3531000000,-154.66624,-157.92569
3532000000,-155.52588,-157.8268
3533000000,-156.02975,-158.0372
3534000000,-155.60323,-158.36829
3535000000,-156.99962,-158.39261
3536000000,-155.20961,-158.62778
3537000000,-157.70169,-158.54912
3538000000,-156.75519,-158.80461
3539000000,-156.98438,-158.95824
3540000000,-155.84607,-159.15019
3541000000,-156.09134,-159.11084
3542000000,-157.71202,-159.32161
3543000000,-155.73305,-159.67407
3544000000,-155.47925,-159.82738
3545000000,-158.17542,-159.64754
3546000000,-156.85036,-159.85535
3547000000,-155.56244,-160.21472
3548000000,-156.3064,-160.2708
3549000000,-157.6521,-160.25883
3550000000,-158.55112,-160.4612
3551000000,-157.3428,-160.63486
3552000000,-157.43193,-160.82001
3553000000,-158.2845,-161.05566
3554000000,-157.33165,-161.23822
3555000000,-157.85252,-161.19128
3556000000,-157.75702,-161.30658
3557000000,-157.73529,-161.38242
3558000000,-158.52058,-161.76062
3559000000,-158.15817,-161.79123
3560000000,-158.59396,-162.09508
3561000000,-158.59596,-162.12138
3562000000,-157.96689,-162.45998
3563000000,-158.88995,-162.40845
3564000000,-159.05954,-162.65681
3565000000,-158.50427,-162.89622
3566000000,-158.51413,-162.93198
3567000000,-159.10857,-162.93295
3568000000,-159.33076,-163.20775
3569000000,-159.41422,-163.43762
3570000000,-159.17186,-163.54337
3571000000,-159.02336,-163.63376
3572000000,-159.71207,-163.89255
3573000000,-161.60849,-163.80444
3574000000,-160.14113,-164.078
3575000000,-158.77977,-164.33232
3576000000,-159.45308,-164.70161
3577000000,-159.23143,-164.48154
3578000000,-159.64224,-164.72301
3579000000,-160.84599,-164.77826
3580000000,-159.77399,-165.05646
3581000000,-159.68106,-165.24757
3582000000,-160.3031,-165.26195
3583000000,-159.97462,-165.59914
3584000000,-159.68761,-165.73706
3585000000,-160.27472,-165.84204
3586000000,-159.6767,-165.89996
3587000000,-160.65544,-165.81635
3588000000,-161.19148,-166.29846
3589000000,-160.85889,-166.29329
3590000000,-160.62907,-166.4444
3591000000,-161.24471,-166.55397
3592000000,-161.2002,-166.78522
3593000000,-161.16551,-166.86041
3594000000,-161.97459,-166.98918
3595000000,-161.96855,-167.23013
3596000000,-162.17865,-167.48242
3597000000,-162.1843,-167.55664
3598000000,-162.64679,-167.68362
3599000000,-161.99554,-167.95293
3600000000,-162.41519,-168.2067
3601000000,-162.3287,-168.0761
3602000000,-161.99132,-168.43044
3603000000,-162.43813,-168.57681
3604000000,-162.44261,-168.58687
3605000000,-163.17941,-168.80743
3606000000,-162.70558,-168.87152
3607000000,-162.29926,-169.14909
3608000000,-162.85168,-169.17233
3609000000,-164.26643,-169.21683
3610000000,-163.07851,-169.38976
3611000000,-163.54298,-169.50096
3612000000,-163.6916,-169.92542
3613000000,-162.86372,-169.88123
3614000000,-163.73071,-169.95523
3615000000,-164.1846,-170.18925
3616000000,-164.08244,-170.44838
3617000000,-164.60109,-170.42215
3618000000,-163.82539,-170.75807
3619000000,-164.51259,-170.90698
3620000000,-164.79089,-170.8432
3621000000,-165.22102,-170.97893
3622000000,-166.12582,-171.21617
3623000000,-164.79324,-171.32716
3624000000,-165.30283,-171.70689
3625000000,-165.24559,-171.74815
3626000000,-165.8248,-171.6803
3627000000,-165.7187,-171.8699
3628000000,-165.61301,-172.09593
3629000000,-165.11073,-172.33629
3630000000,-165.04173,-172.54236
3631000000,-165.08234,-172.59694
3632000000,-165.76746,-172.80336
3633000000,-166.45224,-172.73546
3634000000,-166.12656,-173.07874
3635000000,-165.78978,-173.23605
3636000000,-166.43346,-173.43758
3637000000,-165.66809,-173.55688
3638000000,-166.93428,-173.69579
3639000000,-168.63446,-173.7182
3640000000,-166.65697,-174.01443
3641000000,-168.46013,-173.92154
3642000000,-167.15147,-174.27557
3643000000,-168.02048,-174.39043
3644000000,-167.82053,-174.68771
3645000000,-168.55017,-174.578
3646000000,-167.3781,-174.94273
3647000000,-168.28532,-175.07178
3648000000,-169.11493,-175.09703
3649000000,-168.97841,-175.2229
3650000000,-167.49303,-175.44728
3651000000,-167.81334,-175.53065
3652000000,-168.96518,-175.72342
3653000000,-169.28252,-175.83456
3654000000,-170.20207,-175.94315
3655000000,-168.46989,-176.12563
3656000000,-168.80705,-176.37727
3657000000,-167.84827,-176.45476
3658000000,-167.7448,-176.8208
3659000000,-169.29659,-176.90683
3660000000,-170.44405,-176.68587
3661000000,-170.37021,-176.96397
3662000000,-170.5499,-177.14757
3663000000,-170.66933,-177.32909
3664000000,-170.4025,-177.30179
3665000000,-170.39207,-177.69899
3666000000,-171.642,-177.70705
3667000000,-170.73701,-177.87442
3668000000,-170.56842,-178.0995
3669000000,-170.28831,-178.19699
3670000000,-171.96338,-178.39027
3671000000,-172.17923,-178.56665
3672000000,-172.14897,-178.57979
3673000000,-172.29958,-178.62277
3674000000,-173.50926,-178.90921
3675000000,-171.6368,-179.09964
3676000000,-172.57347,-179.13148
3677000000,-171.86925,-179.35374
3678000000,-172.95943,-179.60475
3679000000,-172.55273,-179.75446
3680000000,-172.34647,-179.93701
3681000000,-173.93004,179.98827
3682000000,-171.97343,179.72865
3683000000,-173.65332,179.66499
3684000000,-174.15601,179.71167
3685000000,-173.39185,179.42227
3686000000,-174.11569,179.34741
3687000000,-173.33836,179.07635
3688000000,-173.35509,178.93642
3689000000,-173.99603,178.8221
3690000000,-173.47923,178.66998
3691000000,-174.95081,178.59586
3692000000,-175.77039,178.58765
3693000000,-174.9091,178.25237
3694000000,-175.22523,177.96741
3695000000,-175.55649,177.91939
3696000000,-175.46857,177.91148
3697000000,-176.18575,177.73341
3698000000,-175.98523,177.51353
3699000000,-177.95406,177.44962
3700000000,-177.3795,177.13945
3701000000,-177.92024,177.05684
3702000000,-174.91586,176.77032
3703000000,-175.90446,176.76398
3704000000,-177.01009,176.62709
3705000000,-175.72455,176.31419
3706000000,-175.87253,176.25099
3707000000,-178.46852,176.14131
3708000000,-178.76746,175.96095
3709000000,-179.27017,175.92325
3710000000,-179.30193,175.70837
3711000000,-178.70018,175.6644
3712000000,-177.06445,175.24355
3713000000,-178.82257,175.22554
3714000000,-178.86871,175.11639
3715000000,-179.91408,175.04736
3716000000,179.47345,174.70113
3717000000,179.84169,174.63409
3718000000,179.76443,174.46675
3719000000,179.84416,174.40276
3720000000,178.09244,174.23061
3721000000,177.64044,174.06891
3722000000,176.52565,174.05597
3723000000,178.13892,173.70883
3724000000,176.89702,173.6378
3725000000,174.04063,173.66299
3726000000,175.94142,173.32921
3727000000,176.965,173.27315
3728000000,174.76358,173.10542
3729000000,174.3974,172.95462
3730000000,175.76653,172.71201
3731000000,172.0128,172.64871
3732000000,172.13127,172.62154
3733000000,176.07356,172.29268
3734000000,171.57637,172.36378
3735000000,177.40822,171.8678
3736000000,171.04987,171.95557
3737000000,168.80238,171.98943
3738000000,171.59808,171.46632
3739000000,172.70259,171.526
3740000000,171.73466,171.27492
3741000000,171.33138,171.12123
3742000000,173.52141,170.99741
3743000000,168.77588,170.84392
3744000000,164.84093,170.71104
3745000000,173.13554,170.45886
3746000000,168.51895,170.21852
3747000000,164.51665,170.2598
3748000000,165.63258,170.23959
3749000000,170.14746,169.9424
3750000000,166.52577,169.72188
3751000000,158.0862,169.6913
3752000000,161.54506,169.50035
3753000000,158.8656,169.42679
3754000000,158.07518,169.14482
3755000000,153.39542,169.02466
3756000000,159.95624,168.84358
3757000000,165.16446,168.53455
3758000000,149.27896,168.68884
3759000000,155.90048,168.37801
3760000000,143.9554,168.32759
3761000000,153.72159,167.9519
3762000000,143.96989,167.97992
3763000000,145.3875,167.7572
3764000000,141.40071,167.5885
3765000000,135.82617,167.38615
3766000000,132.694,167.30991
3767000000,127.74171,167.21132
3768000000,124.06368,167.0883
3769000000,122.51017,166.88721
3770000000,106.06406,166.85992
3771000000,104.96468,166.62012
3772000000,97.008789,166.40741
3773000000,89.662186,166.38429
3774000000,80.727409,166.18546
3775000000,88.438072,165.9738
3776000000,66.079865,166.08229
3777000000,68.740456,165.79965
3778000000,65.571266,165.62767
3779000000,53.791901,165.42589
3780000000,67.112373,165.28598
3781000000,38.11388,165.05034
3782000000,38.126663,165.03323
3783000000,38.962681,164.85698
3784000000,35.650108,164.60574
3785000000,44.148258,164.51508
3786000000,39.66095,164.46021
3787000000,30.00038,164.1579
3788000000,29.939438,164.23277
3789000000,35.580776,163.9352
3790000000,30.969717,163.8217
3791000000,33.140923,163.73288
3792000000,30.017538,163.69881
3793000000,26.508202,163.40932
3794000000,23.034359,163.18401
3795000000,27.100471,163.11044
3796000000,16.888638,162.98161
3797000000,17.906975,162.73347
3798000000,27.693506,162.73541
3799000000,24.494493,162.58336
3800000000,16.587706,162.45447
3801000000,15.208177,162.12871
3802000000,16.679634,161.97597
3803000000,16.301317,161.88354
3804000000,18.460062,161.85767
3805000000,17.87566,161.78198
3806000000,13.2822,161.44577
3807000000,13.452468,161.2957
3808000000,8.2328691,160.95795
3809000000,13.895325,161.01456
3810000000,7.056478,160.81528
3811000000,10.514798,160.69748
3812000000,8.8336515,160.48714
3813000000,8.2646408,160.39763
3814000000,6.7081795,160.16052
3815000000,5.3994079,159.90508
3816000000,3.9807777,159.886
3817000000,7.1427774,159.77589
3818000000,9.0440454,159.79236
3819000000,4.4866266,159.45755
3820000000,1.8849961,159.33759
3821000000,7.9719048,159.41049
3822000000,2.3252513,159.00986
3823000000,5.8018365,159.00792
3824000000,0.78110701,158.62717
3825000000,4.1800303,158.67679
3826000000,-0.25380898,158.34753
3827000000,2.7100272,158.43134
3828000000,1.1617275,158.19997
3829000000,4.2540603,158.20892
3830000000,2.2224741,157.7883
3831000000,0.20566535,157.791
3832000000,3.7888467,157.74396
3833000000,-0.91395843,157.54727
3834000000,1.1338384,157.30699
3835000000,2.0874527,157.08282
3836000000,3.4495435,157.03018
3837000000,-2.4056921,156.60759
3838000000,-0.59753972,156.67444
3839000000,1.3068315,156.51392
3840000000,-0.62538981,156.45724
3841000000,-0.51142448,156.05769
3842000000,-3.5289524,156.05205
3843000000,-2.638932,155.82109
3844000000,-2.4012351,155.75304
3845000000,-1.6716143,155.54227
3846000000,-1.9835241,155.48322
3847000000,0.075460851,155.56461
3848000000,-2.8656015,155.09137
3849000000,-3.3005342,154.87831
3850000000,-5.1145811,154.75296
3851000000,-2.1276021,154.80779
3852000000,-3.7901967,154.62381
3853000000,-4.571116,154.38727
3854000000,-3.8271813,154.47566
3855000000,-5.6964827,154.11043
3856000000,-2.6664453,154.11026
3857000000,-6.8233237,153.70404
3858000000,-6.8574586,153.6105
3859000000,-4.7408257,153.74333
3860000000,-9.4408379,153.17741
3861000000,-7.0983195,153.25441
3862000000,-7.5892463,153.1241
3863000000,-9.6615124,152.8445
3864000000,-9.8779554,152.60713
3865000000,-8.2597132,152.63858
3866000000,-6.1107287,152.52313
3867000000,-9.5141411,152.26933
3868000000,-8.6961145,152.12958
3869000000,-12.065614,151.76013
3870000000,-9.2743788,151.77795
3871000000,-12.2094,151.64778
3872000000,-11.867219,151.52798
3873000000,-8.3647308,151.51393
3874000000,-11.95911,151.18245
3875000000,-10.223508,151.1449
3876000000,-12.136246,151.00078
3877000000,-11.392587,150.6747
3878000000,-12.487829,150.58965
3879000000,-11.357543,150.51572
3880000000,-10.725118,150.5278
3881000000,-10.854795,150.12585
3882000000,-11.748042,150.02693
3883000000,-11.892919,150.08897
3884000000,-12.262589,149.74515
3885000000,-12.817678,149.6964
3886000000,-13.069716,149.43188
3887000000,-14.100966,149.32652
3888000000,-10.980941,149.22284
3889000000,-13.354396,148.92383
3890000000,-13.432611,148.81418
3891000000,-13.035501,148.81944
3892000000,-13.517263,148.58842
3893000000,-14.373194,148.29865
3894000000,-13.152513,148.31352
3895000000,-14.371536,148.02005
3896000000,-15.141792,147.93365
3897000000,-15.726096,147.61021
3898000000,-15.34912,147.61256
3899000000,-14.757546,147.46307
3900000000,-15.67866,147.21884
3901000000,-14.153683,147.33401
3902000000,-16.548597,146.91638
3903000000,-16.093884,146.74031
3904000000,-14.969475,146.87224
3905000000,-14.401387,146.58354
3906000000,-17.192188,146.29681
3907000000,-14.960381,146.47318
3908000000,-18.217155,145.98767
3909000000,-18.813543,145.96329
3910000000,-15.954288,145.99214
3911000000,-17.314808,145.72778
3912000000,-18.829121,145.35529
3913000000,-17.207153,145.46985
3914000000,-19.19631,145.27513
3915000000,-16.803249,145.24466
3916000000,-17.589111,144.92744
3917000000,-17.335739,144.89713
3918000000,-18.250334,144.7346
3919000000,-18.737774,144.4451
3920000000,-17.93713,144.16924
3921000000,-19.338934,144.19304
3922000000,-18.214413,144.13733
3923000000,-19.307014,144.01343
3924000000,-19.26539,143.75258
3925000000,-19.960724,143.66484
3926000000,-20.304319,143.42418
3927000000,-20.14728,143.14052
3928000000,-19.651039,143.20303
3929000000,-20.114334,142.92296
3930000000,-22.342569,142.80923
3931000000,-19.200682,142.86183
3932000000,-20.999491,142.40752
3933000000,-20.208429,142.34511
3934000000,-20.244686,142.29591
3935000000,-20.187868,142.08647
3936000000,-19.663939,141.93225
3937000000,-21.964165,141.65208
3938000000,-21.588499,141.66026
3939000000,-21.571777,141.45058
3940000000,-22.132969,141.26714
3941000000,-21.656839,141.15387
3942000000,-21.813816,140.98227
3943000000,-22.171118,140.96599
3944000000,-21.870842,140.70557
3945000000,-20.32909,140.55222
3946000000,-23.165792,140.38412
3947000000,-22.045708,140.39574
3948000000,-21.979908,140.15735
3949000000,-22.831375,139.86464
3950000000,-22.192825,139.70087
3951000000,-22.237675,139.7597
3952000000,-22.851883,139.60095
3953000000,-23.166636,139.30217
3954000000,-22.84585,139.1886
3955000000,-23.386993,139.02872
3956000000,-23.682529,138.76874
3957000000,-22.919857,138.89438
3958000000,-23.967541,138.62288
3959000000,-22.351946,138.64091
3960000000,-22.948984,138.34956
3961000000,-22.188496,138.28578
3962000000,-22.187437,138.19006
3963000000,-23.502253,137.9805
3964000000,-21.526447,137.94304
3965000000,-23.787941,137.6132
3966000000,-24.883642,137.48103
3967000000,-24.82205,137.27078
3968000000,-24.769236,137.18294
3969000000,-23.410524,137.03397
3970000000,-24.550186,136.90111
3971000000,-26.332132,136.76022
3972000000,-24.821325,136.70604
3973000000,-23.390505,136.52556
3974000000,-24.397736,136.37206
3975000000,-26.353758,135.96356
3976000000,-26.056704,135.8558
3977000000,-24.794008,135.87059
3978000000,-26.810875,135.72841
3979000000,-27.880224,135.59909
3980000000,-26.128065,135.42119
3981000000,-25.845343,135.29996
3982000000,-25.822578,135.03477
3983000000,-26.381655,134.7711
3984000000,-27.934547,134.61369
3985000000,-26.725805,134.51903
3986000000,-27.142937,134.37869
3987000000,-27.158741,134.27457
3988000000,-26.785259,134.24438
3989000000,-27.244011,134.05519
3990000000,-27.448254,133.8593
3991000000,-26.432346,133.71661
3992000000,-27.646339,133.63423
3993000000,-26.778639,133.39948
3994000000,-26.994349,133.29919
3995000000,-27.343441,133.17996
3996000000,-27.820677,132.89052
3997000000,-27.364582,132.85512
3998000000,-26.83931,132.75352
3999000000,-28.423632,132.4066
4000000000,-28.414856,132.49495
4001000000,-28.294794,132.23393
4002000000,-27.982611,132.24182
4003000000,-27.879406,131.92343
4004000000,-28.487137,131.63329
4005000000,-28.074738,131.56731
4006000000,-28.598986,131.41624
4007000000,-27.771839,131.37193
4008000000,-28.225824,131.16277
4009000000,-28.761541,131.2243
4010000000,-28.57626,131.0322
4011000000,-28.766424,130.87447
4012000000,-29.44553,130.5284
4013000000,-29.782814,130.33549
4014000000,-28.990366,130.37009
4015000000,-29.438765,130.13948
4016000000,-29.464596,130.01637
4017000000,-29.726559,129.8996
4018000000,-29.948044,129.87025
4019000000,-29.578337,129.59273
4020000000,-28.663166,129.4305
4021000000,-29.873516,129.23293
4022000000,-30.63373,129.11281
4023000000,-30.718195,128.93259
4024000000,-29.584435,128.82289
4025000000,-31.006218,128.63528
4026000000,-30.68104,128.48845
4027000000,-30.96106,128.33939
4028000000,-29.615763,128.37256
4029000000,-31.510715,128.06459
4030000000,-32.19532,127.71246
4031000000,-30.195147,127.93376
4032000000,-31.359035,127.59336
4033000000,-31.972488,127.5564
4034000000,-31.23801,127.33282
4035000000,-31.595949,127.16609
4036000000,-29.902962,127.23173
4037000000,-31.551973,126.86617
4038000000,-31.64576,126.77714
4039000000,-31.380404,126.55565
4040000000,-31.607899,126.50829
4041000000,-31.407383,126.30473
4042000000,-33.226025,126.05457
4043000000,-32.632553,125.99399
4044000000,-32.206585,125.81133
4045000000,-32.212219,125.64001
4046000000,-32.214207,125.48733
4047000000,-32.410469,125.25542
4048000000,-32.530277,125.25729
4049000000,-32.034302,125.09938
4050000000,-33.464417,124.82294
4051000000,-32.591167,124.70762
4052000000,-31.688435,124.58597
4053000000,-32.757168,124.43386
4054000000,-32.829937,124.19749
4055000000,-33.368294,124.13298
4056000000,-33.56596,123.89917
4057000000,-32.516781,124.02921
4058000000,-32.657833,123.67179
4059000000,-32.883598,123.51182
4060000000,-33.562824,123.59399
4061000000,-33.938126,123.18686
4062000000,-33.357353,123.14065
4063000000,-34.375412,122.95768
4064000000,-32.65015,122.97892
4065000000,-32.776318,122.91907
4066000000,-33.554123,122.57743
4067000000,-33.169109,122.44667
4068000000,-33.300087,122.29582
4069000000,-34.260338,122.09299
4070000000,-34.034641,122.01458
4071000000,-35.013733,121.73309
4072000000,-33.441669,121.68505
4073000000,-34.648308,121.53906
4074000000,-34.632496,121.333
4075000000,-35.682289,120.9987
4076000000,-34.349949,120.91506
4077000000,-33.49678,120.92443
4078000000,-34.204819,120.93513
4079000000,-35.116222,120.62155
4080000000,-34.800587,120.43749
4081000000,-35.003571,120.31422
4082000000,-34.911232,120.13919
4083000000,-35.246498,120.02503
4084000000,-35.276066,119.79076
4085000000,-35.059704,119.80339
4086000000,-34.554863,119.69453
4087000000,-34.568829,119.55791
4088000000,-35.544788,119.2306
4089000000,-35.515568,118.99945
4090000000,-35.615898,119.02128
4091000000,-35.915447,118.75809
4092000000,-35.540894,118.67326
4093000000,-35.870407,118.50491
4094000000,-35.2658,118.50373
4095000000,-36.591637,118.04066
4096000000,-36.183693,118.06362
4097000000,-35.944508,117.91901
4098000000,-36.887337,117.585
4099000000,-36.015427,117.68716
4100000000,-36.860344,117.40916
4101000000,-37.24778,117.41952
4102000000,-36.478569,117.30785
4103000000,-36.337929,117.06771
4104000000,-36.582405,116.95962
4105000000,-36.878246,116.81159
4106000000,-36.662598,116.70442
4107000000,-36.175983,116.62413
4108000000,-37.120766,116.1507
4109000000,-36.099823,116.44877
4110000000,-37.235146,115.91859
4111000000,-36.509361,115.8564
4112000000,-37.238068,115.57587
4113000000,-36.768032,115.8467
4114000000,-36.967171,115.49291
4115000000,-36.982597,115.3824
4116000000,-36.434147,115.10577
4117000000,-37.250275,114.96293
4118000000,-37.314774,114.76098
4119000000,-37.782471,114.76553
4120000000,-36.513248,114.66386
4121000000,-37.572254,114.32565
4122000000,-37.914722,114.24612
4123000000,-37.219891,114.08994
4124000000,-38.049858,113.88476
4125000000,-37.408588,113.9395
4126000000,-37.404209,113.64275
4127000000,-38.977959,113.49805
4128000000,-38.997482,113.3595
4129000000,-38.160942,113.2684
4130000000,-37.620743,113.01865
4131000000,-38.604275,112.89502
4132000000,-38.366798,112.60506
4133000000,-38.788612,112.57182
4134000000,-38.651245,112.38329
4135000000,-38.608452,112.38429
4136000000,-38.955368,112.24006
4137000000,-39.948532,112.00948
4138000000,-39.252987,111.7884
4139000000,-38.851559,111.87494
4140000000,-39.83049,111.6582
4141000000,-39.423279,111.41667
4142000000,-39.405518,111.24838
4143000000,-39.174515,111.16288
4144000000,-39.849514,110.95837
4145000000,-40.513115,110.67649
4146000000,-40.58342,110.62313
4147000000,-39.294392,110.61564
4148000000,-39.672611,110.38702
4149000000,-40.494625,110.23882
4150000000,-40.811844,110.08531
4151000000,-41.437267,109.73036
4152000000,-40.205364,110.02483
4153000000,-40.227505,109.68045
4154000000,-41.165928,109.57671
4155000000,-41.048321,109.37805
4156000000,-41.606129,109.16284
4157000000,-41.156384,109.01884
4158000000,-41.20409,108.92594
4159000000,-40.96944,108.69229
4160000000,-41.179844,108.64552
4161000000,-41.875797,108.27783
4162000000,-42.246059,108.35966
4163000000,-41.446182,108.36308
4164000000,-40.387409,107.99361
4165000000,-42.074001,107.90479
4166000000,-41.730743,107.79984
4167000000,-41.656616,107.58462
4168000000,-42.565189,107.46398
4169000000,-41.985943,107.19025
4170000000,-42.05529,107.11606
4171000000,-42.120037,106.97726
4172000000,-42.747318,106.62892
4173000000,-42.727203,106.61748
4174000000,-43.578785,106.56624
4175000000,-43.668266,106.38424
4176000000,-44.064293,106.00945
4177000000,-43.048481,106.11778
4178000000,-43.625687,105.89854
4179000000,-43.92704,105.73811
4180000000,-43.358444,105.53883
4181000000,-42.972519,105.38125
4182000000,-43.078369,105.34946
4183000000,-44.264004,105.07423
4184000000,-44.196465,105.12813
4185000000,-44.266178,104.9529
4186000000,-44.942451,104.6953
4187000000,-44.376801,104.52959
4188000000,-44.207436,104.37646
4189000000,-44.793579,104.26436
4190000000,-44.805134,104.16084
4191000000,-45.306355,103.61612
4192000000,-45.202057,103.99514
4193000000,-45.458233,103.70369
4194000000,-45.294308,103.49077
4195000000,-45.135044,103.46897
4196000000,-45.484638,103.28229
4197000000,-45.532146,102.93795
4198000000,-44.297489,103.13815
4199000000,-45.797543,102.91814
4200000000,-45.83009,102.50959
4201000000,-45.602589,102.47082
4202000000,-45.350986,102.45026
4203000000,-46.727123,102.27201
4204000000,-46.386608,102.04064
4205000000,-46.131329,101.95503
4206000000,-46.532722,101.67658
4207000000,-46.710957,101.43294
4208000000,-46.169704,101.42037
4209000000,-47.088219,101.34566
4210000000,-47.064281,101.0913
4211000000,-46.981586,101.06865
4212000000,-46.84129,100.94911
4213000000,-46.945724,100.80603
4214000000,-47.016823,100.45841
4215000000,-46.862621,100.35885
4216000000,-47.298183,100.32954
4217000000,-46.952641,100.15582
4218000000,-47.712803,99.786163
4219000000,-46.979603,99.751686
4220000000,-48.366016,99.583275
4221000000,-48.163784,99.62487
4222000000,-47.83807,99.371071
4223000000,-48.155396,99.250504
4224000000,-47.425091,99.20372
4225000000,-48.853455,98.845863
4226000000,-48.507759,98.684433
4227000000,-48.721081,98.607544
4228000000,-48.965599,98.445427
4229000000,-48.09623,98.170059
4230000000,-48.664772,98.325356
4231000000,-49.368843,97.958557
4232000000,-49.890518,97.977425
4233000000,-48.882179,97.644852
4234000000,-49.614216,97.572823
4235000000,-49.96764,97.247261
4236000000,-49.785603,97.187027
4237000000,-49.199417,97.141632
4238000000,-49.91658,96.875298
4239000000,-49.680824,96.798866
4240000000,-50.368698,96.72316
4241000000,-50.563332,96.616364
4242000000,-50.179081,96.501503
4243000000,-50.508453,96.114464
4244000000,-50.298306,96.201714
4245000000,-50.285381,95.966469
4246000000,-51.571007,95.693344
4247000000,-50.586723,95.631851
4248000000,-50.920738,95.468605
4249000000,-50.983543,95.443436
4250000000,-51.244545,95.186485
4251000000,-50.771763,95.150246
4252000000,-51.603397,94.72464
4253000000,-51.608234,94.725624
4254000000,-51.888878,94.553925
4255000000,-52.478603,94.234772
4256000000,-51.848042,94.234222
4257000000,-51.342445,94.227791
4258000000,-53.028996,93.725403
4259000000,-52.521233,93.738411
4260000000,-53.342304,93.533195
4261000000,-52.470764,93.471916
4262000000,-52.227684,93.548065
4263000000,-53.107117,93.111664
4264000000,-53.486614,93.100845
4265000000,-52.552021,92.88678
4266000000,-53.536011,92.718033
4267000000,-53.69725,92.55455
4268000000,-53.512711,92.430489
4269000000,-54.415577,92.254326
4270000000,-53.920292,92.184517
4271000000,-53.780861,91.917114
4272000000,-53.532276,91.805588
4273000000,-54.966076,91.697006
4274000000,-54.33263,91.496346
4275000000,-54.784817,91.212448
4276000000,-55.165215,91.304832
4277000000,-54.583164,91.044762
4278000000,-54.684757,91.021774
4279000000,-54.65942,90.712341
4280000000,-55.045364,90.596748
4281000000,-55.177006,90.402588
4282000000,-54.911533,90.187668
4283000000,-54.468845,90.114693
4284000000,-55.624401,90.079285
4285000000,-55.979435,89.862999
4286000000,-55.656921,89.771591
4287000000,-56.160744,89.416428
4288000000,-55.652149,89.295235
4289000000,-55.496361,89.31472
4290000000,-55.946178,89.127998
4291000000,-55.640175,88.958305
4292000000,-55.830517,88.814911
4293000000,-56.171089,88.6689
4294000000,-55.966381,88.557518
4295000000,-55.979797,88.337799
4296000000,-56.409237,88.142456
4297000000,-56.795799,88.087868
4298000000,-56.095482,87.993912
4299000000,-56.698437,87.697533
4300000000,-57.55286,87.614128
4301000000,-57.266491,87.506821
4302000000,-57.777744,87.355492
4303000000,-57.613289,87.096413
4304000000,-57.437057,87.017288
4305000000,-57.415493,86.845367
4306000000,-57.663929,86.646439
4307000000,-58.397202,86.612862
4308000000,-57.984856,86.444313
4309000000,-58.003578,86.34417
4310000000,-58.36948,86.154587
4311000000,-58.56649,85.667068
4312000000,-58.777145,85.763474
4313000000,-59.066513,85.60157
4314000000,-59.551933,85.316528
4315000000,-59.030792,85.45311
4316000000,-59.032917,85.110634
4317000000,-59.082661,85.032486
4318000000,-59.335732,84.899178
4319000000,-59.39801,84.588821
4320000000,-59.093002,84.678444
4321000000,-59.981102,84.510323
4322000000,-59.380409,84.310165
4323000000,-59.726563,84.060585
4324000000,-59.732265,84.119705
4325000000,-59.792091,83.748589
4326000000,-60.30566,83.641769
4327000000,-60.218781,83.297302
4328000000,-59.391582,83.537361
4329000000,-59.550014,83.156616
4330000000,-59.852013,83.053947
4331000000,-59.899769,82.815315
4332000000,-60.204819,82.778549
4333000000,-60.254276,82.547363
4334000000,-59.371605,82.561569
4335000000,-59.965775,82.412338
4336000000,-60.074692,82.32962
4337000000,-61.139584,82.052406
4338000000,-60.325405,81.842323
4339000000,-60.513638,81.628456
4340000000,-60.520161,81.395935
4341000000,-60.850368,81.31028
4342000000,-61.397247,81.126495
4343000000,-60.789497,81.150711
4344000000,-61.227619,81.064644
4345000000,-61.6698,80.865547
4346000000,-61.129818,80.756187
4347000000,-61.875038,80.533356
4348000000,-61.429943,80.487045
4349000000,-62.031067,80.384361
4350000000,-61.024216,80.060852
4351000000,-62.442074,79.933487
4352000000,-61.674355,79.913963
4353000000,-62.420635,79.683311
4354000000,-61.933273,79.395645
4355000000,-62.428429,79.373703
4356000000,-62.33419,79.048294
4357000000,-62.185989,78.99688
4358000000,-62.798912,78.800049
4359000000,-62.147652,78.765549
4360000000,-61.555653,78.550369
4361000000,-62.80661,78.365685
4362000000,-61.905518,78.297844
4363000000,-62.682552,78.334702
4364000000,-62.762589,77.978333
4365000000,-63.148891,77.806366
4366000000,-62.849167,77.549736
4367000000,-63.519402,77.554161
4368000000,-63.526756,77.485603
4369000000,-63.855808,77.289223
4370000000,-62.846619,77.231255
4371000000,-63.692772,77.067192
4372000000,-63.106892,76.83078
4373000000,-63.541317,76.631012
4374000000,-63.773441,76.420975
4375000000,-63.434746,76.473602
4376000000,-63.862747,76.07634
4377000000,-64.764748,75.862099
4378000000,-64.189728,76.010994
4379000000,-63.45351,75.738983
4380000000,-64.087669,75.519653
4381000000,-64.588402,75.518402
4382000000,-64.262962,75.273407
4383000000,-63.998127,75.165733
4384000000,-64.297844,74.960609
4385000000,-63.870583,74.974113
4386000000,-63.833767,74.658623
4387000000,-64.288734,74.654816
4388000000,-64.409172,74.377304
4389000000,-64.709076,74.309265
4390000000,-64.622253,74.15844
4391000000,-65.358879,73.948036
4392000000,-64.795624,73.783875
4393000000,-64.331802,73.663017
4394000000,-64.626526,73.610748
4395000000,-65.104408,73.413887
4396000000,-65.503494,73.238968
4397000000,-65.649017,72.944672
4398000000,-65.28418,72.954231
4399000000,-65.704308,72.66153
4400000000,-65.537605,72.793869
4401000000,-65.15493,72.460274
4402000000,-66.162849,72.387093
4403000000,-65.630753,72.111168
4404000000,-65.270653,72.113838
4405000000,-65.696709,71.781174
4406000000,-65.833908,71.757957
4407000000,-66.151779,71.534729
4408000000,-65.843475,71.273544
4409000000,-65.895706,71.180664
4410000000,-65.958488,71.186096
4411000000,-66.206932,70.986931
4412000000,-65.200012,70.868179
4413000000,-66.588509,70.550888
4414000000,-65.378746,70.51593
4415000000,-66.830742,70.284134
4416000000,-66.501839,70.200897
4417000000,-66.443909,69.953285
4418000000,-66.928391,69.97747
4419000000,-66.895233,69.871574
4420000000,-66.310448,69.589684
4421000000,-65.665985,69.639954
4422000000,-66.987305,69.318306
4423000000,-66.061455,69.350937
4424000000,-66.83567,68.950432
4425000000,-66.755417,68.813942
4426000000,-66.924309,68.866821
4427000000,-67.097046,68.696945
4428000000,-67.013039,68.322365
4429000000,-67.674873,68.244377
4430000000,-66.467354,68.298889
4431000000,-67.430244,67.95118
4432000000,-67.280571,67.699448
4433000000,-66.897957,67.727516
4434000000,-67.874863,67.597275
4435000000,-67.264946,67.333435
4436000000,-67.688354,67.190773
4437000000,-66.832939,67.218483
4438000000,-67.116302,66.783897
4439000000,-67.630402,66.856125
4440000000,-67.829765,66.47612
4441000000,-67.763916,66.520615
4442000000,-67.024551,66.18145
4443000000,-67.986008,66.206413
4444000000,-67.359024,66.118011
4445000000,-67.939476,65.889519
4446000000,-68.144928,65.667496
4447000000,-68.116745,65.809402
4448000000,-68.007439,65.461937
4449000000,-68.331543,65.233734
4450000000,-67.872963,65.211761
4451000000,-68.0047,64.748947
4452000000,-68.530251,64.809509
4453000000,-68.39418,64.672943
4454000000,-68.454269,64.486816
4455000000,-68.649246,64.331787
4456000000,-68.422638,64.219849
4457000000,-68.436935,64.232399
4458000000,-68.341087,63.938473
4459000000,-68.040871,63.869831
4460000000,-68.062134,63.658936
4461000000,-68.821663,63.548416
4462000000,-68.374039,63.434742
4463000000,-68.670143,63.453457
4464000000,-69.188377,63.046875
4465000000,-68.918526,63.024738
4466000000,-68.784325,62.803268
4467000000,-69.199043,62.554691
4468000000,-69.131699,62.509632
4469000000,-69.500977,62.316967
4470000000,-68.443443,62.222431
4471000000,-69.042084,62.123131
4472000000,-69.677864,61.938171
4473000000,-69.04245,61.726509
4474000000,-68.719543,61.596062
4475000000,-69.716911,61.449799
4476000000,-68.648537,61.218891
4477000000,-69.495628,61.184467
4478000000,-69.03862,60.851578
4479000000,-69.663307,60.770504
4480000000,-69.527191,60.660782
4481000000,-70.176743,60.57785
4482000000,-69.037506,60.286964
4483000000,-70.040512,60.167217
4484000000,-70.042488,60.053181
4485000000,-69.872688,60.110912
4486000000,-69.796211,59.741936
4487000000,-69.928299,59.514015
4488000000,-70.197754,59.613148
4489000000,-69.798637,59.237377
4490000000,-69.882683,59.34808
4491000000,-69.683395,58.856171
4492000000,-69.611946,59.005539
4493000000,-69.707214,58.708782
4494000000,-69.827095,58.529915
4495000000,-69.955589,58.63031
4496000000,-70.030533,58.219025
4497000000,-69.268776,58.104305
4498000000,-70.505569,58.070824
4499000000,-69.948479,57.951061
4500000000,-70.33638,57.868874
4501000000,-70.296898,57.64613
4502000000,-69.902977,57.467934
4503000000,-70.257126,57.483898
4504000000,-69.46463,57.193844
4505000000,-70.646622,56.994938
4506000000,-70.213913,56.667759
4507000000,-70.000038,56.760662
4508000000,-69.883614,56.769825
4509000000,-70.600868,56.585003
4510000000,-70.126701,56.352638
4511000000,-70.159897,56.172424
4512000000,-71.05603,56.143295
4513000000,-70.244438,55.81282
4514000000,-70.589691,55.697891
4515000000,-71.118889,55.423164
4516000000,-70.684242,55.562492
4517000000,-70.585152,55.270275
4518000000,-70.935631,54.97353
4519000000,-70.496597,55.032242
4520000000,-70.868507,54.846458
4521000000,-70.794075,54.566288
4522000000,-70.693916,54.406387
4523000000,-70.82608,54.442348
4524000000,-70.558174,54.321785
4525000000,-71.046768,54.015072
4526000000,-70.663399,54.015457
4527000000,-71.102097,53.85849
4528000000,-71.285606,53.712288
4529000000,-71.047852,53.383499
4530000000,-70.782013,53.411819
4531000000,-71.30748,53.209427
4532000000,-71.371933,53.018543
4533000000,-70.422684,52.868988
4534000000,-71.008728,52.73011
4535000000,-70.918106,52.603615
4536000000,-70.674606,52.628979
4537000000,-71.311699,52.200287
4538000000,-70.608963,52.098244
4539000000,-71.6101,51.972992
4540000000,-71.197929,51.755386
4541000000,-71.613556,51.716221
4542000000,-71.668785,51.526787
4543000000,-71.420219,51.416798
4544000000,-71.222031,51.406719
4545000000,-71.727631,51.00676
4546000000,-71.283722,51.006599
4547000000,-71.509361,50.659149
4548000000,-72.086082,50.536568
4549000000,-71.717354,50.495716
4550000000,-71.612358,50.335278
4551000000,-71.775665,50.078541
4552000000,-71.463234,50.057037
4553000000,-71.573952,49.881104
4554000000,-72.301216,49.612568
4555000000,-71.468895,49.557281
4556000000,-71.783134,49.437054
4557000000,-72.190689,49.232719
4558000000,-71.403542,49.130882
4559000000,-71.748604,48.867046
4560000000,-72.383934,48.859562
4561000000,-71.927765,48.737793
4562000000,-72.496712,48.598675
4563000000,-71.605583,48.409492
4564000000,-71.874748,48.19714
4565000000,-71.667824,48.15313
4566000000,-71.500122,47.899342
4567000000,-71.985504,47.902267
4568000000,-71.767387,47.68853
4569000000,-72.648445,47.513359
4570000000,-71.586517,47.316936
4571000000,-71.778282,47.150707
4572000000,-72.191986,46.996559
4573000000,-71.868591,46.881683
4574000000,-72.012711,46.744526
4575000000,-72.410034,46.790417
4576000000,-71.412979,46.55748
4577000000,-72.05928,46.292412
4578000000,-72.083656,46.183628
4579000000,-71.603233,46.086002
4580000000,-72.04364,45.887676
4581000000,-72.342743,45.696259
4582000000,-73.262871,45.560757
4583000000,-72.459862,45.452137
4584000000,-72.380577,45.296104
4585000000,-72.722336,45.338158
4586000000,-72.819328,44.916222
4587000000,-72.562271,44.812641
4588000000,-72.540878,44.784538
4589000000,-72.591476,44.563171
4590000000,-73.041496,44.484116
4591000000,-72.67643,44.212929
4592000000,-72.910851,44.13681
4593000000,-73.748558,43.959953
4594000000,-72.982834,43.746906
4595000000,-73.15065,43.848061
4596000000,-72.951035,43.353573
4597000000,-73.014297,43.291248
4598000000,-73.179779,43.139755
4599000000,-73.071365,43.099384
4600000000,-72.338684,42.935623
4601000000,-73.289398,42.930199
4602000000,-73.124588,42.605267
4603000000,-72.844795,42.484913
4604000000,-73.430199,42.349182
4605000000,-73.153069,42.371445
4606000000,-73.173683,42.117908
4607000000,-73.71096,41.874908
4608000000,-73.159218,41.750801
4609000000,-73.390739,41.676624
4610000000,-73.719757,41.4044
4611000000,-73.198219,41.536636
4612000000,-73.19928,41.1269
4613000000,-73.17511,40.992306
4614000000,-73.464249,40.909313
4615000000,-73.023979,40.634888
4616000000,-73.067253,40.553776
4617000000,-73.389595,40.437283
4618000000,-72.940674,40.092663
4619000000,-73.672211,40.021091
4620000000,-73.063438,39.900227
4621000000,-73.186729,39.754856
4622000000,-72.386597,39.801956
4623000000,-72.826614,39.63821
4624000000,-72.634155,39.342308
4625000000,-72.970734,39.104282
4626000000,-73.507484,39.037327
4627000000,-73.448517,38.986568
4628000000,-73.093559,38.668964
4629000000,-72.988846,38.611988
4630000000,-73.976303,38.533028
4631000000,-72.737953,38.228157
4632000000,-73.637184,38.312435
4633000000,-72.861786,37.928448
4634000000,-73.141251,37.926933
4635000000,-73.178131,37.895931
4636000000,-73.279037,37.524532
4637000000,-73.1185,37.520199
4638000000,-73.956688,37.322742
4639000000,-73.299522,37.105545
4640000000,-73.585037,37.136322
4641000000,-73.045372,36.983337
4642000000,-73.537781,36.634613
4643000000,-74.021233,36.573227
4644000000,-73.433678,36.443962
4645000000,-73.211853,36.299213
4646000000,-73.233498,36.082569
4647000000,-73.895454,35.898384
4648000000,-74.001823,35.889706
4649000000,-73.665543,35.531345
4650000000,-73.016304,35.405895
4651000000,-73.481674,35.30481
4652000000,-73.469597,35.194427
4653000000,-73.862152,35.11655
4654000000,-73.762909,34.912655
4655000000,-73.474464,34.772297
4656000000,-72.569458,34.60371
4657000000,-73.231354,34.435032
4658000000,-72.929344,34.478119
4659000000,-73.592026,34.133942
4660000000,-73.023415,33.916042
4661000000,-73.322823,33.845512
4662000000,-72.991966,33.66917
4663000000,-72.930176,33.567947
4664000000,-73.175339,33.488255
4665000000,-72.551941,33.278248
4666000000,-73.35067,32.993889
4667000000,-72.616486,32.917019
4668000000,-72.633118,32.78212
4669000000,-72.772133,32.82328
4670000000,-72.576241,32.58017
4671000000,-73.171272,32.284618
4672000000,-72.355759,32.11034
4673000000,-72.495338,31.93655
4674000000,-72.92556,31.937408
4675000000,-72.958588,31.817553
4676000000,-72.42157,31.743731
4677000000,-72.235939,31.275068
4678000000,-71.715858,31.352108
4679000000,-71.953758,31.038935
4680000000,-72.172791,31.035387
4681000000,-72.641319,30.767406
4682000000,-72.095863,30.802757
4683000000,-72.276054,30.41263
4684000000,-71.669785,30.441212
4685000000,-71.983406,30.195301
4686000000,-72.330002,30.083275
4687000000,-72.469337,29.896202
4688000000,-71.729454,29.821232
4689000000,-72.117493,29.756584
4690000000,-71.839043,29.501411
4691000000,-72.24099,29.350361
4692000000,-71.730423,29.299265
4693000000,-71.688705,28.992672
4694000000,-71.63401,28.832022
4695000000,-72.275467,28.756655
4696000000,-71.403854,28.635929
4697000000,-72.221092,28.667606
4698000000,-71.863976,28.124582
4699000000,-71.066986,28.078691
4700000000,-71.515884,27.953165
4701000000,-71.290665,27.932058
4702000000,-71.08992,27.70871
4703000000,-70.533577,27.52943
4704000000,-70.44072,27.436138
4705000000,-70.506088,27.317604
4706000000,-70.032219,27.012434
4707000000,-70.914001,27.055309
4708000000,-71.007774,26.78511
4709000000,-70.675407,26.498043
4710000000,-70.176132,26.257626
4711000000,-70.562553,26.221659
4712000000,-70.12294,26.153513
4713000000,-70.497169,25.913157
4714000000,-70.179955,25.777153
4715000000,-70.564087,25.68281
4716000000,-70.31543,25.637815
4717000000,-69.803688,25.389778
4718000000,-69.792336,25.276031
4719000000,-69.380936,24.981583
4720000000,-69.568542,25.047567
4721000000,-69.483459,24.759865
4722000000,-69.614548,24.441059
4723000000,-69.040123,24.496187
4724000000,-69.374947,24.321789
4725000000,-69.564194,24.142696
4726000000,-69.378281,24.029587
4727000000,-68.474197,23.926785
4728000000,-69.255463,23.761881
4729000000,-68.425713,23.653809
4730000000,-68.352013,23.451973
4731000000,-68.673798,23.476795
4732000000,-68.183365,23.2146
4733000000,-68.039627,22.91473
4734000000,-68.144394,22.880688
4735000000,-68.164696,22.907272
4736000000,-68.279694,22.55283
4737000000,-67.124084,22.483284
4738000000,-67.290443,22.186172
4739000000,-66.904289,22.126438
4740000000,-67.181465,22.044977
4741000000,-66.646408,21.705135
4742000000,-67.193405,21.842646
4743000000,-66.203758,21.420259
4744000000,-66.845345,21.472898
4745000000,-66.845482,21.222528
4746000000,-66.024872,21.12434
4747000000,-67.740181,20.976555
4748000000,-66.010643,20.738146
4749000000,-65.968216,20.579525
4750000000,-66.140396,20.274992
4751000000,-66.00267,20.237408
4752000000,-64.885033,20.096748
4753000000,-64.737862,20.07033
4754000000,-64.878166,19.851084
4755000000,-64.76149,19.71417
4756000000,-65.365509,19.421257
4757000000,-64.183777,19.498079
4758000000,-63.816986,19.113745
4759000000,-64.414528,19.033142
4760000000,-64.574188,18.866642
4761000000,-64.111633,18.748228
4762000000,-64.118721,18.654146
4763000000,-64.141571,18.464243
4764000000,-64.284752,18.366446
4765000000,-63.099342,17.980261
4766000000,-64.191727,17.960011
4767000000,-62.702911,17.775335
4768000000,-62.86401,17.697536
4769000000,-63.111927,17.630379
4770000000,-62.700333,17.457119
4771000000,-62.269375,17.276115
4772000000,-62.268246,17.245647
4773000000,-61.425102,16.987185
4774000000,-62.80587,16.859091
4775000000,-61.78064,16.655045
4776000000,-62.558353,16.708559
4777000000,-61.774368,16.328234
4778000000,-61.461197,16.14163
4779000000,-60.943237,16.043287
4780000000,-60.638695,15.804725
4781000000,-61.55426,15.730001
4782000000,-59.346653,15.459203
4783000000,-60.18771,15.317857
4784000000,-59.990879,15.175916
4785000000,-59.103409,15.117016
4786000000,-59.880016,14.894305
4787000000,-59.137581,14.971786
4788000000,-60.25058,14.735281
4789000000,-58.892952,14.61842
4790000000,-58.388058,14.283784
4791000000,-59.196983,14.176212
4792000000,-59.194271,14.01975
4793000000,-58.496796,13.74289
4794000000,-57.840794,13.66039
4795000000,-57.989353,13.651483
4796000000,-57.173229,13.427051
4797000000,-57.065273,13.30991
4798000000,-56.995571,13.18006
4799000000,-57.122791,13.033776
4800000000,-57.029686,12.914877
4801000000,-56.70079,12.728626
4802000000,-56.769382,12.700584
4803000000,-56.390263,12.428612
4804000000,-56.037682,12.091477
4805000000,-55.986496,12.053519
4806000000,-55.803635,11.928142
4807000000,-55.475849,11.941943
4808000000,-55.599457,11.583269
4809000000,-55.409225,11.589941
4810000000,-53.928173,11.263347
4811000000,-54.550381,11.172012
4812000000,-55.004955,11.160728
4813000000,-53.975307,10.931624
4814000000,-53.530903,10.817762
4815000000,-53.95126,10.596671
4816000000,-52.689285,10.549363
4817000000,-53.800854,10.308393
4818000000,-52.730179,10.096753
4819000000,-53.165752,10.152758
4820000000,-53.558208,9.7990017
4821000000,-52.087284,9.7013588
4822000000,-52.228001,9.4833155
4823000000,-51.459312,9.5925264
4824000000,-51.998238,9.2099228
4825000000,-50.127953,9.1517344
4826000000,-52.652203,8.9952269
4827000000,-49.98196,8.6729422
4828000000,-50.740311,8.6707773
4829000000,-51.319046,8.5352383
4830000000,-50.061848,8.4172678
4831000000,-49.29451,8.1520147
4832000000,-49.801197,8.140811
4833000000,-49.387196,7.7640018
4834000000,-49.918453,7.7721834
4835000000,-49.126236,7.5967779
4836000000,-49.08403,7.4538546
4837000000,-49.474369,7.344851
4838000000,-47.529148,7.0782557
4839000000,-47.703209,7.066011
4840000000,-48.457035,6.8906016
4841000000,-47.539097,6.7086248
4842000000,-46.353539,6.4922438
4843000000,-47.245632,6.3105874
4844000000,-46.32761,6.3274798
4845000000,-45.576229,6.0416512
4846000000,-46.506161,5.8159099
4847000000,-45.201569,5.7412553
4848000000,-45.415737,5.5655222
4849000000,-45.756542,5.5987763
4850000000,-44.537041,5.2582808
4851000000,-44.21048,5.3164449
4852000000,-44.859875,5.0067253
4853000000,-44.894329,5.1112123
4854000000,-43.302193,4.8630776
4855000000,-43.884605,4.5035777
4856000000,-43.708687,4.5082955
4857000000,-43.584778,4.2411022
4858000000,-44.071438,4.1912937
4859000000,-43.212208,3.8686688
4860000000,-41.924107,3.8253739
4861000000,-41.776226,3.5339069
4862000000,-42.613964,3.3724179
4863000000,-41.822304,3.246074
4864000000,-41.783985,3.1105678
4865000000,-42.0667,2.9066808
4866000000,-40.720379,2.8366842
4867000000,-41.308792,2.7012999
4868000000,-40.576256,2.6876955
4869000000,-40.681961,2.4278429
4870000000,-39.949039,2.0966313
4871000000,-40.515591,2.0982318
4872000000,-39.865623,1.8972752
4873000000,-38.662556,1.7385595
4874000000,-40.182899,1.5895272
4875000000,-39.68235,1.6896931
4876000000,-39.462696,1.5170156
4877000000,-40.585979,1.3432671
4878000000,-39.697308,1.0419686
4879000000,-39.131252,0.99779886
4880000000,-38.495747,0.84855241
4881000000,-38.643497,0.64691979
4882000000,-38.477745,0.52902585
4883000000,-37.610943,0.3643102
4884000000,-38.064503,0.2174305
4885000000,-38.595306,-0.078255862
4886000000,-36.908768,-0.12394278
4887000000,-37.336147,-0.24289618
4888000000,-35.691002,-0.47986782
4889000000,-37.687943,-0.61508834
4890000000,-35.349178,-0.83228844
4891000000,-36.712265,-0.73511767
4892000000,-35.917744,-1.1925439
4893000000,-34.152733,-1.1548198
4894000000,-35.422348,-1.4878023
4895000000,-34.765518,-1.4671574
4896000000,-35.605881,-1.6757622
4897000000,-35.062351,-1.863503
4898000000,-34.948074,-1.9446332
4899000000,-33.659599,-2.0517867
4900000000,-32.966064,-2.2542198
4901000000,-33.179134,-2.4037414
4902000000,-34.946129,-2.4149766
4903000000,-33.455997,-2.5845754
4904000000,-32.126019,-2.7423913
4905000000,-32.759533,-3.0000756
4906000000,-31.665604,-3.2935078
4907000000,-31.147978,-3.3039074
4908000000,-32.289337,-3.333005
4909000000,-31.361235,-3.6076338
4910000000,-30.725853,-3.5110047
4911000000,-31.659149,-3.9143729
4912000000,-28.626179,-4.1285119
4913000000,-30.904793,-4.1750631
4914000000,-29.765886,-4.2957516
4915000000,-31.038805,-4.3581119
4916000000,-30.401846,-4.6256957
4917000000,-28.746975,-4.6458831
4918000000,-29.324638,-4.8878589
4919000000,-28.824392,-5.1341877
4920000000,-29.059135,-5.2617884
4921000000,-28.49761,-5.3535171
4922000000,-29.218439,-5.5279121
4923000000,-27.892849,-5.6871042
4924000000,-27.467796,-5.9211125
4925000000,-27.93375,-5.9572229
4926000000,-26.889231,-6.2602839
4927000000,-26.692457,-6.4458675
4928000000,-27.156185,-6.5842476
4929000000,-26.706142,-6.5658984
4930000000,-27.274303,-6.737412
4931000000,-26.405149,-6.9475107
4932000000,-26.240635,-7.0780191
4933000000,-25.902981,-7.2070174
4934000000,-26.100458,-7.4057283
4935000000,-26.237848,-7.5227485
4936000000,-25.766542,-7.6784158
4937000000,-25.66457,-7.8317389
4938000000,-25.864769,-8.0094681
4939000000,-24.87421,-8.021843
4940000000,-24.188751,-8.1997519
4941000000,-24.561411,-8.3965378
4942000000,-26.104177,-8.4843321
4943000000,-22.858816,-8.7731514
4944000000,-23.90093,-8.9205465
4945000000,-23.252506,-9.0012579
4946000000,-23.674465,-9.2691526
4947000000,-22.872164,-9.3986721
4948000000,-23.36434,-9.4934034
4949000000,-23.396759,-9.4730186
4950000000,-23.546247,-9.8102312
4951000000,-22.678368,-9.9035397
4952000000,-21.615105,-10.050123
4953000000,-22.755444,-10.256473
4954000000,-22.190092,-10.348728
4955000000,-21.773375,-10.49991
4956000000,-21.053068,-10.576043
4957000000,-20.652449,-10.718339
4958000000,-20.977898,-11.03877
4959000000,-21.336102,-11.083068
4960000000,-20.832724,-11.186697
4961000000,-20.301237,-11.365349
4962000000,-20.327408,-11.398508
4963000000,-19.297483,-11.568659
4964000000,-19.655447,-11.820696
4965000000,-20.13056,-11.962511
4966000000,-18.880901,-12.192405
4967000000,-19.677511,-12.267676
4968000000,-19.016115,-12.387931
4969000000,-19.529335,-12.637043
4970000000,-19.228907,-12.653245
4971000000,-18.794443,-12.878531
4972000000,-18.332596,-12.998664
4973000000,-18.911764,-13.060802
4974000000,-17.130663,-13.382603
4975000000,-17.503839,-13.530157
4976000000,-17.808674,-13.608654
4977000000,-17.554392,-13.931
4978000000,-17.743767,-13.850519
4979000000,-16.005245,-13.983674
4980000000,-16.673403,-14.146076
4981000000,-17.458981,-14.427135
4982000000,-16.612644,-14.754115
4983000000,-15.647311,-14.702877
4984000000,-16.808916,-15.014526
4985000000,-16.267372,-15.072783
4986000000,-16.121361,-15.26637
4987000000,-14.888324,-15.243562
4988000000,-16.603333,-15.53464
4989000000,-15.620889,-15.648927
4990000000,-16.289822,-15.773643
4991000000,-15.82887,-15.972394
4992000000,-15.505964,-16.157881
4993000000,-15.393167,-16.278244
4994000000,-14.785169,-16.331823
4995000000,-15.47211,-16.693178
4996000000,-15.885538,-16.815031
4997000000,-13.47188,-16.99147
4998000000,-14.867662,-16.989616
4999000000,-15.533916,-17.201517
5000000000,-14.426898,-17.243113
END

