!CSV A.01.01
!Agilent Technologies,E8362C,MY49020225,A.09.42.22
!Agilent E8362C: A.09.42.22
!Date: Wednesday, March 02, 2016 16:43:59
!Source: Standard

BEGIN CH1_DATA
Freq(Hz),S11 Phase(°),S21 Phase(°)
1000000000,147.71864,-144.54216
1001000000,147.51401,-144.61444
1002000000,146.87889,-144.78691
1003000000,147.51402,-144.83011
1004000000,147.00021,-144.91656
1005000000,146.70131,-145.13957
1006000000,146.62476,-145.27718
1007000000,146.22125,-145.42688
1008000000,145.9292,-145.433
1009000000,145.77634,-145.80959
1010000000,145.59682,-146.0381
1011000000,145.18494,-146.02951
1012000000,144.61412,-146.36736
1013000000,144.49321,-146.28912
1014000000,144.55602,-146.71242
1015000000,144.10497,-146.80585
1016000000,144.63007,-146.44919
1017000000,144.0984,-146.84189
1018000000,143.88029,-146.97429
1019000000,143.92941,-147.09364
1020000000,143.78026,-147.21584
1021000000,142.93716,-147.45422
1022000000,142.57446,-147.70467
1023000000,142.56908,-147.84424
1024000000,142.56895,-147.78467
1025000000,142.15416,-148.07283
1026000000,142.18188,-148.04623
1027000000,141.97166,-148.37222
1028000000,141.82417,-148.43617
1029000000,141.6037,-148.70818
1030000000,141.44193,-148.74916
1031000000,140.88782,-148.92665
1032000000,140.9472,-148.86661
1033000000,140.87555,-149.20111
1034000000,140.47629,-149.37929
1035000000,140.11861,-149.42235
1036000000,140.25642,-149.59659
1037000000,139.78815,-149.95717
1038000000,139.42339,-149.95963
1039000000,139.69203,-149.99445
1040000000,139.21091,-150.10519
1041000000,139.2964,-150.10175
1042000000,139.24626,-150.38965
1043000000,138.73955,-150.54019
1044000000,138.7392,-150.6441
1045000000,138.07819,-150.75879
1046000000,137.8421,-151.11069
1047000000,137.64157,-151.10231
1048000000,137.29994,-151.35957
1049000000,137.24251,-151.40631
1050000000,137.31401,-151.59341
1051000000,136.94099,-151.74918
1052000000,136.86946,-151.68271
1053000000,136.78458,-152.01881
1054000000,136.73961,-152.08528
1055000000,136.18793,-152.25594
1056000000,135.90175,-152.52208
1057000000,135.81889,-152.6317
1058000000,135.41982,-152.73428
1059000000,135.29507,-153.03348
1060000000,135.03465,-152.79674
1061000000,134.75237,-153.14008
1062000000,134.74089,-153.30037
1063000000,134.62361,-153.3231
1064000000,134.16162,-153.63509
1065000000,134.0798,-153.61734
1066000000,133.69751,-153.88986
1067000000,133.92354,-153.96605
1068000000,133.27913,-154.07141
1069000000,133.17206,-154.33769
1070000000,133.21715,-154.28185
1071000000,133.24878,-154.35181
1072000000,132.99315,-154.65619
1073000000,132.45525,-154.81279
1074000000,132.58495,-154.93913
1075000000,132.50867,-154.93948
1076000000,131.81569,-155.24669
1077000000,131.74689,-155.44447
1078000000,131.95682,-155.36455
1079000000,131.30997,-155.73534
1080000000,131.48883,-155.87477
1081000000,130.79199,-155.98692
1082000000,130.67827,-156.0905
1083000000,130.46887,-156.4166
1084000000,130.44676,-156.32425
1085000000,129.99402,-156.59845
1086000000,130.13509,-156.55066
1087000000,129.96367,-156.83356
1088000000,129.55157,-156.87161
1089000000,129.59294,-157.02585
1090000000,129.52287,-157.08968
1091000000,128.81323,-157.40407
1092000000,128.63368,-157.58299
1093000000,128.62224,-157.5208
1094000000,128.63786,-157.89685
1095000000,128.1176,-157.88957
1096000000,128.14642,-158.08681
1097000000,127.91061,-158.23917
1098000000,127.78504,-158.49944
1099000000,127.21445,-158.52711
1100000000,127.28902,-158.59901
1101000000,127.03597,-158.89746
1102000000,127.12262,-158.72217
1103000000,126.65465,-159.10655
1104000000,126.48985,-159.35277
1105000000,126.08439,-159.26881
1106000000,125.73559,-159.59706
1107000000,125.90738,-159.65938
1108000000,125.25919,-159.83937
1109000000,125.53041,-159.89114
1110000000,125.10378,-160.00572
1111000000,125.27022,-160.25409
1112000000,124.86163,-160.28526
1113000000,124.42373,-160.41731
1114000000,124.78542,-160.52965
1115000000,124.17463,-160.78104
1116000000,124.24558,-160.8728
1117000000,124.22054,-160.92586
1118000000,124.04357,-161.16803
1119000000,123.26334,-161.41798
1120000000,123.55701,-161.48309
1121000000,123.181,-161.47661
1122000000,122.96357,-161.68739
1123000000,122.83028,-162.04301
1124000000,122.34418,-162.04524
1125000000,122.57342,-162.37685
1126000000,122.0229,-162.33534
1127000000,121.88015,-162.63501
1128000000,121.41315,-162.65495
1129000000,121.19537,-162.90977
1130000000,121.27551,-163.02052
1131000000,121.1612,-163.23297
1132000000,121.01125,-163.06665
1133000000,120.61923,-163.39748
1134000000,120.38579,-163.61993
1135000000,120.40163,-163.67467
1136000000,120.04607,-163.79904
1137000000,119.78523,-164.11646
1138000000,119.53352,-164.1689
1139000000,119.55171,-164.20599
1140000000,119.48051,-164.22569
1141000000,119.12408,-164.44363
1142000000,118.90356,-164.72696
1143000000,118.72975,-164.83855
1144000000,118.47276,-164.88704
1145000000,118.31126,-165.09109
1146000000,117.9715,-165.31172
1147000000,117.71827,-165.48888
1148000000,117.78943,-165.48767
1149000000,117.48019,-165.69524
1150000000,117.17553,-165.86832
1151000000,117.04449,-165.9666
1152000000,116.86183,-166.13295
1153000000,116.90361,-166.12054
1154000000,116.57253,-166.31453
1155000000,116.17352,-166.47647
1156000000,116.40081,-166.6302
1157000000,115.91261,-166.79352
1158000000,115.7981,-166.98485
1159000000,115.78613,-167.00633
1160000000,115.45722,-167.39922
1161000000,115.08078,-167.41287
1162000000,114.87932,-167.60025
1163000000,114.58826,-167.72658
1164000000,114.58201,-167.7037
1165000000,114.71249,-167.84464
1166000000,114.19426,-168.02235
1167000000,113.95484,-168.39214
1168000000,113.51498,-168.38657
1169000000,113.56963,-168.55779
1170000000,113.71714,-168.50955
1171000000,113.28247,-168.78008
1172000000,113.38776,-168.84972
1173000000,112.57515,-169.18747
1174000000,112.78258,-169.14821
1175000000,112.11704,-169.42776
1176000000,112.43293,-169.50864
1177000000,112.16818,-169.57098
1178000000,111.74752,-169.87106
1179000000,111.72595,-169.819
1180000000,111.49287,-170.10736
1181000000,111.64413,-170.02747
1182000000,110.88874,-170.46542
1183000000,110.92642,-170.44278
1184000000,110.53672,-170.74084
1185000000,110.47295,-170.68193
1186000000,110.556,-170.80893
1187000000,110.29495,-171.03635
1188000000,109.88593,-171.26312
1189000000,109.71414,-171.34995
1190000000,109.36584,-171.68272
1191000000,109.38892,-171.59381
1192000000,109.28743,-171.61333
1193000000,109.22861,-171.91733
1194000000,108.69598,-172.0351
1195000000,108.92458,-172.15408
1196000000,108.49522,-172.49416
1197000000,108.22536,-172.40747
1198000000,108.16849,-172.61591
1199000000,108.00091,-172.72212
1200000000,107.62456,-172.84135
1201000000,107.32417,-173.02226
1202000000,107.34244,-173.17119
1203000000,107.30856,-173.19876
1204000000,106.87732,-173.51602
1205000000,106.62167,-173.58603
1206000000,106.4686,-173.68158
1207000000,106.83784,-173.76161
1208000000,106.20702,-173.89696
1209000000,105.88433,-174.17233
1210000000,106.09512,-174.00844
1211000000,105.53359,-174.53389
1212000000,105.37041,-174.67342
1213000000,105.33951,-174.82974
1214000000,104.83094,-174.92598
1215000000,104.87841,-175.01546
1216000000,104.73981,-175.23892
1217000000,104.65289,-175.22223
1218000000,104.1991,-175.37965
1219000000,104.4243,-175.60097
1220000000,103.56038,-175.78683
1221000000,103.59721,-176.06438
1222000000,103.25469,-176.01476
1223000000,103.67422,-176.15207
1224000000,103.31399,-176.2401
1225000000,102.95409,-176.56239
1226000000,102.85909,-176.53732
1227000000,102.7114,-176.46664
1228000000,102.70221,-176.63116
1229000000,102.17667,-176.96838
1230000000,102.03163,-177.1326
1231000000,101.79424,-177.31131
1232000000,101.32654,-177.61189
1233000000,101.54975,-177.68623
1234000000,101.36813,-177.68486
1235000000,100.92759,-178.00877
1236000000,100.7346,-178.05905
1237000000,100.70791,-178.01102
1238000000,100.68204,-178.32265
1239000000,100.44835,-178.41623
1240000000,100.09762,-178.6507
1241000000,100.25272,-178.60519
1242000000,99.283562,-179.05209
1243000000,99.825516,-178.95674
1244000000,99.502785,-179.03481
1245000000,98.977669,-179.48393
1246000000,98.980301,-179.3161
1247000000,98.787727,-179.54683
1248000000,98.495956,-179.7728
1249000000,98.548546,-179.90002
1250000000,98.357079,-179.94611
1251000000,98.140785,179.88339
1252000000,97.914688,179.53003
1253000000,97.54969,179.43034
1254000000,97.484047,179.2943
1255000000,97.066696,179.19911
1256000000,96.810654,179.08278
1257000000,97.087921,179.01671
1258000000,96.506279,178.75536
1259000000,96.57756,178.76268
1260000000,96.515594,178.60106
1261000000,96.286438,178.32692
1262000000,95.919464,178.23055
1263000000,95.904213,178.36975
1264000000,95.870575,178.08444
1265000000,95.404564,177.88361
1266000000,95.363274,177.67967
1267000000,94.845383,177.47726
1268000000,94.963783,177.33713
1269000000,94.848335,177.38103
1270000000,94.556587,177.04384
1271000000,94.111015,176.80098
1272000000,93.787964,176.71587
1273000000,94.036751,176.63962
1274000000,93.607643,176.43576
1275000000,93.556343,176.38472
1276000000,93.625,176.20792
1277000000,93.501762,176.24841
1278000000,92.736809,175.98796
1279000000,92.797577,175.67207
1280000000,92.75679,175.93607
1281000000,92.393936,175.52519
1282000000,92.195671,175.39436
1283000000,91.945686,175.3264
1284000000,92.155922,175.34105
1285000000,91.963402,175.25288
1286000000,91.020096,174.65775
1287000000,91.29409,174.61914
1288000000,91.258247,174.58092
1289000000,90.591797,174.23987
1290000000,90.075172,174.03195
1291000000,90.262856,174.17627
1292000000,90.269211,173.99748
1293000000,89.826653,173.84747
1294000000,89.746323,173.466
1295000000,89.695694,173.49762
1296000000,89.387794,173.42615
1297000000,89.220055,173.30893
1298000000,88.716408,172.89642
1299000000,88.963631,173.13022
1300000000,88.482986,172.76805
1301000000,88.0149,172.61739
1302000000,87.747658,172.53358
1303000000,87.707878,172.36792
1304000000,87.060745,171.97089
1305000000,87.595726,172.02032
1306000000,87.118439,171.99457
1307000000,86.983574,171.81239
1308000000,86.813934,171.69859
1309000000,86.367126,171.34944
1310000000,86.546974,171.43521
1311000000,86.113998,171.25946
1312000000,86.148491,171.10129
1313000000,85.651161,171.02783
1314000000,85.503151,170.84378
1315000000,85.153885,170.657
1316000000,85.123283,170.45612
1317000000,84.801132,170.3699
1318000000,84.423317,170.13095
1319000000,84.294792,170.00676
1320000000,84.105431,169.7809
1321000000,83.88446,169.6373
1322000000,83.814888,169.60216
1323000000,83.648849,169.47913
1324000000,83.163719,169.17108
1325000000,83.241417,169.23947
1326000000,82.834145,169.08289
1327000000,82.552643,168.79701
1328000000,82.505867,168.66727
1329000000,82.504601,168.87598
1330000000,81.915436,168.50241
1331000000,81.818054,168.20708
1332000000,81.562378,167.96719
1333000000,81.45195,167.99174
1334000000,81.128311,167.78795
1335000000,81.036476,167.75105
1336000000,80.750137,167.59378
1337000000,80.674019,167.5535
1338000000,80.268768,167.3446
1339000000,80.179733,167.00774
1340000000,80.053322,167.15092
1341000000,79.508255,166.72816
1342000000,79.311333,166.62436
1343000000,79.207535,166.5106
1344000000,79.058266,166.45874
1345000000,78.831177,166.4238
1346000000,78.675789,166.18674
1347000000,78.312714,166.05122
1348000000,78.311707,165.9444
1349000000,78.032982,165.89876
1350000000,77.499458,165.56621
1351000000,77.468163,165.3821
1352000000,76.989601,165.16055
1353000000,76.907204,165.18108
1354000000,76.625175,164.96696
1355000000,76.494011,164.87862
1356000000,76.43766,164.8465
1357000000,76.051285,164.67514
1358000000,75.643188,164.45073
1359000000,75.384598,164.26781
1360000000,75.356125,164.20303
1361000000,75.09169,164.01765
1362000000,75.096535,163.95154
1363000000,74.763123,163.76054
1364000000,74.359283,163.48889
1365000000,74.191452,163.30252
1366000000,73.890999,163.14275
1367000000,73.552689,163.12067
1368000000,73.342186,162.96129
1369000000,73.098984,162.87186
1370000000,73.095009,162.72144
1371000000,72.930542,162.71332
1372000000,72.589249,162.45972
1373000000,72.555649,162.29305
1374000000,72.072174,162.16817
1375000000,71.493111,161.92354
1376000000,71.326591,161.97437
1377000000,71.192909,161.77658
1378000000,70.996834,161.47768
1379000000,70.592072,161.25389
1380000000,70.662811,161.24316
1381000000,70.428505,161.03259
1382000000,70.070786,160.89944
1383000000,69.565506,160.65007
1384000000,69.646645,160.72165
1385000000,69.379051,160.53389
1386000000,68.807091,160.27611
1387000000,68.713112,160.21602
1388000000,68.390686,160.00591
1389000000,68.086876,159.94803
1390000000,68.036606,159.83221
1391000000,67.42234,159.60114
1392000000,67.40197,159.48674
1393000000,67.287987,159.33662
1394000000,67.038635,159.35136
1395000000,66.647057,159.13715
1396000000,66.470673,158.86525
1397000000,65.86364,158.81918
1398000000,65.928795,158.64697
1399000000,65.441597,158.532
1400000000,65.06176,158.18611
1401000000,64.957695,158.25772
1402000000,64.958092,158.03937
1403000000,64.487305,157.96567
1404000000,64.416328,157.82552
1405000000,64.150162,157.685
1406000000,63.446514,157.45042
1407000000,63.799274,157.32816
1408000000,62.988052,157.29758
1409000000,63.163418,157.01671
1410000000,62.585194,156.87277
1411000000,62.353432,156.66826
1412000000,61.750729,156.5799
1413000000,61.352974,156.30823
1414000000,61.497089,156.43501
1415000000,60.930122,156.11136
1416000000,60.567734,156.19327
1417000000,60.511562,155.9198
1418000000,60.652107,155.77322
1419000000,59.775726,155.50107
1420000000,59.636185,155.48454
1421000000,59.32206,155.32927
1422000000,59.051971,155.12782
1423000000,58.374218,154.97292
1424000000,58.411861,154.81865
1425000000,58.364288,154.72447
1426000000,57.906155,154.47139
1427000000,57.302994,154.44557
1428000000,57.327446,154.43063
1429000000,56.62598,154.23622
1430000000,56.78828,154.00223
1431000000,56.085808,153.75142
1432000000,55.682159,153.77814
1433000000,55.719296,153.50874
1434000000,54.755096,153.45369
1435000000,54.632267,153.28688
1436000000,53.961128,153.11302
1437000000,53.687706,153.0356
1438000000,54.004337,152.88142
1439000000,53.044128,152.72475
1440000000,52.972897,152.29918
1441000000,52.37859,152.36325
1442000000,52.388519,152.3038
1443000000,51.484715,152.14871
1444000000,51.295528,151.92053
1445000000,51.053471,151.81282
1446000000,50.718418,151.52533
1447000000,50.112366,151.50229
1448000000,49.473251,151.22215
1449000000,49.399822,151.33665
1450000000,48.911503,151.12096
1451000000,48.359943,150.73958
1452000000,47.841526,150.73016
1453000000,47.888668,150.41956
1454000000,47.403561,150.56335
1455000000,46.612431,150.44453
1456000000,46.406681,150.07254
1457000000,45.531857,150.16893
1458000000,45.816849,149.79088
1459000000,44.610786,149.79294
1460000000,44.214085,149.57823
1461000000,43.933529,149.47397
1462000000,43.29039,149.41032
1463000000,43.148537,149.32883
1464000000,42.962933,148.93611
1465000000,42.473164,148.75757
1466000000,41.524601,148.7182
1467000000,41.215698,148.34973
1468000000,40.147564,148.48039
1469000000,39.829712,148.371
1470000000,39.24707,148.09361
1471000000,38.277412,147.90627
1472000000,37.864258,147.74477
1473000000,36.644718,147.73169
1474000000,35.946255,147.578
1475000000,35.926781,147.35832
1476000000,34.530888,147.29208
1477000000,35.134995,147.1433
1478000000,33.553699,147.05504
1479000000,33.341732,146.87637
1480000000,32.28854,146.54243
1481000000,31.681026,146.58014
1482000000,30.005049,146.32079
1483000000,30.569885,146.1127
1484000000,29.48551,145.9454
1485000000,28.087532,145.88086
1486000000,27.378576,145.7585
1487000000,25.826847,145.72951
1488000000,25.574459,145.46793
1489000000,24.750425,145.3846
1490000000,23.281158,145.28084
1491000000,23.05464,145.01703
1492000000,21.626083,144.95935
1493000000,19.600893,144.56357
1494000000,18.581802,144.50911
1495000000,17.993397,144.55348
1496000000,16.349146,144.33513
1497000000,16.124693,144.19987
1498000000,14.480101,144.09958
1499000000,13.179214,143.89763
1500000000,11.465781,143.52306
1501000000,10.860001,143.49623
1502000000,7.8827281,143.35376
1503000000,7.7271323,143.21632
1504000000,6.062016,143.17015
1505000000,4.5382571,142.91887
1506000000,3.4188206,142.90694
1507000000,0.35560164,142.59988
1508000000,-1.7491003,142.48254
1509000000,-3.5298562,142.40588
1510000000,-2.8393936,142.13779
1511000000,-5.3204074,142.10567
1512000000,-8.2019777,141.97467
1513000000,-8.7380457,141.76993
1514000000,-11.055395,141.80479
1515000000,-12.188221,141.59407
1516000000,-15.182491,141.18929
1517000000,-15.740142,141.21123
1518000000,-21.529118,140.91669
1519000000,-21.199419,140.77271
1520000000,-22.702913,140.75009
1521000000,-24.974548,140.58095
1522000000,-28.377893,140.60869
1523000000,-30.488234,140.29791
1524000000,-31.955444,140.02126
1525000000,-34.527737,139.97563
1526000000,-36.985374,139.87749
1527000000,-40.187618,139.74213
1528000000,-41.221786,139.72649
1529000000,-42.47374,139.23805
1530000000,-45.202595,139.38222
1531000000,-46.215248,139.15181
1532000000,-49.98,139.09753
1533000000,-52.886463,138.74855
1534000000,-53.899857,138.6834
1535000000,-55.433361,138.68588
1536000000,-57.82103,138.38242
1537000000,-58.47538,138.27589
1538000000,-62.196522,138.26128
1539000000,-61.30344,137.81462
1540000000,-64.092751,137.91714
1541000000,-65.103912,137.55966
1542000000,-70.005936,137.51492
1543000000,-69.383995,137.34987
1544000000,-69.498367,137.27325
1545000000,-73.547852,136.97438
1546000000,-73.056335,136.98227
1547000000,-75.324242,136.85713
1548000000,-75.798706,136.63524
1549000000,-78.309052,136.68956
1550000000,-80.375389,136.38776
1551000000,-80.26088,136.2934
1552000000,-82.072807,136.24336
1553000000,-82.894264,135.78963
1554000000,-84.347328,135.91762
1555000000,-84.427582,135.48065
1556000000,-85.921455,135.37268
1557000000,-87.486084,135.21852
1558000000,-89.456329,135.0941
1559000000,-88.600494,134.93237
1560000000,-91.455948,134.79895
1561000000,-91.438362,134.73706
1562000000,-92.829659,134.6371
1563000000,-92.896751,134.60609
1564000000,-93.752014,134.23981
1565000000,-95.026772,134.11917
1566000000,-95.585617,134.03326
1567000000,-95.632042,133.80524
1568000000,-97.798508,133.54724
1569000000,-97.749397,133.62354
1570000000,-99.03299,133.35109
1571000000,-99.550301,133.4496
1572000000,-100.10091,133.11943
1573000000,-100.98576,132.92119
1574000000,-100.72414,132.78514
1575000000,-102.65412,132.72725
1576000000,-102.55064,132.57637
1577000000,-103.80993,132.36967
1578000000,-104.04044,132.30252
1579000000,-105.35544,132.29491
1580000000,-104.60796,131.85515
1581000000,-106.40275,131.89812
1582000000,-106.25553,131.79022
1583000000,-106.31974,131.51587
1584000000,-106.43723,131.56537
1585000000,-107.73907,131.23566
1586000000,-108.03824,131.02046
1587000000,-109.43013,130.83104
1588000000,-109.57507,130.90254
1589000000,-110.02387,130.31697
1590000000,-111.25724,130.54962
1591000000,-111.17871,130.33853
1592000000,-111.56123,130.35721
1593000000,-112.13542,130.19478
1594000000,-112.00774,129.85553
1595000000,-112.57574,129.78645
1596000000,-113.57409,129.55159
1597000000,-113.76374,129.42082
1598000000,-114.26303,129.17163
1599000000,-114.77513,129.16133
1600000000,-114.62852,129.07559
1601000000,-115.58649,128.84477
1602000000,-116.05917,128.58994
1603000000,-116.07501,128.63409
1604000000,-116.51974,128.46855
1605000000,-117.2802,128.29155
1606000000,-117.53912,128.22198
1607000000,-117.74383,128.05464
1608000000,-118.11674,127.71525
1609000000,-118.20727,127.65008
1610000000,-118.5496,127.54835
1611000000,-119.29863,127.14427
1612000000,-119.61018,127.26869
1613000000,-119.407,126.94504
1614000000,-119.42603,126.88302
1615000000,-119.95468,126.73551
1616000000,-120.76196,126.59716
1617000000,-120.71124,126.56609
1618000000,-121.50714,126.31837
1619000000,-121.33556,126.18533
1620000000,-121.9243,126.0647
1621000000,-122.30075,125.90118
1622000000,-122.86455,125.79945
1623000000,-123.52532,125.71593
1624000000,-123.32106,125.37965
1625000000,-123.72673,125.29942
1626000000,-123.44933,125.16814
1627000000,-124.62263,125.04591
1628000000,-124.55582,124.7067
1629000000,-124.96503,124.69504
1630000000,-125.62105,124.61858
1631000000,-125.07835,124.36727
1632000000,-125.50925,124.34605
1633000000,-125.87685,124.16817
1634000000,-126.01334,123.94059
1635000000,-126.13108,123.90783
1636000000,-126.6107,123.74149
1637000000,-126.55396,123.61151
1638000000,-126.81509,123.36201
1639000000,-127.90707,123.14681
1640000000,-128.15685,123.07973
1641000000,-127.63875,123.21884
1642000000,-128.56171,122.85128
1643000000,-128.66461,122.7875
1644000000,-128.44429,122.57056
1645000000,-129.18787,122.28264
1646000000,-129.38835,122.29776
1647000000,-130.11855,122.15728
1648000000,-130.44221,121.82201
1649000000,-129.89807,121.6814
1650000000,-130.21922,121.55051
1651000000,-130.4549,121.52726
1652000000,-131.11151,121.25773
1653000000,-131.1136,121.07726
1654000000,-131.27238,120.98272
1655000000,-131.81393,121.05095
1656000000,-131.70573,120.69902
1657000000,-132.2247,120.46559
1658000000,-132.45232,120.38506
1659000000,-132.85878,120.32012
1660000000,-132.60626,120.21828
1661000000,-133.18045,119.96844
1662000000,-133.69237,119.80536
1663000000,-132.96596,119.83094
1664000000,-133.44569,119.66893
1665000000,-133.60031,119.39501
1666000000,-134.23409,119.4164
1667000000,-134.3662,119.13203
1668000000,-134.83455,118.98174
1669000000,-135.05042,118.84721
1670000000,-134.76303,118.78043
1671000000,-135.28529,118.61192
1672000000,-135.40991,118.53785
1673000000,-135.89079,118.42148
1674000000,-135.77547,117.95057
1675000000,-135.87262,117.95035
1676000000,-135.88428,117.9667
1677000000,-136.46895,117.55428
1678000000,-136.50307,117.69617
1679000000,-137.35835,117.20475
1680000000,-137.25032,117.31921
1681000000,-137.31819,117.14478
1682000000,-137.64661,116.79659
1683000000,-137.81581,116.66621
1684000000,-138.09094,116.60125
1685000000,-138.57349,116.40955
1686000000,-138.46935,116.36675
1687000000,-139.04541,116.17912
1688000000,-138.75679,116.11499
1689000000,-139.08519,116.00072
1690000000,-139.55444,115.66401
1691000000,-139.43639,115.56818
1692000000,-139.63872,115.45432
1693000000,-139.6851,115.38271
1694000000,-140.21732,115.05901
1695000000,-140.30757,115.01104
1696000000,-140.61772,114.88602
1697000000,-140.71756,114.65916
1698000000,-140.9431,114.44436
1699000000,-141.42308,114.37212
1700000000,-141.36092,114.3103
1701000000,-142.0251,114.13103
1702000000,-142.02599,113.97383
1703000000,-141.80293,113.93199
1704000000,-142.03548,113.84107
1705000000,-142.41998,113.71659
1706000000,-142.44994,113.58015
1707000000,-142.60141,113.31922
1708000000,-143.23157,113.10751
1709000000,-143.19443,113.06247
1710000000,-143.95485,112.72081
1711000000,-143.59889,112.68451
1712000000,-143.96901,112.49531
1713000000,-144.12415,112.46097
1714000000,-144.65422,112.17876
1715000000,-144.30186,112.22498
1716000000,-144.73593,111.97529
1717000000,-145.03247,111.76497
1718000000,-144.92297,111.78311
1719000000,-144.8304,111.65891
1720000000,-146.00374,111.34217
1721000000,-145.4332,111.06207
1722000000,-145.63681,111.05418
1723000000,-145.68063,110.84513
1724000000,-146.34505,110.7203
1725000000,-146.52228,110.65777
1726000000,-146.66208,110.41698
1727000000,-147.03098,110.34213
1728000000,-147.31911,110.10103
1729000000,-147.15384,110.07574
1730000000,-147.53383,109.85155
1731000000,-147.81676,109.71967
1732000000,-147.88268,109.63003
1733000000,-148.16304,109.42387
1734000000,-148.20361,109.24793
1735000000,-148.12398,109.18433
1736000000,-148.54463,109.02454
1737000000,-148.42802,108.78733
1738000000,-148.84232,108.7489
1739000000,-149.26596,108.68987
1740000000,-149.2885,108.44482
1741000000,-149.2484,108.3457
1742000000,-149.80125,108.16675
1743000000,-149.8201,108.06906
1744000000,-150.31265,107.63289
1745000000,-150.29137,107.7656
1746000000,-150.53941,107.40224
1747000000,-150.64111,107.40583
1748000000,-150.64038,107.42792
1749000000,-151.39374,106.96567
1750000000,-151.56712,107.01667
1751000000,-151.54408,106.99726
1752000000,-151.71358,106.64824
1753000000,-151.79634,106.5736
1754000000,-152.11966,106.42029
1755000000,-152.28102,106.2593
1756000000,-152.37665,106.24867
1757000000,-152.78705,105.94665
1758000000,-152.54124,105.89382
1759000000,-153.12273,105.757
1760000000,-153.41985,105.36196
1761000000,-153.11639,105.26324
1762000000,-153.49277,105.28159
1763000000,-153.33009,105.17404
1764000000,-153.70094,104.70791
1765000000,-153.97025,104.76187
1766000000,-154.42671,104.83253
1767000000,-154.088,104.65575
1768000000,-154.36995,104.34952
1769000000,-155.24506,104.25359
1770000000,-154.76001,104.15252
1771000000,-155.08548,104.00325
1772000000,-155.01437,103.96107
1773000000,-155.46844,103.84872
1774000000,-155.75131,103.36665
1775000000,-155.67995,103.29227
1776000000,-155.78926,103.21844
1777000000,-156.04887,103.29383
1778000000,-156.19391,103.03846
1779000000,-156.63029,102.91396
1780000000,-156.64159,102.67338
1781000000,-156.74968,102.51791
1782000000,-157.19635,102.32948
1783000000,-157.69327,102.2178
1784000000,-157.33578,101.93169
1785000000,-157.5218,101.80375
1786000000,-158.3382,101.72534
1787000000,-157.92699,101.66126
1788000000,-158.02106,101.61308
1789000000,-158.4169,101.2786
1790000000,-158.2417,101.2028
1791000000,-158.76323,101.13006
1792000000,-158.2737,101.03764
1793000000,-159.54407,100.73221
1794000000,-159.32147,100.69022
1795000000,-159.58975,100.51692
1796000000,-159.41925,100.42687
1797000000,-159.49142,100.21169
1798000000,-159.89035,100.19927
1799000000,-160.17751,100.05099
1800000000,-160.30627,99.876129
1801000000,-160.7104,99.677505
1802000000,-160.77269,99.445709
1803000000,-160.3855,99.330284
1804000000,-161.00267,99.232483
1805000000,-161.39122,99.025719
1806000000,-161.02515,99.115211
1807000000,-161.21922,98.786842
1808000000,-161.18933,98.629471
1809000000,-161.51215,98.646828
1810000000,-161.78415,98.232063
1811000000,-162.11356,98.268494
1812000000,-162.10582,98.111732
1813000000,-162.22424,97.973022
1814000000,-162.05893,97.840073
1815000000,-162.9888,97.44091
1816000000,-162.86705,97.540154
1817000000,-162.8291,97.347565
1818000000,-163.20317,97.113731
1819000000,-163.27133,97.148743
1820000000,-163.5988,96.895622
1821000000,-163.47797,96.725235
1822000000,-163.90775,96.388939
1823000000,-163.54756,96.568558
1824000000,-164.056,96.523788
1825000000,-164.58005,96.008987
1826000000,-164.371,96.133759
1827000000,-164.87515,96.003654
1828000000,-165.01714,95.728149
1829000000,-165.14764,95.667725
1830000000,-165.08133,95.625122
1831000000,-165.17552,95.627457
1832000000,-165.76523,95.17849
1833000000,-165.71585,95.161926
1834000000,-165.92836,95.025185
1835000000,-166.1199,94.588829
1836000000,-166.12248,94.668282
1837000000,-166.31425,94.572273
1838000000,-166.59122,94.475128
1839000000,-166.40187,94.309868
1840000000,-166.96358,93.924469
1841000000,-167.23677,93.676949
1842000000,-167.46577,93.594162
1843000000,-167.48907,93.50103
1844000000,-167.97394,93.59938
1845000000,-167.93864,93.341026
1846000000,-167.78392,93.24826
1847000000,-167.98381,92.983467
1848000000,-168.12302,92.809654
1849000000,-168.18814,92.786751
1850000000,-168.71629,92.609444
1851000000,-168.60959,92.457092
1852000000,-169.04626,92.147163
1853000000,-169.12895,92.147881
1854000000,-169.14417,92.078918
1855000000,-169.50906,91.676552
1856000000,-169.45299,91.790054
1857000000,-169.95636,91.685257
1858000000,-169.8353,91.574905
1859000000,-170.24042,91.324135
1860000000,-170.4913,91.470169
1861000000,-170.50717,91.093048
1862000000,-170.32689,90.896568
1863000000,-170.41721,90.819557
1864000000,-170.93451,90.597389
1865000000,-171.02888,90.447083
1866000000,-171.39331,90.335602
1867000000,-171.59639,90.33342
1868000000,-171.33875,90.107323
1869000000,-171.9967,89.716438
1870000000,-172.04617,89.77269
1871000000,-172.04315,89.575729
1872000000,-172.17722,89.323631
1873000000,-172.08951,89.257629
1874000000,-172.55772,89.273308
1875000000,-172.50967,89.120728
1876000000,-172.59926,89.066757
1877000000,-172.92839,88.690269
1878000000,-172.84457,88.864403
1879000000,-173.20439,88.587021
1880000000,-173.50348,88.269249
1881000000,-173.7135,88.242287
1882000000,-173.8239,87.993172
1883000000,-173.84232,87.991417
1884000000,-173.85941,87.986305
1885000000,-174.32777,87.585724
1886000000,-174.58838,87.529892
1887000000,-174.24635,87.584656
1888000000,-174.99864,87.212372
1889000000,-174.9402,87.137756
1890000000,-175.19934,86.986099
1891000000,-175.20265,86.763435
1892000000,-175.76991,86.497902
1893000000,-175.2662,86.565437
1894000000,-175.41231,86.5923
1895000000,-176.04747,86.059875
1896000000,-176.02817,86.148582
1897000000,-176.26276,86.003777
1898000000,-176.50235,85.619728
1899000000,-176.71098,85.5438
1900000000,-177.1299,85.52076
1901000000,-176.61781,85.451889
1902000000,-176.89064,85.275101
1903000000,-177.27269,85.104126
1904000000,-177.72134,84.96962
1905000000,-177.38832,84.847229
1906000000,-177.58662,84.614799
1907000000,-177.75392,84.370865
1908000000,-177.66617,84.441956
1909000000,-178.30424,84.217392
1910000000,-178.26149,84.247787
1911000000,-178.61786,83.778175
1912000000,-178.68199,83.950256
1913000000,-178.34978,83.826675
1914000000,-178.79828,83.735535
1915000000,-179.14496,83.460358
1916000000,-179.196,83.238586
1917000000,-179.41112,83.164482
1918000000,-179.19302,83.104301
1919000000,-179.91756,82.748405
1920000000,-179.9292,82.661736
1921000000,179.94028,82.466736
1922000000,179.42996,82.469734
1923000000,179.46735,82.316467
1924000000,179.27483,82.072685
1925000000,179.34059,81.805084
1926000000,179.26443,81.816185
1927000000,179.37115,81.858414
1928000000,178.54433,81.533646
1929000000,179.00409,81.390541
1930000000,178.7236,81.401054
1931000000,178.54012,81.119781
1932000000,178.2812,81.065201
1933000000,178.05023,80.785904
1934000000,177.81294,80.773994
1935000000,177.82361,80.537132
1936000000,177.74185,80.386406
1937000000,177.56366,80.456268
1938000000,177.10957,80.150604
1939000000,177.53821,80.071983
1940000000,177.33466,80.020561
1941000000,176.81747,79.683907
1942000000,177.07521,79.639877
1943000000,176.23926,79.63018
1944000000,176.59308,79.314568
1945000000,176.21666,79.078384
1946000000,176.31952,79.140656
1947000000,175.70306,78.769951
1948000000,175.43358,78.82209
1949000000,175.76157,78.581474
1950000000,175.33391,78.420135
1951000000,174.94025,78.215492
1952000000,174.60938,78.093727
1953000000,175.05856,78.174179
1954000000,174.71274,78.097389
1955000000,174.62332,77.776634
1956000000,174.48563,77.703926
1957000000,174.09865,77.421776
1958000000,174.01392,77.355377
1959000000,174.30074,77.219673
1960000000,174.25974,77.230408
1961000000,174.00349,77.04232
1962000000,173.93488,76.835541
1963000000,173.75494,76.662842
1964000000,173.37459,76.49733
1965000000,172.83151,76.557228
1966000000,172.91777,76.207787
1967000000,172.6217,76.184975
1968000000,172.60684,76.115952
1969000000,172.29095,75.773331
1970000000,172.38159,75.880089
1971000000,172.23569,75.600975
1972000000,171.88823,75.488182
1973000000,171.49788,75.249466
1974000000,171.53539,75.137688
1975000000,171.33621,74.937859
1976000000,171.50699,75.006561
1977000000,171.10388,74.730415
1978000000,171.063,74.618248
1979000000,171.10828,74.602463
1980000000,170.72163,74.289703
1981000000,170.73956,74.221626
1982000000,170.50845,74.312233
1983000000,170.3302,73.813507
1984000000,170.06853,73.767662
1985000000,169.74754,73.691162
1986000000,169.66788,73.421997
1987000000,169.29631,73.212372
1988000000,169.3298,73.311371
1989000000,169.33716,73.058685
1990000000,168.92938,72.80722
1991000000,168.85091,72.68734
1992000000,168.58899,72.662895
1993000000,168.8391,72.663498
1994000000,168.70149,72.419258
1995000000,168.76892,72.39547
1996000000,168.25053,72.071709
1997000000,167.84079,71.700829
1998000000,168.10576,71.980492
1999000000,167.83748,71.678871
2000000000,167.58919,71.628387
2001000000,167.41022,71.377945
2002000000,167.42325,71.332176
2003000000,167.31058,70.965302
2004000000,167.22903,71.101883
2005000000,166.77603,70.863182
2006000000,166.66125,70.729225
2007000000,166.6086,70.525047
2008000000,166.42854,70.544357
2009000000,166.43484,70.323349
2010000000,166.19266,69.948044
2011000000,165.67004,69.866791
2012000000,165.71854,69.954941
2013000000,165.51953,69.633469
2014000000,165.42625,69.557045
2015000000,165.19827,69.262611
2016000000,165.35243,69.453598
2017000000,164.88731,69.177971
2018000000,164.79802,69.080238
2019000000,165.06755,69.143333
2020000000,164.75021,68.885262
2021000000,164.78757,68.813774
2022000000,164.40004,68.491608
2023000000,164.07385,68.133163
2024000000,164.16908,68.240326
2025000000,163.37558,68.081825
2026000000,163.9281,67.981758
2027000000,163.43758,67.87442
2028000000,163.54329,67.564751
2029000000,163.24388,67.563698
2030000000,163.30765,67.390915
2031000000,163.05008,67.330132
2032000000,162.752,67.195549
2033000000,162.86478,67.113373
2034000000,162.49707,66.830795
2035000000,162.0527,66.732979
2036000000,162.48334,66.46685
2037000000,161.8206,66.305443
2038000000,161.92789,66.2257
2039000000,161.97037,66.223869
2040000000,161.42896,65.925568
2041000000,161.71696,66.031921
2042000000,161.32501,65.797081
2043000000,161.29391,65.627716
2044000000,160.77101,65.40905
2045000000,161.01144,65.364937
2046000000,160.78838,65.1381
2047000000,160.45753,65.102707
2048000000,160.36023,64.967545
2049000000,160.36583,64.741478
2050000000,160.0594,64.457031
2051000000,160.14948,64.557335
2052000000,160.00047,64.215714
2053000000,159.47386,64.235336
2054000000,159.69775,64.041245
2055000000,159.45848,64.03904
2056000000,159.47421,63.856968
2057000000,159.03818,63.872337
2058000000,159.00055,63.654701
2059000000,158.83087,63.380257
2060000000,158.62097,63.220169
2061000000,158.52208,63.192616
2062000000,158.34818,62.989925
2063000000,158.36449,62.794594
2064000000,157.88718,62.67057
2065000000,158.18379,62.527466
2066000000,157.73566,62.507099
2067000000,157.82605,62.257748
2068000000,157.51926,62.170555
2069000000,157.17403,61.759438
2070000000,157.11722,61.794804
2071000000,157.08694,61.601135
2072000000,156.83569,61.387615
2073000000,156.87045,61.477924
2074000000,156.47165,61.331814
2075000000,156.41484,61.192989
2076000000,156.40453,60.955997
2077000000,156.16225,61.060848
2078000000,155.84991,60.631981
2079000000,155.8562,60.668331
2080000000,155.76968,60.400887
2081000000,155.41161,60.268402
2082000000,155.38527,60.187443
2083000000,154.9081,60.017052
2084000000,155.10289,59.736973
2085000000,154.80505,59.735626
2086000000,154.50714,59.632778
2087000000,154.44362,59.299294
2088000000,154.50731,59.362759
2089000000,154.55258,59.274624
2090000000,154.17476,59.094128
2091000000,153.98773,59.003792
2092000000,153.78734,58.946999
2093000000,153.92146,58.618507
2094000000,153.4189,58.599792
2095000000,153.53882,58.308281
2096000000,153.24294,58.153118
2097000000,153.2121,58.188808
2098000000,152.88196,58.021271
2099000000,152.68422,57.753731
2100000000,152.59039,57.868698
2101000000,152.55969,57.477711
2102000000,152.25661,57.593616
2103000000,152.2262,57.42474
2104000000,152.03934,57.2015
2105000000,151.81438,56.987679
2106000000,151.88272,56.710331
2107000000,151.53481,56.785786
2108000000,151.27547,56.737305
2109000000,150.97771,56.405392
2110000000,151.20183,56.432026
2111000000,151.18497,56.491077
2112000000,150.79681,55.901131
2113000000,150.48932,55.87907
2114000000,150.31955,55.616467
2115000000,150.44241,55.612839
2116000000,150.25409,55.491703
2117000000,150.02863,55.262905
2118000000,149.77509,55.174938
2119000000,149.71004,55.055969
2120000000,149.56215,54.91283
2121000000,149.42653,54.796314
2122000000,149.284,54.709244
2123000000,149.0354,54.30991
2124000000,148.95056,54.294445
2125000000,148.90155,54.430897
2126000000,148.66797,54.184841
2127000000,148.45528,54.002804
2128000000,148.61891,53.871986
2129000000,148.39967,53.79776
2130000000,148.39206,53.649113
2131000000,147.90288,53.427761
2132000000,147.8596,53.137207
2133000000,147.4921,52.932209
2134000000,147.69296,52.977772
2135000000,147.38885,52.635674
2136000000,147.49258,52.64645
2137000000,146.81528,52.574917
2138000000,147.20911,52.424362
2139000000,146.87898,52.443752
2140000000,146.48091,52.134853
2141000000,146.37827,51.964977
2142000000,146.38423,51.722549
2143000000,146.13066,51.783115
2144000000,145.98164,51.67804
2145000000,145.89175,51.439701
2146000000,145.80469,51.369129
2147000000,145.60458,51.186684
2148000000,145.77025,51.160351
2149000000,145.35667,50.819469
2150000000,145.35625,50.808575
2151000000,145.00291,50.771969
2152000000,145.08496,50.607292
2153000000,144.91507,50.382538
2154000000,144.31038,50.038216
2155000000,144.40814,50.050915
2156000000,144.26111,50.037579
2157000000,144.16077,49.871574
2158000000,143.71716,49.61676
2159000000,143.85449,49.501499
2160000000,143.60684,49.450142
2161000000,143.13356,49.281673
2162000000,143.15363,49.134872
2163000000,143.53088,49.131115
2164000000,142.75496,48.751099
2165000000,143.1904,48.837418
2166000000,142.8586,48.73053
2167000000,142.69112,48.495083
2168000000,142.51622,48.35437
2169000000,142.30833,48.101303
2170000000,142.38565,48.169201
2171000000,141.86964,47.921181
2172000000,141.9595,47.820026
2173000000,141.73792,47.667156
2174000000,141.47377,47.521427
2175000000,141.73491,47.253944
2176000000,141.05696,46.968533
2177000000,141.2536,47.109074
2178000000,140.93466,46.970539
2179000000,140.65166,46.817913
2180000000,140.63344,46.749783
2181000000,140.62218,46.569267
2182000000,140.35544,46.374744
2183000000,139.91843,46.234219
2184000000,139.86049,46.066525
2185000000,139.84151,45.905739
2186000000,139.65666,45.593113
2187000000,139.62463,45.852852
2188000000,139.49417,45.712616
2189000000,139.07634,45.500755
2190000000,139.4254,45.342464
2191000000,139.05748,45.108444
2192000000,138.79495,45.098507
2193000000,138.72055,44.929466
2194000000,138.47101,44.535301
2195000000,138.50182,44.584038
2196000000,138.40236,44.247356
2197000000,138.17271,44.23386
2198000000,137.84421,43.853542
2199000000,137.96069,43.814835
2200000000,137.46487,43.741722
2201000000,137.49913,43.563881
2202000000,137.37595,43.592819
2203000000,137.37584,43.394043
2204000000,137.04143,43.278717
2205000000,136.92093,43.036686
2206000000,136.85812,42.908115
2207000000,136.41379,42.800133
2208000000,136.84657,42.940044
2209000000,136.04341,42.465878
2210000000,136.19032,42.41267
2211000000,136.34563,42.569218
2212000000,136.0191,42.108139
2213000000,135.90541,42.051189
2214000000,134.96449,41.64983
2215000000,135.74182,41.922821
2216000000,135.38739,41.555485
2217000000,135.28317,41.546223
2218000000,135.0285,41.29184
2219000000,135.14841,41.252655
2220000000,134.88628,41.261543
2221000000,134.62302,41.0354
2222000000,134.60211,40.601795
2223000000,134.69189,40.727589
2224000000,134.20061,40.674244
2225000000,133.98637,40.215576
2226000000,133.84341,40.223061
2227000000,133.68962,40.214054
2228000000,133.54385,39.94788
2229000000,133.52515,39.649189
2230000000,133.21805,39.577724
2231000000,133.44183,39.632626
2232000000,132.89363,39.353001
2233000000,132.9747,39.02684
2234000000,133.09915,39.182858
2235000000,132.84402,39.090778
2236000000,132.40273,38.942486
2237000000,132.14862,38.449722
2238000000,132.03668,38.58075
2239000000,132.27399,38.539581
2240000000,131.78305,38.127213
2241000000,131.61745,38.245525
2242000000,131.53903,37.894371
2243000000,131.33904,37.833958
2244000000,131.3855,37.687408
2245000000,131.2915,37.613239
2246000000,131.08459,37.343979
2247000000,130.89798,37.193687
2248000000,130.63776,37.003574
2249000000,130.72458,37.069672
2250000000,130.28186,36.776024
2251000000,130.05278,36.396816
2252000000,130.23051,36.70076
2253000000,129.84824,36.073181
2254000000,129.52037,36.222942
2255000000,129.48241,36.095818
2256000000,129.58386,35.974319
2257000000,129.27017,35.782406
2258000000,129.32594,35.803738
2259000000,129.07607,35.634449
2260000000,128.93892,35.328468
2261000000,128.92651,35.297832
2262000000,128.34967,34.977345
2263000000,128.48561,34.918159
2264000000,128.27115,34.823219
2265000000,128.21764,34.641006
2266000000,128.15698,34.632408
2267000000,127.85159,34.627659
2268000000,127.7961,34.317413
2269000000,127.52269,34.080128
2270000000,127.45103,33.961304
2271000000,126.90687,33.806995
2272000000,127.08804,33.783924
2273000000,126.8529,33.501564
2274000000,127.02304,33.513214
2275000000,126.49584,33.199894
2276000000,126.50587,33.226978
2277000000,126.03102,32.690384
2278000000,126.21313,32.727013
2279000000,125.9567,32.713917
2280000000,126.06176,32.496796
2281000000,125.70097,32.37682
2282000000,125.54799,32.184101
2283000000,125.68651,32.192375
2284000000,125.40979,32.123604
2285000000,125.17822,31.808762
2286000000,124.94197,31.560963
2287000000,125.16157,31.555836
2288000000,124.71852,31.419991
2289000000,124.62709,31.177593
2290000000,124.45534,31.147886
2291000000,124.29347,31.014647
2292000000,124.018,30.701403
2293000000,123.9874,30.628212
2294000000,123.82264,30.414803
2295000000,123.64737,30.321789
2296000000,123.37971,30.195898
2297000000,123.45253,30.233839
2298000000,123.03848,29.859402
2299000000,123.30486,29.95735
2300000000,122.97063,29.789272
2301000000,122.80633,29.399874
2302000000,122.66803,29.315979
2303000000,122.48309,29.207512
2304000000,122.37371,29.205042
2305000000,122.30701,28.841379
2306000000,122.11097,28.872808
2307000000,122.15489,28.741013
2308000000,121.91907,28.523376
2309000000,121.61312,28.120403
2310000000,121.6694,28.491173
2311000000,121.56256,28.311777
2312000000,121.21861,27.890179
2313000000,121.10927,27.917957
2314000000,121.1065,27.647472
2315000000,120.90838,27.668005
2316000000,120.47193,27.267092
2317000000,120.54649,27.150848
2318000000,120.39619,27.139595
2319000000,120.26951,26.815884
2320000000,120.01167,26.745008
2321000000,120.02818,26.714449
2322000000,119.59936,26.470552
2323000000,119.44147,26.256393
2324000000,119.75576,26.335001
2325000000,119.39907,26.141624
2326000000,119.3937,26.113605
2327000000,119.06308,25.670343
2328000000,118.67056,25.211811
2329000000,118.50152,25.502199
2330000000,118.38025,25.285475
2331000000,118.45792,25.291668
2332000000,118.33122,25.132118
2333000000,118.01498,24.91316
2334000000,118.02635,24.727915
2335000000,117.52163,24.549725
2336000000,117.57635,24.446672
2337000000,117.58849,24.438982
2338000000,117.54715,24.111996
2339000000,117.37035,24.0483
2340000000,116.73639,23.76687
2341000000,117.3054,23.717424
2342000000,116.73344,23.635843
2343000000,116.95803,23.54973
2344000000,116.26752,23.465893
2345000000,116.25417,23.283054
2346000000,116.22335,23.176701
2347000000,115.96451,22.801094
2348000000,116.03062,22.732796
2349000000,115.79849,22.641077
2350000000,115.80341,22.558025
2351000000,115.51279,22.172207
2352000000,115.5,22.071899
2353000000,115.39803,22.014101
2354000000,115.12383,21.68026
2355000000,115.11951,21.748867
2356000000,114.69331,21.707113
2357000000,114.91096,21.417517
2358000000,114.6434,21.269749
2359000000,114.45418,21.205988
2360000000,114.25771,20.915171
2361000000,114.37399,20.862751
2362000000,114.21756,20.56395
2363000000,113.98258,20.649445
2364000000,113.93418,20.452593
2365000000,114.04201,20.340769
2366000000,113.57526,20.044228
2367000000,113.32017,19.829634
2368000000,113.39449,20.130318
2369000000,113.2748,19.555479
2370000000,112.80758,19.384186
2371000000,112.7457,19.309563
2372000000,112.81738,19.251427
2373000000,112.58882,19.031502
2374000000,112.42912,19.090462
2375000000,112.41706,18.801569
2376000000,112.24857,18.783209
2377000000,111.70007,18.355631
2378000000,111.56566,18.36698
2379000000,111.71048,18.120361
2380000000,111.57309,17.910215
2381000000,111.3484,17.871925
2382000000,111.1582,17.656294
2383000000,110.89716,17.624222
2384000000,110.8027,17.303823
2385000000,110.69098,17.353859
2386000000,110.67384,17.27593
2387000000,110.45763,16.860645
2388000000,110.40088,16.996403
2389000000,110.05089,16.791878
2390000000,109.82863,16.359032
2391000000,110.13464,16.367508
2392000000,109.59603,16.344156
2393000000,109.69578,16.126417
2394000000,109.21815,15.731439
2395000000,109.27139,15.697467
2396000000,109.03432,15.723167
2397000000,108.91389,15.606284
2398000000,108.83225,15.3606
2399000000,108.55983,15.19875
2400000000,108.47388,15.052492
2401000000,108.5189,15.059858
2402000000,108.31743,14.989054
2403000000,107.85702,14.588534
2404000000,107.84879,14.518905
2405000000,107.87498,14.139682
2406000000,107.81304,14.175182
2407000000,107.71738,14.056542
2408000000,107.60835,13.78909
2409000000,107.4778,13.825402
2410000000,107.20643,13.428559
2411000000,107.0118,13.546979
2412000000,107.17939,13.363974
2413000000,106.48949,13.083973
2414000000,106.96346,12.707829
2415000000,106.78889,12.701007
2416000000,106.32502,12.868138
2417000000,106.18452,12.472339
2418000000,105.96337,12.516874
2419000000,105.45693,12.206879
2420000000,105.5937,12.066438
2421000000,105.63901,11.953322
2422000000,105.34661,11.893776
2423000000,104.91734,11.665723
2424000000,105.28487,11.611771
2425000000,105.23254,11.284743
2426000000,104.93206,11.357837
2427000000,104.35561,11.115772
2428000000,104.79315,10.943158
2429000000,104.3118,10.854182
2430000000,104.22878,10.695906
2431000000,104.01961,10.556666
2432000000,103.88345,10.363495
2433000000,103.56695,10.277702
2434000000,103.44649,9.9243269
2435000000,103.30317,9.9430103
2436000000,103.67356,9.7624865
2437000000,103.90414,9.7977276
2438000000,103.20119,9.623929
2439000000,102.91284,9.2480783
2440000000,102.90376,9.2531214
2441000000,102.86614,8.9269228
2442000000,102.73751,8.9762497
2443000000,102.68464,8.7418909
2444000000,102.078,8.5831203
2445000000,102.14996,8.4018335
2446000000,102.03175,8.2739134
2447000000,101.87979,8.3259048
2448000000,101.7925,7.8533893
2449000000,101.73558,7.812911
2450000000,101.45145,7.6174712
2451000000,101.48248,7.415597
2452000000,101.54202,7.5392895
2453000000,101.14699,7.3457313
2454000000,101.20576,6.9337149
2455000000,101.1215,6.9960427
2456000000,100.39509,6.8581772
2457000000,100.84769,6.2901964
2458000000,100.51835,6.4332304
2459000000,100.13646,6.4054008
2460000000,100.41856,6.0550718
2461000000,99.820648,5.9548025
2462000000,100.0342,5.7002373
2463000000,99.77375,5.8375893
2464000000,99.706772,5.5101976
2465000000,99.283066,5.499928
2466000000,99.105293,5.2921996
2467000000,99.395912,5.1409039
2468000000,99.849167,4.7729983
2469000000,99.104668,4.7568908
2470000000,98.53093,4.7170224
2471000000,98.848007,4.7232304
2472000000,99.083336,4.2939405
2473000000,98.578217,4.2635641
2474000000,98.681999,3.9927361
2475000000,98.570221,3.9516368
2476000000,98.772148,3.6855104
2477000000,98.075508,3.744869
2478000000,98.143486,3.5017276
2479000000,98.171188,3.0010381
2480000000,97.785774,3.0817735
2481000000,97.622963,3.0663204
2482000000,97.586365,2.7642365
2483000000,97.930885,2.7412317
2484000000,97.363441,2.324543
2485000000,97.510277,2.3401098
2486000000,97.092415,2.1962032
2487000000,97.040977,2.0918787
2488000000,97.48159,2.0472891
2489000000,97.31221,1.6812435
2490000000,97.151428,1.5553663
2491000000,97.002266,1.2168912
2492000000,96.636642,1.3066083
2493000000,96.420265,0.92744535
2494000000,96.655617,0.81688643
2495000000,96.465462,0.88334459
2496000000,96.370575,0.98236394
2497000000,96.759285,0.82003063
2498000000,96.731117,0.4106563
2499000000,96.038422,0.29522967
2500000000,95.85125,0.15069304
2501000000,96.141731,-0.0023204254
2502000000,96.051659,-0.29794759
2503000000,96.541618,-0.34538478
2504000000,94.768463,-0.31461477
2505000000,95.921188,-0.82270813
2506000000,95.599045,-0.82607764
2507000000,96.170273,-0.95206219
2508000000,96.031502,-1.1414541
2509000000,95.046638,-1.1870351
2510000000,95.50132,-1.635707
2511000000,95.747993,-1.657817
2512000000,95.689346,-1.493968
2513000000,94.517204,-1.8230813
2514000000,95.550247,-1.9039199
2515000000,96.044426,-2.1863275
2516000000,97.865517,-2.3483257
2517000000,95.183105,-2.3196614
2518000000,95.363243,-2.5420847
2519000000,95.740059,-2.6006217
2520000000,95.639496,-2.8839645
2521000000,96.022308,-3.0438972
2522000000,97.253586,-3.1281669
2523000000,95.254463,-3.2401967
2524000000,95.523918,-3.3911619
2525000000,97.373123,-3.6020212
2526000000,95.774872,-3.7939882
2527000000,97.596535,-3.9305651
2528000000,98.31031,-4.1709127
2529000000,97.325928,-4.2279186
2530000000,96.031715,-4.3738551
2531000000,97.758057,-4.5508089
2532000000,97.657089,-4.6551738
2533000000,98.946243,-4.815599
2534000000,99.616837,-5.1336355
2535000000,98.855888,-5.0958347
2536000000,100.80022,-5.2467804
2537000000,100.25835,-5.3491693
2538000000,103.81948,-5.734724
2539000000,103.89935,-6.0153484
2540000000,102.60163,-5.6833506
2541000000,105.46446,-5.9655771
2542000000,106.99974,-6.1430893
2543000000,107.53896,-6.5208807
2544000000,108.44711,-6.5971117
2545000000,112.1173,-6.5012269
2546000000,114.13798,-6.7679458
2547000000,114.99931,-7.0697222
2548000000,122.86422,-7.0175104
2549000000,123.72443,-7.3554044
2550000000,124.85482,-7.3460383
2551000000,127.89688,-7.6085439
2552000000,140.34326,-7.8280492
2553000000,159.10466,-7.8611679
2554000000,172.81856,-8.1284113
2555000000,-173.61481,-8.0670691
2556000000,-172.94908,-8.4555464
2557000000,-159.12718,-8.5504999
2558000000,-150.98984,-8.5046301
2559000000,-145.34981,-8.9178276
2560000000,-136.45084,-8.8558798
2561000000,-129.81905,-9.1262751
2562000000,-123.56358,-9.0982037
2563000000,-125.50969,-9.4820061
2564000000,-126.20033,-9.6655254
2565000000,-118.09195,-9.6615925
2566000000,-119.55804,-9.854682
2567000000,-118.77416,-10.134472
2568000000,-117.06981,-10.164271
2569000000,-116.67313,-10.33835
2570000000,-114.90833,-10.307224
2571000000,-112.78506,-10.501152
2572000000,-114.26111,-10.819324
2573000000,-112.49663,-10.91493
2574000000,-109.93645,-10.964381
2575000000,-112.0096,-11.208986
2576000000,-113.40414,-11.597322
2577000000,-111.49931,-11.628985
2578000000,-111.138,-11.617827
2579000000,-109.68489,-11.783632
2580000000,-110.50395,-12.033469
2581000000,-112.11066,-12.466684
2582000000,-110.74475,-12.395095
2583000000,-108.68736,-12.414515
2584000000,-109.71622,-12.750158
2585000000,-109.88353,-12.810727
2586000000,-109.5877,-13.034406
2587000000,-109.53205,-13.127629
2588000000,-109.23235,-13.119756
2589000000,-108.43106,-13.296569
2590000000,-109.50669,-13.592294
2591000000,-109.02144,-13.873081
2592000000,-109.17281,-13.8254
2593000000,-109.20815,-14.020965
2594000000,-108.50913,-14.075043
2595000000,-108.72375,-14.337558
2596000000,-109.90076,-14.339166
2597000000,-108.84333,-14.574753
2598000000,-108.93182,-14.708409
2599000000,-108.91205,-14.871011
2600000000,-109.01305,-15.161907
2601000000,-109.16608,-15.243877
2602000000,-108.86021,-15.381787
2603000000,-109.04679,-15.575814
2604000000,-109.4344,-15.741599
2605000000,-108.96469,-15.737164
2606000000,-109.62293,-16.178894
2607000000,-109.55594,-16.246969
2608000000,-110.50117,-16.457586
2609000000,-110.22636,-16.565233
2610000000,-109.17706,-16.356001
2611000000,-110.17033,-16.734852
2612000000,-109.45018,-16.940733
2613000000,-109.8382,-17.159817
2614000000,-109.71751,-17.203024
2615000000,-110.3669,-17.361492
2616000000,-109.9299,-17.468267
2617000000,-109.55318,-17.660898
2618000000,-110.87168,-17.878162
2619000000,-109.66639,-17.867823
2620000000,-109.82753,-18.20079
2621000000,-111.0983,-18.408367
2622000000,-111.56165,-18.539577
2623000000,-112.18226,-18.615463
2624000000,-111.80902,-18.807581
2625000000,-110.02412,-18.645325
2626000000,-110.35321,-19.059881
2627000000,-112.19744,-19.291193
2628000000,-111.1799,-19.361437
2629000000,-111.29815,-19.531494
2630000000,-111.42033,-19.660908
2631000000,-110.90403,-19.66293
2632000000,-111.36745,-19.831467
2633000000,-112.05303,-20.240349
2634000000,-111.29698,-20.191324
2635000000,-111.64518,-20.249275
2636000000,-111.96732,-20.39329
2637000000,-112.61234,-20.752621
2638000000,-112.85013,-21.060818
2639000000,-112.56249,-21.137697
2640000000,-112.86893,-21.228218
2641000000,-112.96071,-21.178625
2642000000,-113.28577,-21.441721
2643000000,-112.71819,-21.39241
2644000000,-113.36494,-21.965275
2645000000,-112.88423,-21.941105
2646000000,-113.28017,-22.192606
2647000000,-113.47775,-22.391493
2648000000,-113.30188,-22.341459
2649000000,-114.21192,-22.621162
2650000000,-114.05342,-22.61541
2651000000,-114.14178,-22.782185
2652000000,-114.38711,-23.139036
2653000000,-114.69258,-23.282162
2654000000,-114.11007,-23.124413
2655000000,-114.86539,-23.451199
2656000000,-115.03478,-23.618895
2657000000,-114.8725,-23.727121
2658000000,-114.80507,-23.829586
2659000000,-115.65684,-24.080164
2660000000,-115.50269,-24.361351
2661000000,-114.70428,-24.377556
2662000000,-115.65572,-24.65077
2663000000,-115.98704,-24.841551
2664000000,-115.58699,-24.798391
2665000000,-115.63437,-24.967216
2666000000,-115.55824,-25.005371
2667000000,-116.04794,-25.167599
2668000000,-115.96793,-25.121342
2669000000,-116.12823,-25.569746
2670000000,-115.60064,-25.534983
2671000000,-116.72419,-25.782686
2672000000,-116.51614,-25.986317
2673000000,-117.19187,-26.213448
2674000000,-117.07549,-26.258821
2675000000,-117.26043,-26.323582
2676000000,-117.53159,-26.755461
2677000000,-117.15669,-26.778166
2678000000,-117.4157,-27.057882
2679000000,-116.83886,-26.887402
2680000000,-118.2374,-27.335293
2681000000,-117.97826,-27.421356
2682000000,-118.27946,-27.412022
2683000000,-118.96306,-27.74107
2684000000,-118.56358,-27.856485
2685000000,-118.64783,-28.05901
2686000000,-118.87846,-28.23584
2687000000,-119.16041,-28.493679
2688000000,-118.6069,-28.129614
2689000000,-119.03796,-28.672268
2690000000,-119.08349,-28.74062
2691000000,-119.33659,-28.973206
2692000000,-120.16084,-29.333242
2693000000,-120.01482,-29.243776
2694000000,-120.37625,-29.514795
2695000000,-120.18356,-29.413401
2696000000,-120.39588,-29.679379
2697000000,-120.25815,-29.818024
2698000000,-120.17515,-29.925064
2699000000,-120.64912,-30.105057
2700000000,-120.868,-30.201731
2701000000,-120.75742,-30.334377
2702000000,-120.62189,-30.432499
2703000000,-120.93913,-30.574409
2704000000,-121.16141,-30.748949
2705000000,-121.3025,-31.045576
2706000000,-121.09242,-31.051809
2707000000,-122.09474,-31.356949
2708000000,-121.62035,-31.400105
2709000000,-122.00986,-31.575787
2710000000,-121.82162,-31.569387
2711000000,-122.51698,-31.988844
2712000000,-122.53435,-32.026905
2713000000,-122.27737,-32.325569
2714000000,-122.89192,-32.417828
2715000000,-122.87539,-32.392986
2716000000,-122.98,-32.623634
2717000000,-122.78065,-32.603386
2718000000,-123.23142,-33.035759
2719000000,-123.5983,-33.060539
2720000000,-124.05312,-33.411556
2721000000,-123.72937,-33.389824
2722000000,-124.06239,-33.585091
2723000000,-124.13177,-33.730068
2724000000,-124.10668,-33.574444
2725000000,-124.37955,-33.865124
2726000000,-124.69924,-34.159294
2727000000,-124.83949,-34.175278
2728000000,-124.658,-34.411983
2729000000,-124.85178,-34.545582
2730000000,-124.90635,-34.571728
2731000000,-124.92636,-34.801033
2732000000,-125.28767,-34.852173
2733000000,-125.53603,-35.23114
2734000000,-125.51743,-35.36908
2735000000,-126.15384,-35.427425
2736000000,-125.80564,-35.576118
2737000000,-125.82501,-35.899551
2738000000,-126.0394,-35.937031
2739000000,-125.9054,-35.916119
2740000000,-126.00529,-36.103321
2741000000,-126.97017,-36.499123
2742000000,-126.62858,-36.461723
2743000000,-126.70309,-36.484859
2744000000,-127.06922,-36.804226
2745000000,-127.44451,-37.023945
2746000000,-127.13219,-37.142967
2747000000,-127.13468,-37.173244
2748000000,-127.7201,-37.233238
2749000000,-127.91342,-37.580376
2750000000,-128.05386,-37.851696
2751000000,-127.87823,-37.703102
2752000000,-128.54639,-38.034866
2753000000,-128.19098,-37.898846
2754000000,-128.91615,-38.569817
2755000000,-128.3855,-38.177784
2756000000,-128.90039,-38.633385
2757000000,-128.61189,-38.467461
2758000000,-129.04256,-38.853844
2759000000,-129.54367,-39.206924
2760000000,-129.47527,-39.253223
2761000000,-129.48494,-39.244137
2762000000,-129.44884,-39.324116
2763000000,-129.46281,-39.584614
2764000000,-129.98549,-39.809612
2765000000,-129.89665,-39.856075
2766000000,-130.25824,-40.036682
2767000000,-130.25163,-40.12291
2768000000,-130.88515,-40.453846
2769000000,-130.45,-40.444588
2770000000,-130.69891,-40.433655
2771000000,-131.19704,-40.583702
2772000000,-130.53412,-40.685764
2773000000,-130.98991,-41.132576
2774000000,-131.3544,-41.208572
2775000000,-131.58162,-41.274479
2776000000,-132.1494,-41.714893
2777000000,-131.54913,-41.676586
2778000000,-131.98056,-41.763126
2779000000,-132.31918,-42.043987
2780000000,-132.34006,-42.153358
2781000000,-132.60168,-42.325172
2782000000,-132.7001,-42.400475
2783000000,-132.60411,-42.58614
2784000000,-133.00261,-42.65213
2785000000,-133.08824,-42.663002
2786000000,-132.96997,-42.937576
2787000000,-133.41428,-43.118393
2788000000,-133.95384,-43.400223
2789000000,-133.67809,-43.502068
2790000000,-133.98607,-43.580872
2791000000,-133.92375,-43.713963
2792000000,-134.08708,-43.936722
2793000000,-134.29503,-44.072407
2794000000,-134.22165,-44.316601
2795000000,-134.48804,-44.505314
2796000000,-134.68082,-44.334637
2797000000,-134.29231,-44.320774
2798000000,-135.11572,-44.740971
2799000000,-135.67462,-45.081074
2800000000,-135.00385,-44.92469
2801000000,-135.37787,-45.0811
2802000000,-135.44609,-45.162849
2803000000,-135.62051,-45.367908
2804000000,-135.63115,-45.630573
2805000000,-136.08122,-45.845814
2806000000,-136.0831,-45.965492
2807000000,-136.31548,-46.087612
2808000000,-136.31664,-46.029202
2809000000,-136.99294,-46.621857
2810000000,-137.01233,-46.579845
2811000000,-137.34422,-46.698498
2812000000,-137.14653,-46.766323
2813000000,-137.2005,-46.88023
2814000000,-137.36386,-46.98378
2815000000,-137.66119,-47.060623
2816000000,-137.74376,-47.28714
2817000000,-137.96623,-47.451988
2818000000,-138.22919,-47.749687
2819000000,-137.99213,-47.702671
2820000000,-138.31737,-47.912258
2821000000,-138.15605,-48.01527
2822000000,-138.57861,-48.258621
2823000000,-138.92047,-48.203274
2824000000,-139.06458,-48.49559
2825000000,-139.06352,-48.593185
2826000000,-139.16269,-48.652443
2827000000,-139.31143,-48.976223
2828000000,-139.79649,-49.27631
2829000000,-139.70612,-49.103832
2830000000,-140.01166,-49.348579
2831000000,-139.85913,-49.319073
2832000000,-139.8252,-49.551117
2833000000,-140.00926,-49.757385
2834000000,-139.9856,-49.736
2835000000,-140.47472,-49.995922
2836000000,-140.2968,-50.061718
2837000000,-141.00806,-50.487347
2838000000,-141.01013,-50.307083
2839000000,-141.09395,-50.566387
2840000000,-141.11821,-50.696159
2841000000,-141.511,-50.839542
2842000000,-141.50034,-50.965706
2843000000,-141.61195,-51.056683
2844000000,-141.67172,-51.155415
2845000000,-142.30493,-51.609489
2846000000,-141.97667,-51.578579
2847000000,-142.49068,-51.663471
2848000000,-142.52467,-51.915024
2849000000,-143.03415,-52.032738
2850000000,-142.78644,-52.281536
2851000000,-143.05846,-52.622753
2852000000,-142.90862,-52.550144
2853000000,-143.26099,-52.591732
2854000000,-143.71077,-52.892124
2855000000,-143.54462,-52.812195
2856000000,-143.67944,-53.000969
2857000000,-143.86267,-53.192406
2858000000,-144.30811,-53.340378
2859000000,-144.27945,-53.484932
2860000000,-144.2496,-53.454109
2861000000,-144.47812,-53.75116
2862000000,-144.63506,-53.769825
2863000000,-144.71112,-54.014523
2864000000,-144.8887,-54.184723
2865000000,-144.92197,-54.355232
2866000000,-145.32881,-54.468945
2867000000,-145.65477,-54.669567
2868000000,-145.85066,-54.740974
2869000000,-145.90021,-55.042675
2870000000,-146.00642,-55.053894
2871000000,-146.34674,-55.277576
2872000000,-146.03227,-55.322784
2873000000,-146.26166,-55.243744
2874000000,-146.1756,-55.569725
2875000000,-146.70549,-55.902218
2876000000,-146.89864,-55.951599
2877000000,-146.96043,-55.93866
2878000000,-147.0368,-56.052734
2879000000,-147.25972,-56.46138
2880000000,-147.51627,-56.577682
2881000000,-147.28789,-56.432224
2882000000,-147.6954,-56.874153
2883000000,-148.07889,-56.963589
2884000000,-148.08856,-57.043282
2885000000,-148.18822,-57.161816
2886000000,-147.70474,-57.150269
2887000000,-148.61453,-57.456146
2888000000,-148.79477,-57.769466
2889000000,-148.75511,-57.703617
2890000000,-148.9857,-57.887711
2891000000,-148.95082,-57.822845
2892000000,-149.33936,-58.093594
2893000000,-149.02533,-58.113174
2894000000,-149.24409,-58.277313
2895000000,-149.86015,-58.584446
2896000000,-150.0842,-58.639694
2897000000,-149.95064,-58.868828
2898000000,-150.42656,-59.065235
2899000000,-150.592,-59.249352
2900000000,-149.99315,-59.206917
2901000000,-150.82622,-59.561653
2902000000,-150.89987,-59.660297
2903000000,-150.81584,-59.63937
2904000000,-150.85857,-59.620926
2905000000,-151.07892,-59.853085
2906000000,-151.59738,-59.970516
2907000000,-151.65636,-60.369633
2908000000,-151.57344,-60.511898
2909000000,-152.02754,-60.618305
2910000000,-151.95079,-60.709183
2911000000,-152.24336,-60.808067
2912000000,-152.08966,-61.031715
2913000000,-152.23499,-61.098003
2914000000,-152.61269,-61.447205
2915000000,-152.95561,-61.371315
2916000000,-152.72221,-61.448502
2917000000,-153.08482,-61.632042
2918000000,-153.69615,-61.843838
2919000000,-153.27492,-61.970566
2920000000,-153.30804,-62.036983
2921000000,-153.72632,-62.303619
2922000000,-153.64655,-62.255829
2923000000,-153.80284,-62.370678
2924000000,-153.95238,-62.592804
2925000000,-153.84343,-62.549049
2926000000,-154.5585,-63.064648
2927000000,-154.42796,-63.041077
2928000000,-154.94058,-63.44886
2929000000,-154.98506,-63.463108
2930000000,-154.94896,-63.419434
2931000000,-155.17972,-63.648792
2932000000,-155.18817,-63.690468
2933000000,-155.5103,-63.902122
2934000000,-155.46791,-64.011726
2935000000,-155.78598,-64.12722
2936000000,-155.71086,-64.304237
2937000000,-155.92108,-64.34893
2938000000,-156.16585,-64.639099
2939000000,-156.20107,-64.733688
2940000000,-156.48077,-64.813255
2941000000,-156.67081,-65.192085
2942000000,-156.54567,-64.900093
2943000000,-157.04712,-65.267647
2944000000,-157.43596,-65.648392
2945000000,-157.20972,-65.630478
2946000000,-157.74826,-65.873367
2947000000,-157.56656,-65.757362
2948000000,-157.62129,-65.713524
2949000000,-157.69189,-66.060265
2950000000,-158.19745,-66.200363
2951000000,-158.0262,-66.34935
2952000000,-158.37668,-66.56707
2953000000,-158.43668,-66.662201
2954000000,-158.3606,-66.877899
2955000000,-158.94109,-67.043976
2956000000,-158.87335,-67.134834
2957000000,-159.06599,-67.379623
2958000000,-159.20177,-67.636978
2959000000,-159.33458,-67.38858
2960000000,-159.14468,-67.650986
2961000000,-159.36661,-67.579971
2962000000,-159.83369,-67.874283
2963000000,-159.59726,-67.870773
2964000000,-160.0844,-68.118942
2965000000,-160.04694,-68.150162
2966000000,-160.57471,-68.357079
2967000000,-160.34621,-68.56662
2968000000,-160.80544,-68.724213
2969000000,-160.89468,-68.861015
2970000000,-161.12285,-69.012947
2971000000,-160.96577,-69.106773
2972000000,-161.47054,-69.47757
2973000000,-161.2569,-69.353302
2974000000,-161.58398,-69.514275
2975000000,-161.60657,-69.520874
2976000000,-161.88895,-69.839363
2977000000,-161.87662,-69.806793
2978000000,-162.16962,-70.154106
2979000000,-162.29567,-70.256767
2980000000,-162.57295,-70.609421
2981000000,-162.54549,-70.439056
2982000000,-162.71286,-70.807114
2983000000,-162.83513,-70.792709
2984000000,-162.95515,-70.913193
2985000000,-163.29379,-70.994255
2986000000,-163.30511,-71.235893
2987000000,-163.50867,-71.372871
2988000000,-163.68347,-71.467155
2989000000,-163.86551,-71.514694
2990000000,-163.59917,-71.678825
2991000000,-163.98529,-71.759804
2992000000,-164.08594,-71.860992
2993000000,-164.34012,-72.165154
2994000000,-164.58243,-72.245544
2995000000,-165.03685,-72.536858
2996000000,-164.91267,-72.627609
2997000000,-164.95172,-72.767853
2998000000,-165.43279,-73.190529
2999000000,-165.02988,-73.007881
3000000000,-165.10269,-73.066025
3001000000,-165.59877,-73.26767
3002000000,-165.85953,-73.439316
3003000000,-165.79544,-73.496284
3004000000,-165.68132,-73.645439
3005000000,-166.00337,-73.73632
3006000000,-166.23718,-73.88678
3007000000,-166.17889,-74.00795
3008000000,-166.65433,-74.284904
3009000000,-166.52638,-74.316818
3010000000,-166.88292,-74.355385
3011000000,-166.77809,-74.457794
3012000000,-167.01688,-74.707436
3013000000,-167.24983,-74.835938
3014000000,-167.29044,-75.016571
3015000000,-167.62521,-75.198372
3016000000,-167.53711,-75.218201
3017000000,-167.52911,-75.404839
3018000000,-167.94148,-75.526176
3019000000,-168.29555,-75.706482
3020000000,-168.20215,-75.939087
3021000000,-168.338,-76.161537
3022000000,-168.6286,-76.129944
3023000000,-168.53,-76.247917
3024000000,-168.76166,-76.325157
3025000000,-169.01364,-76.514366
3026000000,-168.91585,-76.70858
3027000000,-168.97021,-76.790718
3028000000,-169.50719,-77.101768
3029000000,-169.63445,-77.411491
3030000000,-169.76392,-77.413361
3031000000,-169.81013,-77.345383
3032000000,-170.06903,-77.725716
3033000000,-170.12096,-77.567879
3034000000,-170.42612,-77.906334
3035000000,-170.48936,-77.980362
3036000000,-170.96445,-78.097374
3037000000,-170.44504,-78.194588
3038000000,-170.88094,-78.347321
3039000000,-170.92097,-78.441528
3040000000,-171.10298,-78.657303
3041000000,-171.09793,-78.747375
3042000000,-171.12198,-78.763901
3043000000,-171.82375,-79.131165
3044000000,-171.80814,-79.269241
3045000000,-171.89116,-79.3918
3046000000,-172.11737,-79.634758
3047000000,-172.09058,-79.459671
3048000000,-172.18839,-79.845421
3049000000,-172.71098,-79.832245
3050000000,-172.64752,-79.917839
3051000000,-173.00877,-80.278885
3052000000,-173.05609,-80.373291
3053000000,-173.28905,-80.506508
3054000000,-173.33528,-80.664452
3055000000,-173.30962,-80.665672
3056000000,-173.62894,-80.843803
3057000000,-173.87535,-80.982643
3058000000,-173.87119,-81.163719
3059000000,-173.96436,-81.310722
3060000000,-173.94131,-81.298004
3061000000,-174.53029,-81.650795
3062000000,-174.10861,-81.670067
3063000000,-174.27913,-81.620796
3064000000,-174.41632,-82.099579
3065000000,-174.68961,-82.124298
3066000000,-175.37492,-82.356537
3067000000,-175.26857,-82.473801
3068000000,-175.40205,-82.459175
3069000000,-175.6479,-82.854836
3070000000,-175.68845,-83.027451
3071000000,-175.81268,-83.000435
3072000000,-175.69763,-82.863914
3073000000,-175.81017,-83.10054
3074000000,-176.15981,-83.456787
3075000000,-176.18005,-83.476799
3076000000,-176.43892,-83.727776
3077000000,-176.67363,-84.039063
3078000000,-176.89906,-84.060478
3079000000,-177.26645,-84.224754
3080000000,-177.25757,-84.224571
3081000000,-177.44373,-84.37606
3082000000,-177.2774,-84.510414
3083000000,-177.83844,-84.716118
3084000000,-177.85191,-84.668831
3085000000,-177.70892,-84.891106
3086000000,-177.98907,-84.951416
3087000000,-177.82706,-85.213158
3088000000,-178.15051,-85.2649
3089000000,-178.48499,-85.389252
3090000000,-178.5224,-85.47612
3091000000,-178.84836,-85.745949
3092000000,-178.80093,-85.859253
3093000000,-178.96802,-85.867889
3094000000,-179.25174,-86.076317
3095000000,-179.14059,-86.232536
3096000000,-179.35698,-86.297478
3097000000,-179.7755,-86.536446
3098000000,-179.73553,-86.693649
3099000000,-179.8933,-86.887398
3100000000,179.90819,-87.010666
3101000000,179.73892,-87.026245
3102000000,179.51047,-87.155968
3103000000,179.64903,-87.327995
3104000000,179.21097,-87.535553
3105000000,179.03867,-87.629936
3106000000,179.1134,-87.761528
3107000000,178.97981,-87.894768
3108000000,178.86626,-88.124023
3109000000,178.34402,-88.254929
3110000000,178.16748,-88.606934
3111000000,178.03384,-88.588966
3112000000,178.17546,-88.615135
3113000000,177.84305,-88.936256
3114000000,178.1181,-88.708397
3115000000,177.63889,-89.071732
3116000000,177.70863,-89.04425
3117000000,177.37869,-89.15052
3118000000,177.09196,-89.607597
3119000000,176.86259,-89.63504
3120000000,176.48701,-89.820938
3121000000,176.66956,-89.934364
3122000000,176.6319,-89.985313
3123000000,176.26889,-90.209068
3124000000,176.21887,-90.423851
3125000000,175.7617,-90.440102
3126000000,175.83258,-90.873344
3127000000,175.6658,-90.604271
3128000000,175.75462,-90.911728
3129000000,175.66196,-90.894943
3130000000,175.27864,-91.068718
3131000000,175.02007,-91.405838
3132000000,175.07414,-91.444069
3133000000,174.70596,-91.620567
3134000000,174.66049,-91.650475
3135000000,174.3956,-91.74704
3136000000,174.30165,-91.888313
3137000000,173.90202,-92.074493
3138000000,173.68985,-92.542595
3139000000,173.71181,-92.490585
3140000000,173.8291,-92.438461
3141000000,173.5278,-92.568138
3142000000,173.43736,-92.864021
3143000000,173.17593,-93.04744
3144000000,173.11072,-93.164818
3145000000,172.80859,-93.215279
3146000000,172.81767,-93.221642
3147000000,172.64146,-93.356743
3148000000,172.40268,-93.597916
3149000000,172.07547,-93.823914
3150000000,171.9342,-93.791557
3151000000,171.92429,-93.997627
3152000000,171.549,-94.253067
3153000000,171.42598,-94.23632
3154000000,171.43439,-94.53727
3155000000,171.48524,-94.611053
3156000000,171.34241,-94.750076
3157000000,170.8972,-94.928932
3158000000,170.75349,-95.064896
3159000000,170.67178,-95.104759
3160000000,170.86932,-95.347603
3161000000,170.37427,-95.592545
3162000000,170.28323,-95.689514
3163000000,170.06349,-95.717186
3164000000,169.85406,-96.060043
3165000000,170.04932,-96.168358
3166000000,169.59094,-96.126808
3167000000,169.46028,-96.481857
3168000000,169.02222,-96.524452
3169000000,169.07077,-96.675537
3170000000,168.7281,-96.821243
3171000000,168.94022,-96.77507
3172000000,168.52638,-97.145287
3173000000,168.65132,-97.179085
3174000000,168.35571,-97.324455
3175000000,168.0193,-97.448593
3176000000,167.86855,-97.653015
3177000000,167.65265,-97.602158
3178000000,167.69931,-98.001472
3179000000,167.6106,-97.734123
3180000000,167.10098,-98.244812
3181000000,167.37224,-98.357132
3182000000,167.00323,-98.305717
3183000000,166.82629,-98.435646
3184000000,166.74185,-98.511124
3185000000,166.59998,-98.736435
3186000000,166.35725,-98.981934
3187000000,166.38504,-98.912201
3188000000,166.11891,-99.264771
3189000000,165.94487,-99.569153
3190000000,165.58038,-99.643867
3191000000,165.75143,-99.702782
3192000000,165.37366,-99.847855
3193000000,165.08507,-100.09633
3194000000,165.05817,-100.3207
3195000000,165.03773,-100.39917
3196000000,164.80214,-100.33562
3197000000,164.51642,-100.53773
3198000000,164.58223,-100.56879
3199000000,164.43274,-100.78539
3200000000,164.21535,-100.95937
3201000000,163.97523,-101.16496
3202000000,164.05113,-101.17968
3203000000,163.55354,-101.48131
3204000000,163.21657,-101.67175
3205000000,163.08852,-101.74181
3206000000,162.83775,-101.90824
3207000000,162.83215,-101.88209
3208000000,162.66052,-102.31128
3209000000,162.8344,-102.35268
3210000000,162.34508,-102.48454
3211000000,162.28217,-102.68732
3212000000,161.9727,-102.67329
3213000000,161.64629,-102.91134
3214000000,161.69624,-102.94636
3215000000,161.96101,-102.99915
3216000000,161.35272,-103.40584
3217000000,161.3067,-103.45184
3218000000,161.08116,-103.5769
3219000000,161.09044,-103.56034
3220000000,160.81407,-103.63964
3221000000,160.64659,-104.06919
3222000000,160.47125,-104.07345
3223000000,160.1306,-104.21559
3224000000,159.93367,-104.4584
3225000000,159.79137,-104.4584
3226000000,160.15073,-104.49947
3227000000,159.75302,-104.85147
3228000000,158.9924,-105.11893
3229000000,159.49146,-105.05399
3230000000,159.17061,-105.37431
3231000000,158.89931,-105.32507
3232000000,158.73889,-105.54655
3233000000,158.6223,-105.40971
3234000000,158.15782,-105.75671
3235000000,158.02237,-106.0927
3236000000,158.1548,-106.26599
3237000000,157.862,-106.20667
3238000000,157.52142,-106.31685
3239000000,157.64589,-106.65818
3240000000,157.36678,-106.67046
3241000000,157.15536,-106.6536
3242000000,157.33444,-106.81978
3243000000,156.75113,-107.14366
3244000000,156.79959,-107.10371
3245000000,156.51349,-107.59614
3246000000,156.14604,-107.60117
3247000000,156.09572,-107.79933
3248000000,156.08276,-107.78629
3249000000,155.80241,-108.05976
3250000000,155.46286,-108.24242
3251000000,155.5174,-108.39162
3252000000,155.21561,-108.29446
3253000000,155.20949,-108.69474
3254000000,155.00931,-108.72038
3255000000,154.68095,-109.04751
3256000000,154.50055,-108.82922
3257000000,154.28113,-109.22927
3258000000,154.26038,-109.17603
3259000000,154.0244,-109.35554
3260000000,153.65846,-109.49467
3261000000,153.63327,-109.66049
3262000000,153.44211,-109.9466
3263000000,153.10329,-109.96841
3264000000,153.03836,-110.29873
3265000000,153.27805,-110.28086
3266000000,153.0824,-110.48989
3267000000,152.49132,-110.68691
3268000000,152.53868,-110.70585
3269000000,152.10582,-110.9842
3270000000,152.26071,-111.12413
3271000000,152.08401,-111.31084
3272000000,151.73517,-111.33055
3273000000,151.57597,-111.4555
3274000000,151.42622,-111.55335
3275000000,151.21898,-111.69528
3276000000,151.08669,-111.82573
3277000000,150.61453,-112.02664
3278000000,150.48453,-112.1627
3279000000,150.87076,-112.17611
3280000000,150.14676,-112.65792
3281000000,150.07912,-112.70338
3282000000,150.06053,-112.76535
3283000000,149.92879,-113.06774
3284000000,149.14799,-113.05464
3285000000,149.41101,-113.13449
3286000000,148.77795,-113.45166
3287000000,149.06822,-113.52712
3288000000,148.77029,-113.59193
3289000000,148.20647,-113.73188
3290000000,148.39673,-114.02419
3291000000,147.89594,-114.21683
3292000000,147.78163,-114.15001
3293000000,147.51886,-114.30731
3294000000,147.45428,-114.32169
3295000000,147.26218,-114.72514
3296000000,146.7643,-114.70807
3297000000,146.86745,-114.90443
3298000000,146.93152,-115.22196
3299000000,146.50146,-115.08817
3300000000,145.99739,-115.48999
3301000000,145.94501,-115.54733
3302000000,145.94156,-115.6324
3303000000,145.64604,-115.85571
3304000000,145.42834,-116.08774
3305000000,145.41333,-116.09643
3306000000,145.12343,-116.32536
3307000000,144.96835,-116.52354
3308000000,144.96291,-116.69376
3309000000,144.27945,-116.57218
3310000000,144.28104,-116.69395
3311000000,144.13164,-116.94773
3312000000,144.07413,-117.17332
3313000000,143.62152,-117.28394
3314000000,143.43651,-117.54534
3315000000,143.18079,-117.60141
3316000000,143.17575,-117.72128
3317000000,142.80176,-117.83135
3318000000,142.72397,-117.94363
3319000000,142.33849,-118.07114
3320000000,142.33098,-118.30938
3321000000,142.05032,-118.45615
3322000000,142.15584,-118.55148
3323000000,141.26147,-118.78268
3324000000,141.68098,-118.79512
3325000000,141.50894,-118.88981
3326000000,140.98706,-119.18574
3327000000,140.74684,-119.4284
3328000000,140.6283,-119.61472
3329000000,140.36795,-119.61423
3330000000,140.13069,-119.79417
3331000000,140.00955,-120.01418
3332000000,139.47606,-120.20592
3333000000,139.76834,-120.17899
3334000000,139.52425,-120.49824
3335000000,139.1723,-120.61681
3336000000,138.99927,-120.6972
3337000000,138.66026,-120.79239
3338000000,138.6738,-120.77646
3339000000,138.15968,-121.1097
3340000000,138.16063,-121.24205
3341000000,138.02824,-121.44951
3342000000,137.46365,-121.65037
3343000000,137.37233,-121.88684
3344000000,137.39423,-121.71933
3345000000,136.9671,-121.99965
3346000000,136.61729,-122.16048
3347000000,136.47484,-122.37299
3348000000,136.23216,-122.20847
3349000000,136.13216,-122.61967
3350000000,135.72644,-122.74014
3351000000,135.62907,-122.98752
3352000000,135.71481,-123.09126
3353000000,134.91092,-123.19252
3354000000,134.6774,-123.37749
3355000000,134.64287,-123.50907
3356000000,134.27701,-123.61521
3357000000,134.30345,-123.78259
3358000000,133.74779,-123.74558
3359000000,133.50534,-124.11264
3360000000,133.43987,-124.32632
3361000000,133.38297,-124.37044
3362000000,132.87495,-124.6226
3363000000,133.0123,-124.58088
3364000000,132.85596,-124.82104
3365000000,132.26767,-124.98749
3366000000,132.31731,-125.11349
3367000000,131.73849,-125.51562
3368000000,131.31467,-125.366
3369000000,131.26204,-125.58239
3370000000,130.94357,-125.4726
3371000000,131.02805,-125.79469
3372000000,130.74144,-125.90626
3373000000,130.32686,-126.0003
3374000000,130.1953,-126.34679
3375000000,130.06711,-126.265
3376000000,129.30257,-126.71828
3377000000,129.72484,-126.65224
3378000000,129.25833,-127.17561
3379000000,129.11163,-127.26036
3380000000,128.0408,-127.30042
3381000000,128.17384,-127.2661
3382000000,127.96764,-127.54607
3383000000,127.5323,-127.66964
3384000000,127.90549,-127.70714
3385000000,127.39797,-127.92081
3386000000,127.08112,-128.13712
3387000000,127.00006,-128.29543
3388000000,126.85651,-128.45743
3389000000,126.41735,-128.68156
3390000000,125.59306,-128.74324
3391000000,125.95059,-128.85924
3392000000,125.31123,-129.02557
3393000000,125.37605,-129.17023
3394000000,125.00718,-129.36198
3395000000,124.37671,-129.5219
3396000000,124.32977,-129.59564
3397000000,123.80826,-129.59821
3398000000,123.72486,-130.08133
3399000000,123.2234,-129.90315
3400000000,123.2458,-130.14948
3401000000,122.88979,-130.45926
3402000000,122.4711,-130.53046
3403000000,122.12301,-130.41374
3404000000,121.48053,-130.87039
3405000000,121.68491,-130.87451
3406000000,121.60882,-131.18454
3407000000,120.67507,-131.20139
3408000000,120.44705,-131.41548
3409000000,120.46713,-131.47215
3410000000,119.95124,-131.66876
3411000000,119.8643,-131.82909
3412000000,119.71922,-132.01369
3413000000,118.86805,-132.18726
3414000000,119.03162,-132.30762
3415000000,118.70663,-132.48422
3416000000,118.1403,-132.47165
3417000000,117.66045,-132.78246
3418000000,118.62275,-133.09447
3419000000,117.46892,-133.18474
3420000000,116.99247,-133.25681
3421000000,116.07248,-133.27823
3422000000,116.4679,-133.61003
3423000000,116.5247,-133.55211
3424000000,116.00864,-133.7652
3425000000,115.40478,-134.02071
3426000000,114.79893,-133.99187
3427000000,114.93524,-134.43109
3428000000,114.40441,-134.49672
3429000000,113.78441,-134.45052
3430000000,113.71548,-134.57698
3431000000,113.44253,-134.98015
3432000000,112.82977,-134.96974
3433000000,112.77747,-135.16994
3434000000,112.17026,-135.37814
3435000000,111.75485,-135.33501
3436000000,111.00134,-135.70348
3437000000,110.47562,-135.68796
3438000000,110.48484,-135.9476
3439000000,110.32964,-136.11342
3440000000,109.46691,-136.13403
3441000000,109.26373,-136.32156
3442000000,108.79263,-136.37352
3443000000,108.04689,-136.72607
3444000000,108.0813,-136.73141
3445000000,108.04789,-137.1618
3446000000,107.37499,-137.30074
3447000000,106.86933,-137.40637
3448000000,106.44166,-137.49252
3449000000,106.4344,-137.6664
3450000000,105.55871,-137.37848
3451000000,105.42507,-137.87128
3452000000,105.16318,-138.18851
3453000000,104.43262,-138.3046
3454000000,103.71957,-138.21913
3455000000,103.51842,-138.41962
3456000000,103.32833,-138.70457
3457000000,102.05795,-138.8499
3458000000,101.46448,-139.06912
3459000000,101.64596,-139.2016
3460000000,100.78344,-139.10124
3461000000,100.89877,-139.74031
3462000000,99.657021,-139.53223
3463000000,99.331223,-139.69862
3464000000,98.994545,-139.87973
3465000000,98.619987,-140.03209
3466000000,97.883148,-140.20387
3467000000,97.446915,-140.49673
3468000000,96.253639,-140.53056
3469000000,96.619606,-140.81866
3470000000,95.185448,-140.76334
3471000000,95.896126,-140.94981
3472000000,93.932289,-141.20561
3473000000,93.416954,-141.27612
3474000000,94.059296,-141.42241
3475000000,92.142952,-141.55385
3476000000,91.929344,-141.69516
3477000000,90.876762,-141.87363
3478000000,90.307106,-142.09378
3479000000,89.942032,-142.04039
3480000000,89.694786,-142.26196
3481000000,89.515472,-142.55142
3482000000,87.819138,-142.47124
3483000000,87.575455,-142.79631
3484000000,87.087288,-142.92261
3485000000,85.714142,-143.10385
3486000000,84.65107,-143.27028
3487000000,83.776299,-143.41516
3488000000,84.633026,-143.5753
3489000000,84.034081,-143.65718
3490000000,81.605537,-143.79958
3491000000,80.928787,-144.00842
3492000000,80.722588,-144.20183
3493000000,79.281639,-144.28374
3494000000,79.277702,-144.56247
3495000000,77.870613,-144.67548
3496000000,77.541351,-144.80859
3497000000,76.463882,-144.91275
3498000000,75.03022,-145.14326
3499000000,74.746475,-145.19289
3500000000,73.207291,-145.40128
3501000000,72.294937,-145.52837
3502000000,72.067871,-145.62785
3503000000,70.883141,-145.95596
3504000000,69.684814,-145.86934
3505000000,69.553009,-146.15897
3506000000,67.542,-146.28467
3507000000,66.710999,-146.54562
3508000000,64.265007,-146.75113
3509000000,64.258896,-146.79167
3510000000,62.550095,-146.92548
3511000000,62.055855,-147.01866
3512000000,61.608376,-147.30908
3513000000,60.275757,-147.3502
3514000000,59.373196,-147.2845
3515000000,58.021973,-147.63457
3516000000,57.151165,-148.01482
3517000000,54.657776,-147.99292
3518000000,54.977551,-147.99687
3519000000,53.878853,-148.21452
3520000000,51.582241,-148.69064
3521000000,51.497154,-148.51732
3522000000,49.811474,-148.3907
3523000000,47.774906,-148.78404
3524000000,46.920444,-149.13982
3525000000,47.381203,-149.03961
3526000000,44.548492,-149.35165
3527000000,43.414402,-149.54539
3528000000,42.650658,-149.52214
3529000000,40.541183,-149.70607
3530000000,39.054428,-149.8647
3531000000,37.477589,-150.13875
3532000000,35.554718,-150.27655
3533000000,36.155052,-150.48082
3534000000,32.68219,-150.75114
3535000000,32.0797,-150.75935
3536000000,30.636978,-150.90608
3537000000,31.221054,-150.83972
3538000000,30.314138,-151.2188
3539000000,27.311192,-151.30748
3540000000,25.328417,-151.59315
3541000000,24.726711,-151.66879
3542000000,21.518072,-151.72615
3543000000,20.694492,-151.95589
3544000000,19.610987,-152.14693
3545000000,20.201839,-152.0925
3546000000,18.821878,-152.35768
3547000000,16.525656,-152.52679
3548000000,14.963619,-152.64601
3549000000,14.773292,-152.67511
3550000000,12.720992,-153.05074
3551000000,11.362515,-153.04172
3552000000,10.574489,-153.25815
3553000000,9.5466242,-153.4346
3554000000,8.8637304,-153.56367
3555000000,6.2326422,-153.71487
3556000000,5.8970985,-153.84253
3557000000,4.7908239,-154.09299
3558000000,2.0375087,-154.34009
3559000000,2.2706411,-154.30078
3560000000,0.32756937,-154.62578
3561000000,-0.23069134,-154.63472
3562000000,-1.5019622,-154.79297
3563000000,-1.6973642,-154.8976
3564000000,-2.2089801,-155.07813
3565000000,-6.197207,-155.32867
3566000000,-5.4014287,-155.29591
3567000000,-5.4231043,-155.34229
3568000000,-7.6316719,-155.69597
3569000000,-9.0557041,-155.86832
3570000000,-8.8921986,-155.79909
3571000000,-9.983942,-156.08589
3572000000,-11.235644,-156.40964
3573000000,-12.881719,-156.54179
3574000000,-14.052842,-156.62207
3575000000,-14.395382,-156.87805
3576000000,-15.719339,-157.11145
3577000000,-16.029364,-157.1712
3578000000,-16.52561,-157.23018
3579000000,-17.531599,-157.38176
3580000000,-19.138762,-157.50108
3581000000,-19.489079,-157.86377
3582000000,-20.804081,-157.83832
3583000000,-20.742727,-157.88765
3584000000,-21.479668,-158.12874
3585000000,-21.721539,-158.30411
3586000000,-22.267761,-158.20288
3587000000,-23.291708,-158.59718
3588000000,-25.408617,-158.6526
3589000000,-25.820374,-158.98842
3590000000,-26.415695,-159.22102
3591000000,-26.701674,-159.17645
3592000000,-26.584541,-159.16602
3593000000,-27.801989,-159.42366
3594000000,-29.985176,-159.81004
3595000000,-29.642048,-159.84811
3596000000,-29.239841,-159.80496
3597000000,-30.461151,-160.12305
3598000000,-31.615868,-160.42503
3599000000,-32.357456,-160.5545
3600000000,-31.605417,-160.35791
3601000000,-33.322987,-160.58908
3602000000,-33.341728,-160.90883
3603000000,-33.671799,-161.05707
3604000000,-34.955181,-161.25671
3605000000,-35.132545,-161.22258
3606000000,-34.529114,-161.23613
3607000000,-37.12059,-161.73712
3608000000,-36.902344,-161.79791
3609000000,-37.481979,-161.9128
3610000000,-38.640934,-162.14374
3611000000,-39.29694,-162.25502
3612000000,-38.872871,-162.38295
3613000000,-38.968536,-162.34721
3614000000,-40.02356,-162.74571
3615000000,-40.108059,-162.89268
3616000000,-40.517311,-162.91885
3617000000,-41.756626,-163.21437
3618000000,-41.575287,-163.07877
3619000000,-41.24284,-163.26375
3620000000,-42.63047,-163.4444
3621000000,-43.122852,-163.83408
3622000000,-43.827435,-163.93109
3623000000,-43.826538,-163.94507
3624000000,-43.95932,-164.11598
3625000000,-44.530643,-164.26849
3626000000,-45.164402,-164.48906
3627000000,-45.683296,-164.50841
3628000000,-45.225666,-164.6606
3629000000,-46.422596,-164.86777
3630000000,-47.03228,-165.06004
3631000000,-47.379642,-165.23578
3632000000,-47.949764,-165.4715
3633000000,-47.890652,-165.3652
3634000000,-48.40873,-165.77138
3635000000,-49.371178,-165.95074
3636000000,-48.809975,-165.82646
3637000000,-49.058159,-166.05502
3638000000,-49.528889,-166.17249
3639000000,-50.126194,-166.40254
3640000000,-49.966022,-166.36699
3641000000,-51.125496,-166.64117
3642000000,-51.86441,-166.80475
3643000000,-51.783527,-167.04195
3644000000,-52.219044,-167.26234
3645000000,-52.144489,-167.34094
3646000000,-52.894638,-167.44888
3647000000,-53.116821,-167.67924
3648000000,-53.652859,-167.78444
3649000000,-53.761707,-167.985
3650000000,-54.559761,-168.14148
3651000000,-53.89481,-168.02863
3652000000,-55.044743,-168.24353
3653000000,-54.35112,-168.46548
3654000000,-55.649998,-168.70866
3655000000,-56.187675,-168.96234
3656000000,-56.070831,-168.96307
3657000000,-56.912384,-169.39124
3658000000,-56.429787,-169.25253
3659000000,-56.892994,-169.19568
3660000000,-57.522999,-169.60464
3661000000,-57.969284,-169.69722
3662000000,-58.334496,-169.86026
3663000000,-58.242329,-170.05962
3664000000,-58.627892,-170.21056
3665000000,-59.090931,-170.21831
3666000000,-59.398312,-170.63507
3667000000,-59.602566,-170.46523
3668000000,-59.644314,-170.61514
3669000000,-60.388908,-170.76187
3670000000,-60.536102,-171.04688
3671000000,-61.210728,-171.28369
3672000000,-61.334991,-171.41322
3673000000,-61.554565,-171.37209
3674000000,-61.607513,-171.644
3675000000,-61.919075,-171.73431
3676000000,-62.210442,-171.85611
3677000000,-62.544842,-172.00922
3678000000,-62.59898,-172.18097
3679000000,-63.2757,-172.4119
3680000000,-63.300697,-172.57022
3681000000,-63.692886,-172.67938
3682000000,-64.313553,-172.9187
3683000000,-64.105164,-172.83594
3684000000,-65.171776,-173.35588
3685000000,-65.027977,-173.33214
3686000000,-64.827591,-173.3958
3687000000,-65.549728,-173.59438
3688000000,-65.318176,-173.56474
3689000000,-65.880699,-173.80536
3690000000,-66.189491,-174.01427
3691000000,-66.734818,-174.23055
3692000000,-67.030678,-174.43295
3693000000,-66.446144,-174.4807
3694000000,-67.255898,-174.78658
3695000000,-67.810928,-174.73978
3696000000,-67.61837,-174.96286
3697000000,-67.848839,-175.02988
3698000000,-68.655663,-175.15092
3699000000,-68.524597,-175.28743
3700000000,-68.981247,-175.56554
3701000000,-68.995216,-175.75212
3702000000,-68.995705,-175.60223
3703000000,-69.462242,-176.02344
3704000000,-69.859612,-176.09081
3705000000,-69.759361,-176.24724
3706000000,-69.830864,-176.33913
3707000000,-70.165512,-176.46716
3708000000,-70.671265,-176.58586
3709000000,-70.824707,-176.6216
3710000000,-71.060516,-176.82129
3711000000,-71.893417,-177.41673
3712000000,-71.739182,-177.36205
3713000000,-71.888123,-177.43427
3714000000,-72.411621,-177.51021
3715000000,-72.150345,-177.72275
3716000000,-72.159874,-177.78201
3717000000,-72.846817,-178.03421
3718000000,-73.179443,-178.18242
3719000000,-73.597847,-178.40373
3720000000,-73.30864,-178.24474
3721000000,-73.693649,-178.49829
3722000000,-74.125481,-178.7132
3723000000,-74.085373,-178.92009
3724000000,-74.252945,-179.00267
3725000000,-74.616821,-179.22591
3726000000,-74.613342,-179.06972
3727000000,-75.353073,-179.43906
3728000000,-75.158356,-179.60884
3729000000,-75.528793,-179.75671
3730000000,-75.285248,-179.76611
3731000000,-75.668091,-179.96515
3732000000,-75.966881,179.87839
3733000000,-76.259567,179.70831
3734000000,-76.474709,179.45674
3735000000,-76.750595,179.48752
3736000000,-76.784477,179.4189
3737000000,-77.410484,179.14337
3738000000,-77.002144,178.97284
3739000000,-77.864563,178.7608
3740000000,-78.077156,178.66805
3741000000,-78.163719,178.59712
3742000000,-78.469505,178.30971
3743000000,-78.430122,178.16081
3744000000,-78.397079,178.19131
3745000000,-79.223145,177.8994
3746000000,-79.094162,177.81223
3747000000,-78.888771,177.64882
3748000000,-79.181137,177.62231
3749000000,-79.869354,177.33234
3750000000,-80.202698,177.09554
3751000000,-80.040771,177.0938
3752000000,-80.341316,176.98358
3753000000,-80.366669,176.88544
3754000000,-80.478607,176.58881
3755000000,-81.097038,176.43134
3756000000,-81.132111,176.28116
3757000000,-81.173897,176.36314
3758000000,-81.84404,176.03999
3759000000,-81.736145,175.95525
3760000000,-81.994148,175.78195
3761000000,-82.113518,175.72583
3762000000,-82.358078,175.50233
3763000000,-82.557091,175.42676
3764000000,-82.60627,175.26781
3765000000,-83.03183,175.22952
3766000000,-83.388763,174.78307
3767000000,-83.889191,174.66873
3768000000,-83.850204,174.55713
3769000000,-83.771111,174.53195
3770000000,-84.376381,174.18527
3771000000,-84.308144,174.20409
3772000000,-84.487961,174.00002
3773000000,-84.759743,173.76474
3774000000,-85.050148,173.65636
3775000000,-85.076897,173.61612
3776000000,-85.094048,173.44191
3777000000,-85.671242,173.3123
3778000000,-85.455246,173.33078
3779000000,-86.036324,173.10316
3780000000,-85.737526,172.70822
3781000000,-86.482094,172.70561
3782000000,-86.074318,172.66606
3783000000,-86.369431,172.58583
3784000000,-86.668777,172.24718
3785000000,-87.327118,172.10201
3786000000,-87.531189,171.99483
3787000000,-87.740555,171.8219
3788000000,-87.826393,171.58278
3789000000,-87.283272,171.76805
3790000000,-88.265633,171.30286
3791000000,-88.258286,171.28412
3792000000,-88.36689,171.23401
3793000000,-88.625793,170.97749
3794000000,-89.181381,170.70811
3795000000,-89.171188,170.86159
3796000000,-89.434021,170.53636
3797000000,-89.258888,170.40062
3798000000,-89.74382,170.13661
3799000000,-89.9058,170.0677
3800000000,-90.084152,169.95578
3801000000,-90.108353,169.91713
3802000000,-90.171036,169.77426
3803000000,-90.469513,169.7039
3804000000,-90.565514,169.55208
3805000000,-91.105347,169.37798
3806000000,-90.965126,169.23108
3807000000,-91.222549,168.78316
3808000000,-91.466057,168.86368
3809000000,-91.611519,168.66562
3810000000,-91.61631,168.68727
3811000000,-92.043449,168.25293
3812000000,-91.998466,168.14566
3813000000,-92.619919,167.95135
3814000000,-92.606415,167.90645
3815000000,-92.684784,167.90335
3816000000,-92.826241,167.5424
3817000000,-93.004379,167.63031
3818000000,-93.842796,167.3448
3819000000,-93.692688,167.23532
3820000000,-93.600533,167.20583
3821000000,-93.996201,166.87411
3822000000,-94.095535,166.9337
3823000000,-94.218544,166.53896
3824000000,-94.433876,166.52771
3825000000,-94.518372,166.31
3826000000,-94.740395,166.38268
3827000000,-95.238708,166.04982
3828000000,-95.315735,166.11388
3829000000,-95.337059,165.73447
3830000000,-95.700104,165.46484
3831000000,-95.417076,165.63461
3832000000,-95.934784,165.27573
3833000000,-96.048431,165.3562
3834000000,-96.266197,165.15143
3835000000,-96.392441,164.92325
3836000000,-96.64212,164.85587
3837000000,-96.857697,164.60513
3838000000,-97.257439,164.59308
3839000000,-97.388313,164.40477
3840000000,-97.477821,164.21533
3841000000,-97.380585,164.29207
3842000000,-97.775017,163.97415
3843000000,-97.691292,163.80983
3844000000,-97.94973,163.68575
3845000000,-98.583138,163.35405
3846000000,-98.596237,163.19887
3847000000,-98.803955,163.28015
3848000000,-98.988724,163.04489
3849000000,-98.8564,162.96506
3850000000,-99.459023,162.65161
3851000000,-99.673248,162.42964
3852000000,-99.467743,162.49507
3853000000,-99.520981,162.34563
3854000000,-100.16626,161.99152
3855000000,-100.20016,161.92612
3856000000,-99.862434,162.04559
3857000000,-100.4708,161.73709
3858000000,-100.70827,161.69005
3859000000,-100.8709,161.38446
3860000000,-100.91329,161.42946
3861000000,-101.01877,161.15729
3862000000,-101.53742,160.89653
3863000000,-101.4024,160.85532
3864000000,-101.85327,160.86917
3865000000,-101.61743,160.73589
3866000000,-101.96729,160.5808
3867000000,-102.29068,160.30701
3868000000,-102.63767,160.07957
3869000000,-102.50965,160.15262
3870000000,-102.38144,160.02545
3871000000,-102.91483,159.84746
3872000000,-103.13479,159.72789
3873000000,-103.08961,159.77411
3874000000,-103.68651,159.31468
3875000000,-103.90222,159.12477
3876000000,-103.61666,159.27473
3877000000,-104.01758,158.99225
3878000000,-104.14468,158.70705
3879000000,-104.28564,158.75925
3880000000,-104.53847,158.62589
3881000000,-104.84135,158.46414
3882000000,-104.98154,158.19255
3883000000,-105.23795,158.14455
3884000000,-105.27745,157.81154
3885000000,-105.42304,157.79147
3886000000,-105.33929,157.58441
3887000000,-105.75195,157.43724
3888000000,-106.09668,157.31947
3889000000,-106.10487,157.26695
3890000000,-106.11169,157.22052
3891000000,-106.25949,156.94308
3892000000,-106.51901,157.03192
3893000000,-107.03364,156.57498
3894000000,-106.94508,156.42853
3895000000,-106.93929,156.51822
3896000000,-107.53397,156.25032
3897000000,-107.44199,156.24937
3898000000,-107.92576,156.06126
3899000000,-107.91788,155.74435
3900000000,-107.65666,155.64738
3901000000,-108.1606,155.4213
3902000000,-108.59865,155.32162
3903000000,-108.45186,155.18672
3904000000,-108.9025,155.07121
3905000000,-109.16824,154.72946
3906000000,-109.04269,155.05528
3907000000,-109.55057,154.64995
3908000000,-109.40169,154.61026
3909000000,-109.57069,154.40443
3910000000,-109.95081,153.99411
3911000000,-110.36575,154.20636
3912000000,-109.99241,153.9798
3913000000,-110.62553,153.76564
3914000000,-110.33942,153.59383
3915000000,-110.91602,153.56599
3916000000,-110.62597,153.43448
3917000000,-111.06681,153.35356
3918000000,-111.04901,153.03549
3919000000,-111.42132,152.97052
3920000000,-111.58315,152.80029
3921000000,-111.87474,152.65077
3922000000,-111.98408,152.64485
3923000000,-112.30744,152.5153
3924000000,-111.96387,152.45563
3925000000,-112.1687,152.02475
3926000000,-112.49968,151.87865
3927000000,-112.82544,151.81525
3928000000,-112.81566,151.76085
3929000000,-113.17368,151.64337
3930000000,-113.27534,151.46208
3931000000,-113.5933,151.0437
3932000000,-113.42358,151.106
3933000000,-113.90233,150.97917
3934000000,-113.9189,150.86818
3935000000,-114.3276,150.82837
3936000000,-114.42163,150.49236
3937000000,-114.60118,150.40765
3938000000,-114.7765,150.29657
3939000000,-114.98397,150.02382
3940000000,-115.46169,149.88815
3941000000,-115.22506,149.93802
3942000000,-115.57996,149.61757
3943000000,-115.88812,149.38075
3944000000,-115.78859,149.27029
3945000000,-115.9017,149.22801
3946000000,-116.06923,149.22807
3947000000,-116.29688,148.91422
3948000000,-116.44087,148.75755
3949000000,-116.47559,148.78671
3950000000,-117.14149,148.55843
3951000000,-117.1412,148.35008
3952000000,-117.21415,148.25938
3953000000,-117.47524,148.25574
3954000000,-117.60527,147.84132
3955000000,-117.55512,147.90669
3956000000,-117.74561,147.74213
3957000000,-118.39262,147.44398
3958000000,-118.21444,147.42162
3959000000,-118.6267,147.20792
3960000000,-118.67862,147.05318
3961000000,-118.67314,147.09587
3962000000,-118.94393,147.00276
3963000000,-118.9127,146.88907
3964000000,-119.46124,146.63994
3965000000,-119.54472,146.45589
3966000000,-120.01399,146.26767
3967000000,-119.81412,146.16716
3968000000,-120.20055,145.83049
3969000000,-120.06239,145.84589
3970000000,-120.74221,145.57306
3971000000,-120.76052,145.58745
3972000000,-120.62749,145.54083
3973000000,-121.16116,145.35394
3974000000,-121.27853,145.20001
3975000000,-121.4154,144.92204
3976000000,-121.66013,145.03423
3977000000,-121.81023,144.89679
3978000000,-121.72044,144.6266
3979000000,-122.06017,144.55209
3980000000,-122.11111,144.30569
3981000000,-122.81031,144.1927
3982000000,-122.51401,144.13206
3983000000,-122.75756,143.92899
3984000000,-123.01363,143.77623
3985000000,-123.15558,143.84889
3986000000,-123.04764,143.35112
3987000000,-123.73994,143.25731
3988000000,-123.64891,143.11002
3989000000,-123.99669,142.86971
3990000000,-123.87242,142.72011
3991000000,-124.31401,142.62329
3992000000,-124.67386,142.51248
3993000000,-124.69088,142.34828
3994000000,-124.82474,142.14302
3995000000,-124.66153,142.18518
3996000000,-125.1318,142.02711
3997000000,-125.26399,141.78601
3998000000,-125.75266,141.78642
3999000000,-125.99897,141.58398
4000000000,-125.962,141.4063
4001000000,-125.96632,141.1795
4002000000,-126.24802,141.17409
4003000000,-126.54471,140.97775
4004000000,-126.70777,140.91835
4005000000,-126.82462,140.76041
4006000000,-127.23745,140.49251
4007000000,-127.33313,140.39578
4008000000,-127.47523,140.35246
4009000000,-127.54519,140.13182
4010000000,-127.78302,139.98268
4011000000,-128.17609,139.80276
4012000000,-128.0687,139.78581
4013000000,-128.46535,139.55609
4014000000,-128.50056,139.43626
4015000000,-128.67999,139.54549
4016000000,-129.03705,139.06509
4017000000,-129.32262,138.98914
4018000000,-129.29442,138.98425
4019000000,-129.44174,138.7834
4020000000,-129.44756,138.81741
4021000000,-129.99678,138.39053
4022000000,-130.05861,138.24698
4023000000,-130.37257,138.08369
4024000000,-130.49173,137.9977
4025000000,-130.80165,137.73964
4026000000,-130.82681,137.73288
4027000000,-131.13875,137.74655
4028000000,-130.96544,137.51762
4029000000,-131.57816,137.30219
4030000000,-131.66084,137.0614
4031000000,-131.98793,137.00633
4032000000,-132.24692,137.1555
4033000000,-132.17694,136.8204
4034000000,-132.48549,136.65167
4035000000,-132.5894,136.50795
4036000000,-132.41228,136.34389
4037000000,-132.9407,136.29955
4038000000,-133.35649,136.00182
4039000000,-133.207,135.88658
4040000000,-133.55368,135.75095
4041000000,-133.65704,135.69725
4042000000,-133.73363,135.60147
4043000000,-134.19688,135.53598
4044000000,-134.01872,135.34041
4045000000,-134.50482,134.96747
4046000000,-134.56464,134.8582
4047000000,-134.9173,134.72781
4048000000,-135.0049,134.8689
4049000000,-135.29422,134.49228
4050000000,-135.31468,134.54301
4051000000,-135.80396,134.35136
4052000000,-135.73679,134.20532
4053000000,-136.0341,133.91951
4054000000,-136.17242,133.93529
4055000000,-136.41644,133.58197
4056000000,-136.50978,133.54701
4057000000,-136.83502,133.28796
4058000000,-136.70296,133.26273
4059000000,-136.98587,133.27104
4060000000,-137.05804,132.82462
4061000000,-137.33551,132.79402
4062000000,-137.60121,132.70879
4063000000,-138.06242,132.53186
4064000000,-137.95325,132.46179
4065000000,-137.99661,132.39662
4066000000,-138.2462,132.03519
4067000000,-138.39241,132.05673
4068000000,-138.58977,131.96407
4069000000,-138.66878,131.76057
4070000000,-138.90913,131.49783
4071000000,-139.35638,131.39677
4072000000,-139.47745,131.14816
4073000000,-139.43987,130.99774
4074000000,-139.9498,130.85168
4075000000,-140.12524,130.68535
4076000000,-140.22157,130.87708
4077000000,-140.58821,130.33392
4078000000,-140.59122,130.44229
4079000000,-140.83452,130.4538
4080000000,-140.54778,130.01448
4081000000,-140.9162,129.85263
4082000000,-141.05766,129.6983
4083000000,-141.45259,129.65247
4084000000,-141.60373,129.49997
4085000000,-141.74408,129.38219
4086000000,-141.92775,129.36505
4087000000,-142.3739,129.0901
4088000000,-142.43095,129.04482
4089000000,-142.55537,128.9794
4090000000,-142.71852,128.66998
4091000000,-142.98384,128.58728
4092000000,-142.84669,128.40755
4093000000,-143.12198,128.43932
4094000000,-143.46402,128.15739
4095000000,-143.53792,128.00659
4096000000,-143.94025,127.87013
4097000000,-143.884,127.81922
4098000000,-144.20885,127.90316
4099000000,-144.3616,127.36234
4100000000,-144.56744,127.21607
4101000000,-144.74355,127.19904
4102000000,-144.74937,126.99939
4103000000,-145.26349,126.77129
4104000000,-145.34175,126.70811
4105000000,-145.40395,126.29868
4106000000,-145.93585,126.37408
4107000000,-145.91092,126.26176
4108000000,-146.04164,126.22292
4109000000,-146.35461,125.99475
4110000000,-146.53415,125.93098
4111000000,-146.77165,125.64343
4112000000,-146.71143,125.50178
4113000000,-147.2106,125.46967
4114000000,-147.15086,125.33039
4115000000,-147.58548,125.14972
4116000000,-147.71046,124.80261
4117000000,-147.93028,124.77232
4118000000,-147.81085,124.63435
4119000000,-148.29335,124.66409
4120000000,-148.23099,124.4818
4121000000,-148.76469,124.29884
4122000000,-148.90506,124.00439
4123000000,-149.03107,124.14776
4124000000,-149.2926,123.814
4125000000,-149.36311,123.71128
4126000000,-149.729,123.44368
4127000000,-149.86143,123.3968
4128000000,-150.00563,123.34129
4129000000,-149.96613,123.12888
4130000000,-150.41808,123.11703
4131000000,-150.47589,122.82728
4132000000,-150.66302,122.63691
4133000000,-151.04933,122.66154
4134000000,-151.13788,122.40621
4135000000,-151.2346,122.17657
4136000000,-151.65271,122.19747
4137000000,-151.88655,122.1663
4138000000,-151.95578,121.85492
4139000000,-152.16484,121.7038
4140000000,-152.06567,121.56486
4141000000,-152.64636,121.42319
4142000000,-152.69324,121.35487
4143000000,-153.06223,121.07507
4144000000,-153.00732,121.05087
4145000000,-153.60825,120.78175
4146000000,-153.87892,120.72472
4147000000,-153.87448,120.66164
4148000000,-153.96797,120.33849
4149000000,-154.02115,120.41592
4150000000,-154.30698,119.97307
4151000000,-154.74246,119.96728
4152000000,-154.80579,119.92097
4153000000,-155.06421,119.82038
4154000000,-155.16841,119.4898
4155000000,-155.36357,119.2944
4156000000,-155.63969,119.13334
4157000000,-155.9637,119.17504
4158000000,-156.12633,118.93053
4159000000,-156.06136,118.65375
4160000000,-156.49586,118.82272
4161000000,-156.84824,118.6632
4162000000,-157.07649,118.36298
4163000000,-157.17241,118.27001
4164000000,-157.46968,117.89911
4165000000,-157.60112,117.92307
4166000000,-157.99344,117.91762
4167000000,-158.13213,117.74265
4168000000,-158.46101,117.47262
4169000000,-158.5181,117.45547
4170000000,-158.45023,117.26005
4171000000,-158.74033,117.22077
4172000000,-159.11078,117.12778
4173000000,-159.49274,116.76692
4174000000,-159.44658,116.8635
4175000000,-159.75464,116.60841
4176000000,-159.87556,116.56245
4177000000,-159.9894,116.2646
4178000000,-160.70262,116.01927
4179000000,-160.45779,115.9538
4180000000,-160.84637,115.82658
4181000000,-161.25845,115.5928
4182000000,-161.12376,115.61253
4183000000,-161.44633,115.41663
4184000000,-161.45396,115.26703
4185000000,-161.78873,115.15981
4186000000,-162.09877,114.94506
4187000000,-162.35335,114.86857
4188000000,-162.43311,114.55891
4189000000,-162.78514,114.4646
4190000000,-163.11475,114.41239
4191000000,-163.351,114.18948
4192000000,-163.66032,114.27761
4193000000,-163.45605,113.83018
4194000000,-163.6864,113.94006
4195000000,-164.13625,113.53246
4196000000,-164.47919,113.73788
4197000000,-164.37656,113.3738
4198000000,-164.68971,113.38682
4199000000,-164.9068,113.03671
4200000000,-165.32597,113.1046
4201000000,-165.56442,112.99038
4202000000,-165.67442,112.89024
4203000000,-165.76489,112.58777
4204000000,-165.83876,112.46814
4205000000,-166.41751,112.1691
4206000000,-166.27402,112.17414
4207000000,-166.60257,112.04432
4208000000,-167.08243,111.85966
4209000000,-167.2937,111.90768
4210000000,-167.32956,111.59489
4211000000,-167.53275,111.51183
4212000000,-167.87488,111.29688
4213000000,-168.18822,111.17249
4214000000,-168.51103,111.05558
4215000000,-168.90747,110.89626
4216000000,-168.91034,110.67517
4217000000,-169.15167,110.47984
4218000000,-169.39026,110.28542
4219000000,-169.73206,110.26565
4220000000,-170.08347,110.24461
4221000000,-170.18881,109.94292
4222000000,-170.53358,109.89816
4223000000,-170.41809,109.68689
4224000000,-170.71501,109.53963
4225000000,-170.9968,109.46524
4226000000,-171.07689,109.24012
4227000000,-171.59547,109.05127
4228000000,-171.68886,108.8302
4229000000,-171.91444,108.90957
4230000000,-172.31454,108.64195
4231000000,-172.55943,108.56589
4232000000,-173.06924,108.23442
4233000000,-173.02728,108.12345
4234000000,-173.04222,108.03862
4235000000,-173.45738,107.96869
4236000000,-173.70387,107.83464
4237000000,-174.39391,107.66692
4238000000,-174.28052,107.57198
4239000000,-173.9631,107.34671
4240000000,-174.40828,107.23594
4241000000,-175.13495,107.21709
4242000000,-175.55498,107.10114
4243000000,-175.13452,106.75443
4244000000,-175.76474,106.70646
4245000000,-175.68332,106.49825
4246000000,-176.07097,106.46071
4247000000,-176.52563,106.21424
4248000000,-176.91592,106.04391
4249000000,-176.88644,106.01331
4250000000,-177.25262,105.62582
4251000000,-177.74649,105.77438
4252000000,-178.04123,105.52993
4253000000,-177.75261,105.47681
4254000000,-178.37378,105.29883
4255000000,-178.43375,104.91135
4256000000,-178.79088,104.81364
4257000000,-179.04668,104.61311
4258000000,-179.45697,104.51108
4259000000,-179.40875,104.46152
4260000000,-179.84505,104.38251
4261000000,-179.77936,104.15975
4262000000,-179.93951,103.86573
4263000000,179.63135,103.89794
4264000000,178.95863,103.84193
4265000000,179.3331,103.51289
4266000000,178.67828,103.60435
4267000000,178.3215,103.32342
4268000000,178.14627,103.09585
4269000000,178.12762,102.95242
4270000000,177.58401,102.90443
4271000000,177.27408,102.64173
4272000000,177.48285,102.65524
4273000000,176.97716,102.43174
4274000000,176.46317,102.13136
4275000000,176.24002,102.26277
4276000000,176.19083,101.94075
4277000000,176.06541,101.71142
4278000000,176.39311,101.66148
4279000000,175.27113,101.76086
4280000000,175.1144,101.46641
4281000000,174.66171,101.14103
4282000000,174.73409,100.96854
4283000000,174.14236,100.84827
4284000000,174.04063,100.95235
4285000000,173.4608,100.69857
4286000000,173.73131,100.4449
4287000000,173.42041,100.51037
4288000000,173.04825,100.24363
4289000000,172.64902,100.21101
4290000000,172.98427,100.01107
4291000000,171.94463,99.847389
4292000000,171.83049,99.52179
4293000000,171.83891,99.526688
4294000000,171.24799,99.521423
4295000000,170.80815,99.290375
4296000000,170.73506,99.089691
4297000000,170.27344,98.969391
4298000000,170.56891,98.772598
4299000000,169.74126,98.687157
4300000000,169.56943,98.461746
4301000000,169.27484,98.183464
4302000000,169.12148,98.49662
4303000000,169.12556,98.043152
4304000000,168.60889,97.892288
4305000000,168.47121,97.791084
4306000000,168.13455,97.460571
4307000000,168.16101,97.355415
4308000000,167.82225,97.428596
4309000000,167.4782,97.048203
4310000000,166.94989,96.908852
4311000000,166.44336,96.739365
4312000000,166.43631,96.830971
4313000000,166.11382,96.541542
4314000000,165.95389,96.417747
4315000000,165.54637,96.201347
4316000000,165.32031,96.17794
4317000000,164.87419,96.082672
4318000000,165.04645,95.746361
4319000000,164.72218,95.641624
4320000000,164.08545,95.614059
4321000000,163.77443,95.369255
4322000000,163.43959,95.037613
4323000000,163.25719,95.176414
4324000000,162.63097,94.889961
4325000000,162.59991,94.839256
4326000000,162.49873,94.53965
4327000000,162.21428,94.471107
4328000000,161.70665,94.432083
4329000000,161.30142,93.991386
4330000000,160.99258,94.212997
4331000000,160.68491,94.151237
4332000000,160.10901,93.678856
4333000000,160.15953,93.64991
4334000000,159.32697,93.416031
4335000000,159.16733,93.451706
4336000000,159.29486,93.123459
4337000000,158.83347,93.056602
4338000000,158.13864,92.947105
4339000000,157.55241,92.830986
4340000000,158.16034,92.663109
4341000000,157.16959,92.473251
4342000000,157.08765,92.394783
4343000000,156.88264,91.985947
4344000000,156.71474,92.03241
4345000000,156.1976,91.871399
4346000000,155.46378,91.692245
4347000000,155.48003,91.512955
4348000000,154.84442,91.404099
4349000000,154.76488,91.185341
4350000000,154.64122,91.244438
4351000000,153.78339,90.836578
4352000000,154.18443,90.766922
4353000000,153.46622,90.732971
4354000000,153.25343,90.404182
4355000000,152.5872,90.287819
4356000000,151.98701,90.291328
4357000000,151.76561,90.232857
4358000000,151.19019,90.012756
4359000000,151.40782,89.753433
4360000000,150.54057,89.74044
4361000000,150.60641,89.422562
4362000000,150.0231,89.460152
4363000000,149.74956,89.458466
4364000000,149.43498,89.268509
4365000000,148.76436,88.966476
4366000000,148.69023,88.6745
4367000000,148.57773,88.58606
4368000000,147.80083,88.46299
4369000000,147.2449,88.411964
4370000000,146.61351,88.140419
4371000000,146.78946,88.00975
4372000000,145.95587,87.844337
4373000000,146.41867,87.689056
4374000000,145.49947,87.433273
4375000000,144.90996,87.457153
4376000000,144.85793,87.352798
4377000000,144.32861,87.152321
4378000000,144.3044,87.025055
4379000000,143.81081,86.839287
4380000000,143.31279,86.906158
4381000000,142.50061,86.497749
4382000000,142.44081,86.343552
4383000000,141.6745,86.157326
4384000000,141.68861,86.090401
4385000000,140.83138,85.980614
4386000000,140.90776,85.845947
4387000000,140.41267,85.609291
4388000000,139.90408,85.567223
4389000000,139.24097,85.224701
4390000000,138.83012,85.216385
4391000000,138.53435,85.046295
4392000000,138.20056,84.891846
4393000000,137.49881,84.679832
4394000000,137.01112,84.767326
4395000000,137.07735,84.282875
4396000000,136.52791,84.366211
4397000000,135.51479,84.262436
4398000000,135.20398,83.932587
4399000000,134.62556,83.873322
4400000000,134.35313,83.727661
4401000000,133.77345,83.53759
4402000000,133.59311,83.259598
4403000000,133.11206,83.228378
4404000000,132.83087,82.950737
4405000000,132.31866,83.097305
4406000000,132.1434,82.774132
4407000000,131.00829,82.659393
4408000000,131.39694,82.628281
4409000000,130.79903,82.386337
4410000000,130.09319,82.243835
4411000000,130.06607,82.066162
4412000000,129.10329,81.875771
4413000000,128.93295,81.96521
4414000000,128.01253,81.694305
4415000000,127.67695,81.534752
4416000000,127.05978,81.293167
4417000000,126.02811,81.203499
4418000000,126.16287,81.011444
4419000000,125.43941,80.789566
4420000000,124.69913,80.851196
4421000000,124.74312,80.484474
4422000000,124.38087,80.540016
4423000000,123.87787,80.154602
4424000000,122.73965,80.206696
4425000000,122.02486,80.124397
4426000000,122.00775,79.93618
4427000000,121.4759,79.799515
4428000000,120.48074,79.656944
4429000000,120.4151,79.445343
4430000000,119.66656,79.128815
4431000000,119.5247,79.119957
4432000000,117.94815,78.937805
4433000000,118.29516,78.792053
4434000000,117.29546,78.474236
4435000000,117.18253,78.394707
4436000000,116.44775,78.277748
4437000000,116.2636,78.23539
4438000000,115.60989,78.040031
4439000000,115.15129,77.903603
4440000000,114.63046,77.719429
4441000000,113.30691,77.511887
4442000000,113.40054,77.54158
4443000000,111.7398,77.279251
4444000000,112.70094,77.243675
4445000000,111.81491,76.870453
4446000000,111.45887,76.835228
4447000000,110.39697,76.699104
4448000000,110.34484,76.56311
4449000000,109.73215,76.374481
4450000000,108.82162,76.320709
4451000000,108.30798,76.13446
4452000000,107.80629,75.975677
4453000000,106.93694,75.862854
4454000000,107.15137,75.78064
4455000000,106.46273,75.554298
4456000000,105.45079,75.315422
4457000000,105.51397,75.173302
4458000000,104.01197,75.023247
4459000000,103.70045,74.838272
4460000000,103.20368,74.823387
4461000000,102.74213,74.601974
4462000000,102.19794,74.477264
4463000000,101.48712,74.305885
4464000000,101.41245,74.252457
4465000000,101.12119,73.973976
4466000000,99.970924,73.78093
4467000000,100.05634,73.692444
4468000000,98.883011,73.530258
4469000000,98.108917,73.37101
4470000000,98.01474,73.279175
4471000000,97.705917,73.112686
4472000000,96.629753,72.961449
4473000000,96.029533,72.725082
4474000000,95.584251,72.564095
4475000000,94.726601,72.261894
4476000000,93.788345,72.067734
4477000000,93.553642,72.172447
4478000000,92.528816,71.87439
4479000000,92.463089,71.895653
4480000000,91.959846,71.850983
4481000000,91.429924,71.548904
4482000000,90.316833,71.302666
4483000000,89.414848,71.251564
4484000000,89.550583,71.053963
4485000000,88.387283,70.941864
4486000000,88.152557,70.839027
4487000000,87.174423,70.698784
4488000000,86.62413,70.508278
4489000000,86.773903,70.408607
4490000000,86.334785,70.219498
4491000000,85.293289,70.002357
4492000000,84.742233,69.928314
4493000000,83.632088,69.630905
4494000000,83.076851,69.542229
4495000000,83.000084,69.490387
4496000000,81.85144,69.255615
4497000000,81.565727,69.281975
4498000000,80.367371,68.815376
4499000000,80.349464,68.81134
4500000000,79.957535,68.668541
4501000000,79.278923,68.618713
4502000000,78.186943,68.421394
4503000000,77.501907,68.155128
4504000000,77.208023,68.207031
4505000000,76.724411,67.975357
4506000000,76.096085,67.6978
4507000000,75.647491,67.572823
4508000000,75.067474,67.462135
4509000000,74.284874,67.324768
4510000000,74.162094,67.19313
4511000000,72.740112,67.012627
4512000000,72.722702,67.006393
4513000000,71.62722,66.832245
4514000000,71.53022,66.428894
4515000000,70.857216,66.427788
4516000000,69.801651,66.262344
4517000000,69.813835,66.156502
4518000000,69.225334,66.058868
4519000000,68.473938,65.80587
4520000000,67.806602,65.576439
4521000000,66.794334,65.372139
4522000000,66.695534,65.44165
4523000000,66.24131,65.257195
4524000000,65.767822,65.003174
4525000000,64.812614,64.783386
4526000000,64.390236,64.832886
4527000000,64.13546,64.616898
4528000000,63.788742,64.528297
4529000000,62.378685,64.317535
4530000000,61.831512,64.081345
4531000000,61.954399,64.046356
4532000000,61.232361,64.078133
4533000000,60.437168,63.83699
4534000000,59.539833,63.573727
4535000000,59.631165,63.401096
4536000000,59.208431,63.299549
4537000000,58.341003,63.247776
4538000000,57.76123,62.952072
4539000000,57.343803,62.779049
4540000000,56.423115,62.819328
4541000000,55.973934,62.373699
4542000000,55.429153,62.319138
4543000000,54.660316,62.354847
4544000000,54.20813,62.215996
4545000000,53.965286,61.896732
4546000000,53.04491,61.771065
4547000000,53.262333,61.605274
4548000000,52.697227,61.599785
4549000000,52.243153,61.39436
4550000000,50.84726,61.130356
4551000000,50.85675,61.074547
4552000000,49.980427,60.760441
4553000000,50.418941,60.953552
4554000000,49.429535,60.699009
4555000000,48.488277,60.487419
4556000000,47.985016,60.183708
4557000000,46.360119,60.03442
4558000000,47.093773,59.936119
4559000000,46.288479,59.849705
4560000000,45.837555,59.709877
4561000000,45.120922,59.352676
4562000000,44.778343,59.327625
4563000000,44.581932,59.278175
4564000000,43.701828,59.137699
4565000000,43.65807,58.717701
4566000000,42.803322,58.692917
4567000000,43.011673,58.832237
4568000000,41.431328,58.421642
4569000000,41.313988,58.326633
4570000000,41.0247,57.996647
4571000000,40.61924,58.120983
4572000000,40.041252,57.799221
4573000000,39.38982,57.710571
4574000000,38.797092,57.366837
4575000000,38.255024,57.568489
4576000000,38.294449,57.153706
4577000000,37.432987,57.027885
4578000000,37.354034,56.871296
4579000000,36.993797,56.867683
4580000000,36.265438,56.558113
4581000000,35.200386,56.321312
4582000000,35.373238,56.336491
4583000000,35.133785,56.142529
4584000000,34.297398,56.045895
4585000000,33.977619,55.990002
4586000000,33.377289,55.781647
4587000000,33.043167,55.569923
4588000000,32.120995,55.441502
4589000000,32.342232,55.158745
4590000000,31.481552,55.132042
4591000000,31.293753,55.077938
4592000000,30.531353,54.90847
4593000000,30.460079,54.646328
4594000000,29.460583,54.463997
4595000000,28.900488,54.290504
4596000000,29.004805,54.292088
4597000000,28.703854,54.072311
4598000000,28.057953,53.905594
4599000000,27.685322,53.771137
4600000000,27.431053,53.788197
4601000000,26.489159,53.44635
4602000000,26.499512,53.344463
4603000000,26.260504,53.243034
4604000000,25.711731,53.12365
4605000000,25.226273,52.750477
4606000000,24.559059,52.512505
4607000000,24.170744,52.422981
4608000000,24.165796,52.383389
4609000000,23.236002,52.152958
4610000000,23.054939,52.065563
4611000000,22.39979,51.868805
4612000000,23.028709,51.758739
4613000000,22.117769,51.697781
4614000000,21.59479,51.502193
4615000000,21.442139,51.459755
4616000000,20.777763,51.168724
4617000000,20.260782,51.158768
4618000000,20.002247,50.852657
4619000000,20.127083,50.781734
4620000000,19.535772,50.693535
4621000000,18.435617,50.393314
4622000000,18.288713,50.337971
4623000000,17.943472,50.106865
4624000000,17.530703,49.995037
4625000000,16.79006,49.750477
4626000000,17.171511,49.68927
4627000000,16.454763,49.604858
4628000000,16.312349,49.273895
4629000000,15.478358,49.084904
4630000000,15.000646,49.048542
4631000000,14.872947,48.886204
4632000000,14.522997,48.609486
4633000000,13.921347,48.664749
4634000000,13.766914,48.441223
4635000000,13.699553,48.354073
4636000000,13.032121,48.093124
4637000000,12.593539,47.891369
4638000000,12.408072,47.890648
4639000000,12.254385,47.661209
4640000000,11.599032,47.443893
4641000000,11.386698,47.384563
4642000000,11.15139,47.320721
4643000000,10.828216,47.112629
4644000000,10.228526,47.023853
4645000000,10.050508,46.907703
4646000000,9.4299259,46.743813
4647000000,9.1172647,46.305138
4648000000,9.0067263,46.408009
4649000000,8.509347,46.275215
4650000000,8.2093401,45.964554
4651000000,7.9003024,46.033939
4652000000,7.4388199,45.674171
4653000000,7.0022349,45.636276
4654000000,6.9091682,45.587475
4655000000,6.7319655,45.275291
4656000000,6.4085622,45.119164
4657000000,5.4795113,44.911892
4658000000,5.2543235,44.856922
4659000000,5.013268,44.713482
4660000000,4.7127247,44.403271
4661000000,4.3979402,44.523735
4662000000,4.4305358,44.306557
4663000000,3.7934175,43.968243
4664000000,3.4336441,44.008568
4665000000,3.1240249,43.637833
4666000000,2.5415182,43.513687
4667000000,2.5051877,43.554741
4668000000,2.1011806,43.332924
4669000000,1.6941191,43.176529
4670000000,1.6499909,43.110016
4671000000,1.0030011,42.901424
4672000000,0.68958896,42.606976
4673000000,0.4850184,42.5061
4674000000,0.3780967,42.340214
4675000000,0.01511807,42.233673
4676000000,0.067192256,42.208698
4677000000,-0.98295271,41.817219
4678000000,-0.9773922,41.897888
4679000000,-1.2847339,41.66539
4680000000,-1.4640975,41.630581
4681000000,-1.8147633,41.320194
4682000000,-1.9068712,41.223892
4683000000,-2.6409962,40.990021
4684000000,-2.7697854,40.664471
4685000000,-3.0227273,40.796288
4686000000,-3.2005837,40.641846
4687000000,-3.4753799,40.606037
4688000000,-3.6312692,40.316505
4689000000,-4.596952,40.072239
4690000000,-4.5334916,39.949154
4691000000,-4.6268573,39.789379
4692000000,-5.0872531,39.780376
4693000000,-5.1723566,39.665619
4694000000,-5.6193194,39.454426
4695000000,-6.0188661,39.24218
4696000000,-6.5309391,38.960003
4697000000,-6.4250202,39.019073
4698000000,-6.8576965,38.998882
4699000000,-7.0893874,38.773296
4700000000,-7.5152025,38.576813
4701000000,-7.9258513,38.285133
4702000000,-7.8701882,38.374321
4703000000,-8.2845259,38.143967
4704000000,-8.3372641,38.035225
4705000000,-8.7923899,37.847851
4706000000,-8.9707432,37.640789
4707000000,-9.7084246,37.434841
4708000000,-9.8317356,37.253605
4709000000,-9.9673834,37.267418
4710000000,-10.481196,37.050278
4711000000,-10.46628,36.911201
4712000000,-11.147583,36.83017
4713000000,-11.214852,36.498562
4714000000,-11.525742,36.349846
4715000000,-11.930078,36.287323
4716000000,-12.234061,36.012859
4717000000,-12.607053,35.913265
4718000000,-12.666541,35.938595
4719000000,-12.957113,35.709293
4720000000,-13.148918,35.497761
4721000000,-13.54279,35.418423
4722000000,-14.005857,35.109821
4723000000,-14.110364,34.982414
4724000000,-14.325982,34.914051
4725000000,-14.614136,34.769436
4726000000,-14.86539,34.677662
4727000000,-15.357924,34.254597
4728000000,-15.358434,34.278702
4729000000,-15.727981,34.046516
4730000000,-15.96984,34.014133
4731000000,-16.000069,33.990482
4732000000,-16.193901,33.748764
4733000000,-16.988123,33.449177
4734000000,-16.97917,33.487373
4735000000,-17.286983,33.260014
4736000000,-17.65435,33.141987
4737000000,-17.634602,32.921444
4738000000,-17.695322,32.933941
4739000000,-18.275452,32.85424
4740000000,-18.783569,32.556183
4741000000,-19.054277,32.337605
4742000000,-19.19228,32.273232
4743000000,-19.467545,32.074524
4744000000,-19.539698,32.046989
4745000000,-19.779327,31.875366
4746000000,-20.372271,31.651773
4747000000,-20.50108,31.34717
4748000000,-20.7122,31.443186
4749000000,-21.327173,31.065514
4750000000,-21.324366,31.112085
4751000000,-21.530943,30.796247
4752000000,-21.44684,30.813126
4753000000,-21.908613,30.649693
4754000000,-22.195412,30.493729
4755000000,-22.400906,30.328964
4756000000,-22.682583,30.165194
4757000000,-23.079231,29.941097
4758000000,-23.526661,29.830124
4759000000,-23.534813,29.752666
4760000000,-23.873697,29.533413
4761000000,-24.094568,29.234415
4762000000,-24.236359,29.323376
4763000000,-24.621414,29.118067
4764000000,-24.926655,28.93722
4765000000,-25.002998,28.743877
4766000000,-25.375029,28.61335
4767000000,-25.515926,28.557592
4768000000,-25.898653,28.397112
4769000000,-26.306011,28.18124
4770000000,-26.291645,27.964315
4771000000,-26.550421,27.944664
4772000000,-26.629356,27.755699
4773000000,-26.969278,27.751467
4774000000,-27.417871,27.449945
4775000000,-27.996407,27.266975
4776000000,-27.552382,27.305046
4777000000,-27.975555,27.081549
4778000000,-28.501835,26.851501
4779000000,-28.617241,26.722433
4780000000,-28.959421,26.574903
4781000000,-29.14826,26.292082
4782000000,-29.450895,26.336885
4783000000,-29.550774,26.235266
4784000000,-29.630634,26.145197
4785000000,-30.336357,25.838951
4786000000,-30.154339,25.700897
4787000000,-30.5165,25.546091
4788000000,-30.879757,25.407108
4789000000,-31.058096,25.20377
4790000000,-31.306923,25.05916
4791000000,-31.365267,25.023954
4792000000,-31.762791,24.884733
4793000000,-31.995775,24.537689
4794000000,-32.234661,24.595999
4795000000,-32.512325,24.434311
4796000000,-32.682156,24.259663
4797000000,-33.213348,23.998985
4798000000,-33.206547,23.844185
4799000000,-33.605316,23.644814
4800000000,-33.637196,23.600332
4801000000,-34.008034,23.660992
4802000000,-33.996201,23.3174
4803000000,-34.590366,23.171005
4804000000,-34.576611,23.006664
4805000000,-34.86808,23.085766
4806000000,-35.127251,22.77556
4807000000,-35.333344,22.550501
4808000000,-35.615051,22.422028
4809000000,-36.041576,22.166824
4810000000,-36.098007,22.322144
4811000000,-36.256828,22.035727
4812000000,-36.761936,21.809332
4813000000,-36.874382,21.596664
4814000000,-37.050323,21.708469
4815000000,-37.550407,21.373144
4816000000,-37.70385,21.337938
4817000000,-37.749897,21.065752
4818000000,-38.131805,20.994587
4819000000,-38.717987,20.919716
4820000000,-38.418018,20.860973
4821000000,-38.809006,20.529535
4822000000,-38.958977,20.485399
4823000000,-39.322361,20.286499
4824000000,-39.571236,20.197687
4825000000,-39.974522,19.978928
4826000000,-39.822968,19.884096
4827000000,-40.186119,19.834553
4828000000,-40.552708,19.458042
4829000000,-40.935734,19.39962
4830000000,-40.828777,19.332914
4831000000,-41.008865,19.275328
4832000000,-41.422356,19.019421
4833000000,-41.66,18.85733
4834000000,-41.995235,18.672028
4835000000,-42.116886,18.592344
4836000000,-42.149372,18.474449
4837000000,-42.583565,18.307831
4838000000,-42.798222,18.060148
4839000000,-43.040733,17.927391
4840000000,-43.255394,17.932871
4841000000,-43.488865,17.618004
4842000000,-43.755707,17.615765
4843000000,-43.996334,17.473373
4844000000,-44.289566,17.1887
4845000000,-44.4258,17.040493
4846000000,-44.398022,17.141972
4847000000,-44.905586,16.791355
4848000000,-45.047485,16.728506
4849000000,-45.437134,16.571003
4850000000,-45.447754,16.69257
4851000000,-45.752312,16.066114
4852000000,-46.008469,15.968327
4853000000,-46.215504,15.884473
4854000000,-46.436573,15.795053
4855000000,-46.634338,15.762682
4856000000,-46.87328,15.63348
4857000000,-47.412865,15.493362
4858000000,-47.348282,15.185095
4859000000,-47.697628,15.156905
4860000000,-48.02565,14.762323
4861000000,-48.144749,14.787661
4862000000,-48.223625,14.636726
4863000000,-48.776222,14.5543
4864000000,-48.783546,14.449912
4865000000,-49.055859,14.177813
4866000000,-49.274288,14.125962
4867000000,-49.465019,14.053061
4868000000,-49.473896,13.812188
4869000000,-49.85849,13.852321
4870000000,-49.95409,13.635439
4871000000,-50.291954,13.343022
4872000000,-50.60294,13.126816
4873000000,-50.733696,13.086917
4874000000,-50.850708,12.925796
4875000000,-51.40411,12.56074
4876000000,-51.216164,12.694195
4877000000,-51.747387,12.490626
4878000000,-51.683167,12.331188
4879000000,-52.113991,12.293411
4880000000,-52.267872,12.023889
4881000000,-52.476822,11.883625
4882000000,-52.69656,11.825199
4883000000,-53.035553,11.507885
4884000000,-53.183964,11.587379
4885000000,-53.153603,11.388156
4886000000,-53.511562,11.129192
4887000000,-53.769497,11.087628
4888000000,-53.96701,10.663083
4889000000,-54.228489,10.845987
4890000000,-54.337437,10.626436
4891000000,-54.629906,10.684108
4892000000,-54.83828,10.280976
4893000000,-55.033855,10.129544
4894000000,-55.295616,10.084439
4895000000,-55.478989,9.8632593
4896000000,-55.539341,9.6814442
4897000000,-55.911705,9.6069441
4898000000,-56.244423,9.3726645
4899000000,-56.388557,9.2331276
4900000000,-56.409393,9.1288624
4901000000,-56.94556,9.1104431
4902000000,-57.059978,8.7644234
4903000000,-57.40406,8.7151232
4904000000,-57.626503,8.7046204
4905000000,-57.703186,8.438179
4906000000,-57.751736,8.2495689
4907000000,-58.266827,8.0645771
4908000000,-58.305775,8.049346
4909000000,-58.613823,7.9105458
4910000000,-58.639095,7.7498631
4911000000,-59.021381,7.5685
4912000000,-59.244823,7.3422313
4913000000,-59.51833,7.3266654
4914000000,-59.421909,6.979413
4915000000,-59.996384,7.09409
4916000000,-60.237877,6.9559302
4917000000,-60.409897,6.7825093
4918000000,-60.491894,6.5152411
4919000000,-60.733196,6.4259806
4920000000,-61.051762,6.3329473
4921000000,-61.094261,6.2423954
4922000000,-61.577702,6.041007
4923000000,-61.677853,5.96422
4924000000,-61.935863,5.609796
4925000000,-62.081638,5.5969949
4926000000,-62.218914,5.5508575
4927000000,-62.842876,5.3109856
4928000000,-62.956852,5.0431762
4929000000,-62.779678,4.896522
4930000000,-63.146454,4.9010482
4931000000,-63.275181,4.6133447
4932000000,-63.527672,4.6689048
4933000000,-63.771824,4.3487687
4934000000,-64.015083,4.3458962
4935000000,-64.434196,4.0189314
4936000000,-64.248062,4.0277748
4937000000,-64.645477,3.7859688
4938000000,-64.766624,3.6883504
4939000000,-65.153534,3.8197615
4940000000,-65.497246,3.2618339
4941000000,-65.477135,3.2607319
4942000000,-65.769806,3.1617992
4943000000,-65.999817,2.8990829
4944000000,-66.257111,2.8166299
4945000000,-66.146179,2.6909692
4946000000,-66.701813,2.5118077
4947000000,-66.733208,2.4035375
4948000000,-67.142418,2.1234784
4949000000,-67.571251,2.1307898
4950000000,-67.405701,1.8380214
4951000000,-67.68013,1.7664626
4952000000,-67.775482,1.5694029
4953000000,-68.187569,1.4547871
4954000000,-68.365356,1.4620783
4955000000,-68.568176,1.4637263
4956000000,-68.921783,0.97853911
4957000000,-68.902443,0.87248784
4958000000,-69.30146,0.85455894
4959000000,-69.540436,0.71459514
4960000000,-69.713425,0.56276053
4961000000,-69.952301,0.37560159
4962000000,-69.908829,0.21785514
4963000000,-70.467888,-0.15224448
4964000000,-70.466164,-0.12146998
4965000000,-70.567169,-0.097514242
4966000000,-70.829285,-0.43796188
4967000000,-71.243698,-0.40081614
4968000000,-71.213585,-0.59410793
4969000000,-71.357147,-0.8156814
4970000000,-71.663971,-0.98448896
4971000000,-71.808655,-1.0099827
4972000000,-72.218681,-1.1935263
4973000000,-72.476997,-1.4739119
4974000000,-72.619606,-1.5583751
4975000000,-72.809547,-1.7432798
4976000000,-73.091087,-1.9001049
4977000000,-73.397911,-1.8750989
4978000000,-73.726013,-1.9356902
4979000000,-73.715416,-2.2554119
4980000000,-73.759293,-2.3427303
4981000000,-74.228706,-2.4826353
4982000000,-74.266273,-2.7005773
4983000000,-74.85598,-2.8471878
4984000000,-74.889015,-2.9731913
4985000000,-75.058136,-3.2291274
4986000000,-75.30426,-3.1196039
4987000000,-75.554054,-3.2874599
4988000000,-75.583015,-3.57549
4989000000,-76.295219,-3.7552764
4990000000,-76.400749,-3.7537351
4991000000,-76.389763,-3.9905732
4992000000,-76.649727,-4.0988736
4993000000,-76.991234,-4.2774067
4994000000,-76.887825,-4.4040909
4995000000,-77.206902,-4.4735112
4996000000,-77.62278,-4.5789714
4997000000,-77.790398,-4.7884231
4998000000,-77.889023,-5.0772038
4999000000,-78.196243,-4.9286423
5000000000,-78.264641,-5.206954
END

