!CSV A.01.01
!Agilent Technologies,E8362C,MY49020225,A.09.42.22
!Agilent E8362C: A.09.42.22
!Date: Tuesday, March 08, 2016 15:09:01
!Source: Standard

BEGIN CH1_DATA
Freq(Hz),S21 Log Mag(dB),S21 Phase(°)
1000000000,-6.7927175,-57.681721
1001000000,-6.7938175,-57.801044
1002000000,-6.7982841,-57.903091
1003000000,-6.7899628,-57.80978
1004000000,-6.7904062,-57.996647
1005000000,-6.8190551,-57.925163
1006000000,-6.8192453,-58.187412
1007000000,-6.8050623,-58.07119
1008000000,-6.8091879,-58.181
1009000000,-6.825479,-58.010902
1010000000,-6.8083882,-58.355492
1011000000,-6.8251014,-58.287128
1012000000,-6.8384113,-58.245636
1013000000,-6.8011684,-58.509899
1014000000,-6.8264327,-58.678677
1015000000,-6.8337889,-58.65472
1016000000,-6.8047252,-58.56461
1017000000,-6.8086114,-58.840866
1018000000,-6.8129458,-58.955086
1019000000,-6.8263187,-58.775063
1020000000,-6.83182,-58.903027
1021000000,-6.8052835,-58.914494
1022000000,-6.8248653,-58.779842
1023000000,-6.8441153,-59.020142
1024000000,-6.8676739,-58.852734
1025000000,-6.8601251,-59.192921
1026000000,-6.8700213,-59.214737
1027000000,-6.8359814,-59.324974
1028000000,-6.8400536,-59.297161
1029000000,-6.8432288,-59.240089
1030000000,-6.8415933,-59.569897
1031000000,-6.8300772,-59.449619
1032000000,-6.8946352,-59.648903
1033000000,-6.8546381,-59.560829
1034000000,-6.8476672,-59.776028
1035000000,-6.8711147,-59.667892
1036000000,-6.8557239,-59.845928
1037000000,-6.8747067,-60.077053
1038000000,-6.8460937,-59.921894
1039000000,-6.8586702,-59.867287
1040000000,-6.8394904,-60.02076
1041000000,-6.8942275,-59.983589
1042000000,-6.8815017,-60.102993
1043000000,-6.8370929,-60.122692
1044000000,-6.8364348,-60.131847
1045000000,-6.8881688,-60.439613
1046000000,-6.8612256,-60.590759
1047000000,-6.8495226,-60.367638
1048000000,-6.9012032,-60.36462
1049000000,-6.8715453,-60.390148
1050000000,-6.8889375,-60.546635
1051000000,-6.8852668,-60.611023
1052000000,-6.8807549,-60.721378
1053000000,-6.8724632,-60.837521
1054000000,-6.8645339,-60.966454
1055000000,-6.8690934,-60.725655
1056000000,-6.9004669,-60.852497
1057000000,-6.8777151,-61.149216
1058000000,-6.9437513,-60.899353
1059000000,-6.909111,-61.076427
1060000000,-6.8599658,-61.067997
1061000000,-6.9176526,-61.227245
1062000000,-6.9099064,-61.208324
1063000000,-6.8817787,-61.318066
1064000000,-6.9131293,-61.445156
1065000000,-6.8746243,-61.545948
1066000000,-6.914258,-61.632351
1067000000,-6.8866,-61.651543
1068000000,-6.8850193,-61.449581
1069000000,-6.9109907,-61.466259
1070000000,-6.9232717,-61.710625
1071000000,-6.876708,-61.712746
1072000000,-6.9187799,-61.913795
1073000000,-6.915009,-61.707924
1074000000,-6.9042997,-61.725437
1075000000,-6.9465852,-62.337696
1076000000,-6.8980489,-62.121098
1077000000,-6.9433055,-62.170631
1078000000,-6.9022121,-62.020214
1079000000,-6.9040999,-62.308792
1080000000,-6.8899436,-62.288681
1081000000,-6.9085345,-62.288654
1082000000,-6.9280572,-62.4398
1083000000,-6.915957,-62.545547
1084000000,-6.8908763,-62.512554
1085000000,-6.9265351,-62.512024
1086000000,-6.9410968,-62.826492
1087000000,-6.9195213,-62.736683
1088000000,-6.9276633,-62.95195
1089000000,-6.9417963,-63.066971
1090000000,-6.9299865,-63.030621
1091000000,-6.9393272,-62.983341
1092000000,-6.9367943,-63.020973
1093000000,-6.9539695,-63.287876
1094000000,-6.9613094,-63.207493
1095000000,-6.9574132,-63.315067
1096000000,-6.9395332,-63.55526
1097000000,-6.943809,-63.327187
1098000000,-6.9553719,-63.529747
1099000000,-6.9556475,-63.672478
1100000000,-6.947042,-63.63102
1101000000,-6.9876823,-63.662205
1102000000,-6.9554911,-63.615898
1103000000,-6.93823,-63.755901
1104000000,-6.9040537,-63.953003
1105000000,-6.9561381,-63.85598
1106000000,-6.9513683,-64.05793
1107000000,-6.9819512,-63.930305
1108000000,-6.9737005,-64.26178
1109000000,-6.9385324,-63.972214
1110000000,-6.9663134,-64.136292
1111000000,-6.9538383,-64.15168
1112000000,-6.9457145,-64.36367
1113000000,-6.9743171,-64.469238
1114000000,-6.9845171,-64.473648
1115000000,-6.9770579,-64.208023
1116000000,-6.9766731,-64.658203
1117000000,-6.9825096,-64.627907
1118000000,-6.9946623,-64.512016
1119000000,-6.9659348,-64.740242
1120000000,-6.9785914,-64.889893
1121000000,-6.9975452,-64.802895
1122000000,-7.0002398,-65.099396
1123000000,-6.9596028,-64.835777
1124000000,-6.9594798,-65.008003
1125000000,-6.9772105,-65.111099
1126000000,-6.9846015,-65.098877
1127000000,-7.0064273,-65.139427
1128000000,-7.0077982,-65.414825
1129000000,-7.0003233,-65.411842
1130000000,-7.0146494,-65.333023
1131000000,-6.9975095,-65.643028
1132000000,-7.0125051,-65.499825
1133000000,-6.9933,-65.689186
1134000000,-6.9948454,-65.725525
1135000000,-7.0289202,-65.64476
1136000000,-7.0304108,-65.822205
1137000000,-7.0122495,-65.845345
1138000000,-6.999506,-66.007042
1139000000,-7.0435581,-66.068649
1140000000,-7.0154705,-66.126358
1141000000,-7.0230637,-66.088799
1142000000,-7.0373864,-66.262779
1143000000,-7.0230298,-65.976959
1144000000,-7.0504436,-66.462357
1145000000,-7.0249991,-66.665512
1146000000,-7.0036397,-66.250694
1147000000,-7.0070896,-66.441261
1148000000,-7.0639577,-66.637489
1149000000,-7.0417361,-66.419052
1150000000,-7.0583396,-66.643066
1151000000,-7.0496831,-66.705276
1152000000,-7.0320854,-66.74688
1153000000,-7.0505562,-66.583977
1154000000,-7.0745783,-66.818787
1155000000,-7.0774345,-67.036308
1156000000,-7.0480504,-66.964432
1157000000,-7.0525889,-66.97847
1158000000,-7.0691876,-66.975754
1159000000,-7.0740185,-67.251068
1160000000,-7.0349278,-67.059875
1161000000,-7.0575566,-67.014153
1162000000,-7.0481749,-67.335342
1163000000,-7.0785484,-67.316147
1164000000,-7.0574398,-67.410332
1165000000,-7.0534768,-67.440704
1166000000,-7.0649796,-67.530487
1167000000,-7.0458307,-67.738693
1168000000,-7.0944018,-67.652092
1169000000,-7.0631495,-67.621521
1170000000,-7.0787024,-67.882492
1171000000,-7.0789757,-68.011642
1172000000,-7.0645614,-67.772163
1173000000,-7.0895247,-67.825348
1174000000,-7.1056104,-67.896866
1175000000,-7.0801501,-68.08239
1176000000,-7.0840192,-68.103539
1177000000,-7.1150303,-68.122108
1178000000,-7.0862732,-68.417183
1179000000,-7.0843892,-68.158966
1180000000,-7.0668845,-68.369972
1181000000,-7.0985093,-68.582405
1182000000,-7.1090527,-68.677216
1183000000,-7.1030993,-68.575211
1184000000,-7.1085196,-68.599503
1185000000,-7.0868168,-68.615685
1186000000,-7.1017256,-68.498611
1187000000,-7.106813,-68.946617
1188000000,-7.1096196,-68.946655
1189000000,-7.1155291,-69.076805
1190000000,-7.0936651,-68.998589
1191000000,-7.0945892,-69.083015
1192000000,-7.1140308,-69.25634
1193000000,-7.1015043,-69.331551
1194000000,-7.0968776,-69.19577
1195000000,-7.1119204,-69.31031
1196000000,-7.1361809,-69.217308
1197000000,-7.1234646,-69.42289
1198000000,-7.1318026,-69.563171
1199000000,-7.1032186,-69.53653
1200000000,-7.1017661,-69.728142
1201000000,-7.0958118,-69.667473
1202000000,-7.1106277,-69.761063
1203000000,-7.1128578,-69.749466
1204000000,-7.1143723,-69.915611
1205000000,-7.105185,-70.040909
1206000000,-7.1397204,-69.822578
1207000000,-7.1320553,-69.938354
1208000000,-7.1076684,-70.061546
1209000000,-7.1174498,-70.004219
1210000000,-7.1645303,-70.295105
1211000000,-7.1582813,-70.424416
1212000000,-7.1427627,-70.229027
1213000000,-7.1466951,-70.6026
1214000000,-7.1620131,-70.456863
1215000000,-7.1360617,-70.558113
1216000000,-7.1370888,-70.448868
1217000000,-7.1467738,-70.618584
1218000000,-7.1298356,-70.854706
1219000000,-7.1406412,-70.749413
1220000000,-7.1665392,-70.787056
1221000000,-7.131196,-70.989868
1222000000,-7.1605835,-70.932632
1223000000,-7.1787715,-70.907822
1224000000,-7.1232853,-70.861237
1225000000,-7.1618443,-71.02179
1226000000,-7.1666107,-71.314529
1227000000,-7.1952538,-71.415565
1228000000,-7.1578932,-71.372215
1229000000,-7.1511011,-71.326515
1230000000,-7.1690311,-71.518669
1231000000,-7.1748638,-71.667603
1232000000,-7.1960115,-71.66436
1233000000,-7.1703324,-71.475327
1234000000,-7.1975613,-71.655548
1235000000,-7.1773162,-71.788345
1236000000,-7.1896691,-71.858322
1237000000,-7.1582165,-71.929749
1238000000,-7.1746144,-71.853806
1239000000,-7.1981049,-72.036011
1240000000,-7.203548,-72.082245
1241000000,-7.1906481,-72.099548
1242000000,-7.1730542,-72.051208
1243000000,-7.1940813,-72.210472
1244000000,-7.2004781,-72.261696
1245000000,-7.1922235,-72.539917
1246000000,-7.1639595,-72.48748
1247000000,-7.2013459,-72.651398
1248000000,-7.1969194,-72.517258
1249000000,-7.1872034,-72.573814
1250000000,-7.2012582,-72.697426
1251000000,-7.1794753,-72.883492
1252000000,-7.1734376,-73.102936
1253000000,-7.2347741,-72.840332
1254000000,-7.2246571,-72.842178
1255000000,-7.2065868,-72.937805
1256000000,-7.1961761,-73.141296
1257000000,-7.2372117,-73.08033
1258000000,-7.2246952,-73.160782
1259000000,-7.2029433,-73.511635
1260000000,-7.2227826,-73.203888
1261000000,-7.218195,-73.185844
1262000000,-7.2069468,-73.587463
1263000000,-7.2100701,-73.603195
1264000000,-7.2407937,-73.366203
1265000000,-7.2292843,-73.625328
1266000000,-7.2479339,-73.72702
1267000000,-7.2402697,-73.783394
1268000000,-7.2287107,-73.899017
1269000000,-7.2323728,-73.840797
1270000000,-7.2982988,-74.005013
1271000000,-7.2456617,-74.065582
1272000000,-7.2453141,-74.01413
1273000000,-7.2620664,-74.090912
1274000000,-7.2487197,-74.260918
1275000000,-7.2188988,-74.329094
1276000000,-7.2712779,-74.427345
1277000000,-7.2501101,-74.465759
1278000000,-7.2270899,-74.276077
1279000000,-7.2522817,-74.636131
1280000000,-7.2576222,-74.671471
1281000000,-7.2814479,-74.680786
1282000000,-7.2638669,-74.735107
1283000000,-7.2497153,-74.904549
1284000000,-7.2341805,-74.840385
1285000000,-7.2392797,-74.808983
1286000000,-7.2535062,-75.020645
1287000000,-7.2647686,-74.878357
1288000000,-7.2676778,-75.043655
1289000000,-7.2969065,-75.210594
1290000000,-7.2831368,-75.218109
1291000000,-7.276485,-75.297089
1292000000,-7.2603521,-75.437782
1293000000,-7.2858086,-75.473511
1294000000,-7.242115,-75.480095
1295000000,-7.2580042,-75.532845
1296000000,-7.2840075,-75.474182
1297000000,-7.309854,-75.799217
1298000000,-7.2823405,-75.852005
1299000000,-7.2734628,-75.767433
1300000000,-7.3151836,-76.024521
1301000000,-7.329133,-75.744293
1302000000,-7.282825,-75.99572
1303000000,-7.2950497,-76.182915
1304000000,-7.3254647,-75.995857
1305000000,-7.3174286,-76.036926
1306000000,-7.3103747,-76.093437
1307000000,-7.3072367,-76.21254
1308000000,-7.3273954,-76.227325
1309000000,-7.3027272,-76.424255
1310000000,-7.3050237,-76.606171
1311000000,-7.3120832,-76.676987
1312000000,-7.3150983,-76.675697
1313000000,-7.3407826,-76.655731
1314000000,-7.3165555,-76.959282
1315000000,-7.3365941,-76.858299
1316000000,-7.3427334,-76.865631
1317000000,-7.3177519,-76.991127
1318000000,-7.3286886,-76.914093
1319000000,-7.3276534,-77.15152
1320000000,-7.337738,-77.033676
1321000000,-7.3390527,-77.220848
1322000000,-7.3352065,-77.243576
1323000000,-7.3402505,-77.266327
1324000000,-7.3367677,-77.169807
1325000000,-7.3345051,-77.395432
1326000000,-7.3364182,-77.426338
1327000000,-7.3449388,-77.338821
1328000000,-7.3417039,-77.53714
1329000000,-7.3548846,-77.433975
1330000000,-7.3362079,-77.720085
1331000000,-7.3849664,-77.72393
1332000000,-7.336659,-77.947845
1333000000,-7.3783298,-77.927696
1334000000,-7.3358641,-77.986229
1335000000,-7.3596296,-78.03434
1336000000,-7.3697758,-78.236298
1337000000,-7.3461757,-78.062553
1338000000,-7.355269,-78.219032
1339000000,-7.3749261,-78.40654
1340000000,-7.3787627,-78.293343
1341000000,-7.3906026,-78.288605
1342000000,-7.3349433,-78.516083
1343000000,-7.3631163,-78.634857
1344000000,-7.3883533,-78.520256
1345000000,-7.3923306,-78.821846
1346000000,-7.3867564,-78.724213
1347000000,-7.3927851,-78.758476
1348000000,-7.3621478,-78.874138
1349000000,-7.3876448,-79.034538
1350000000,-7.3935242,-79.039017
1351000000,-7.3612146,-78.835876
1352000000,-7.4029822,-79.067955
1353000000,-7.3658023,-79.186417
1354000000,-7.3915644,-79.232346
1355000000,-7.4287267,-79.217567
1356000000,-7.3838134,-79.423759
1357000000,-7.4017515,-79.347084
1358000000,-7.372673,-79.357346
1359000000,-7.3973546,-79.78479
1360000000,-7.3934298,-79.637505
1361000000,-7.4119759,-79.786064
1362000000,-7.3919883,-79.975372
1363000000,-7.4145465,-79.821228
1364000000,-7.399157,-79.879051
1365000000,-7.4103088,-79.912186
1366000000,-7.3954921,-79.97876
1367000000,-7.381743,-80.029099
1368000000,-7.4052496,-80.118095
1369000000,-7.4108639,-80.126266
1370000000,-7.4118805,-80.339943
1371000000,-7.4438572,-80.313354
1372000000,-7.4110913,-80.564087
1373000000,-7.4295306,-80.368385
1374000000,-7.3943329,-80.65239
1375000000,-7.4163876,-80.714363
1376000000,-7.4266086,-80.687912
1377000000,-7.4204412,-80.690155
1378000000,-7.4463415,-80.816002
1379000000,-7.4175878,-80.782547
1380000000,-7.4436245,-80.910088
1381000000,-7.4715047,-81.00882
1382000000,-7.4588032,-81.010612
1383000000,-7.4494877,-81.001877
1384000000,-7.4489284,-81.139244
1385000000,-7.4502869,-81.264938
1386000000,-7.4242353,-81.356796
1387000000,-7.4872842,-81.51712
1388000000,-7.4657121,-81.325195
1389000000,-7.4517336,-81.561966
1390000000,-7.4810233,-81.709503
1391000000,-7.492919,-81.783348
1392000000,-7.4689331,-81.756233
1393000000,-7.481832,-81.73365
1394000000,-7.4699101,-81.965828
1395000000,-7.4491587,-81.652252
1396000000,-7.4511433,-82.077888
1397000000,-7.4793134,-82.116753
1398000000,-7.4778323,-82.120163
1399000000,-7.4603181,-82.162865
1400000000,-7.4722061,-82.342819
1401000000,-7.4512482,-82.27401
1402000000,-7.4507747,-82.362534
1403000000,-7.4855933,-82.396385
1404000000,-7.4943585,-82.523705
1405000000,-7.4954844,-82.649994
1406000000,-7.4790053,-82.8498
1407000000,-7.4894495,-82.816566
1408000000,-7.4687104,-82.604729
1409000000,-7.4723496,-82.941246
1410000000,-7.4932022,-82.918343
1411000000,-7.4973779,-83.130135
1412000000,-7.4999204,-83.019264
1413000000,-7.4704185,-83.146843
1414000000,-7.4864006,-83.201073
1415000000,-7.4866939,-83.43885
1416000000,-7.4733353,-83.319603
1417000000,-7.489603,-83.489265
1418000000,-7.5090151,-83.467789
1419000000,-7.4860029,-83.725182
1420000000,-7.4972348,-83.58194
1421000000,-7.5100389,-83.761589
1422000000,-7.4643989,-83.662827
1423000000,-7.4862876,-83.764755
1424000000,-7.5205941,-84.004478
1425000000,-7.5157962,-83.975716
1426000000,-7.5402536,-84.105797
1427000000,-7.5431123,-84.069229
1428000000,-7.5323777,-84.230301
1429000000,-7.5254598,-84.256538
1430000000,-7.5106606,-84.20224
1431000000,-7.5082097,-84.385788
1432000000,-7.5024352,-84.583641
1433000000,-7.5404782,-84.461281
1434000000,-7.5465631,-84.560303
1435000000,-7.5333586,-84.656685
1436000000,-7.5440836,-84.667259
1437000000,-7.5458565,-84.813271
1438000000,-7.5336709,-84.945114
1439000000,-7.5781898,-84.926369
1440000000,-7.5518346,-84.987556
1441000000,-7.5456305,-85.142181
1442000000,-7.5619497,-85.014412
1443000000,-7.5738826,-85.283981
1444000000,-7.5454812,-85.290649
1445000000,-7.5678673,-85.22406
1446000000,-7.5612316,-85.486977
1447000000,-7.5425158,-85.366447
1448000000,-7.5523729,-85.625458
1449000000,-7.568027,-85.551064
1450000000,-7.5644875,-85.709007
1451000000,-7.5470767,-85.706612
1452000000,-7.5507684,-85.714005
1453000000,-7.6120539,-85.941116
1454000000,-7.5846019,-86.013947
1455000000,-7.5880322,-85.978767
1456000000,-7.5873132,-86.243393
1457000000,-7.5806422,-86.070869
1458000000,-7.5927515,-86.462761
1459000000,-7.5942326,-86.349701
1460000000,-7.5807991,-86.277542
1461000000,-7.6067524,-86.482147
1462000000,-7.6149058,-86.611992
1463000000,-7.6107373,-86.503517
1464000000,-7.5924358,-86.555611
1465000000,-7.6075459,-86.692062
1466000000,-7.5904136,-86.859909
1467000000,-7.577559,-86.894142
1468000000,-7.5979323,-86.988449
1469000000,-7.573792,-87.099884
1470000000,-7.5873623,-86.977951
1471000000,-7.6220832,-87.148453
1472000000,-7.630055,-87.24469
1473000000,-7.6308126,-87.293175
1474000000,-7.6229558,-87.433189
1475000000,-7.6268711,-87.504166
1476000000,-7.6216726,-87.437912
1477000000,-7.6212611,-87.443245
1478000000,-7.6304879,-87.53801
1479000000,-7.6212077,-87.776878
1480000000,-7.6335363,-88.015083
1481000000,-7.6085081,-87.895142
1482000000,-7.6231174,-88.156555
1483000000,-7.6315088,-87.956909
1484000000,-7.6262631,-88.160416
1485000000,-7.6369243,-88.130707
1486000000,-7.6267948,-88.246407
1487000000,-7.6447582,-88.342049
1488000000,-7.6436281,-88.278984
1489000000,-7.6377206,-88.395683
1490000000,-7.6360912,-88.3936
1491000000,-7.6450281,-88.621307
1492000000,-7.6303968,-88.605743
1493000000,-7.640871,-88.561958
1494000000,-7.6489859,-88.819122
1495000000,-7.6587024,-88.885017
1496000000,-7.6681132,-88.924713
1497000000,-7.6613889,-88.950974
1498000000,-7.6499877,-89.127327
1499000000,-7.663754,-89.109856
1500000000,-7.669548,-89.303535
1501000000,-7.6885309,-89.451057
1502000000,-7.688931,-89.409164
1503000000,-7.6615582,-89.272408
1504000000,-7.6501675,-89.525497
1505000000,-7.6733131,-89.888481
1506000000,-7.6936817,-89.773567
1507000000,-7.6642051,-89.844116
1508000000,-7.6704617,-89.940796
1509000000,-7.6826549,-89.873833
1510000000,-7.6980371,-89.959724
1511000000,-7.6864953,-89.883362
1512000000,-7.6719689,-90.024796
1513000000,-7.6911359,-90.009018
1514000000,-7.6760068,-90.372765
1515000000,-7.7035298,-90.191231
1516000000,-7.69733,-90.524361
1517000000,-7.711031,-90.479317
1518000000,-7.6781893,-90.422958
1519000000,-7.6951814,-90.424843
1520000000,-7.7228174,-90.632759
1521000000,-7.7236481,-90.734467
1522000000,-7.7002292,-90.959419
1523000000,-7.7162962,-91.110374
1524000000,-7.734446,-91.092636
1525000000,-7.7147141,-91.109634
1526000000,-7.7193861,-91.292572
1527000000,-7.77075,-91.356842
1528000000,-7.7579484,-91.233246
1529000000,-7.7455339,-91.364235
1530000000,-7.758925,-91.388687
1531000000,-7.746912,-91.523079
1532000000,-7.7584047,-91.549301
1533000000,-7.7509494,-91.787811
1534000000,-7.751657,-91.728249
1535000000,-7.7631187,-91.832336
1536000000,-7.7405491,-92.165657
1537000000,-7.755095,-91.882339
1538000000,-7.7684641,-92.04924
1539000000,-7.7804856,-92.223541
1540000000,-7.7795081,-92.119278
1541000000,-7.7836947,-92.367172
1542000000,-7.7637386,-92.127098
1543000000,-7.7687917,-92.501556
1544000000,-7.7728481,-92.559082
1545000000,-7.8264952,-92.595627
1546000000,-7.7544303,-92.470192
1547000000,-7.8157907,-92.891747
1548000000,-7.7674704,-92.639725
1549000000,-7.8014083,-92.834465
1550000000,-7.808919,-93.029709
1551000000,-7.7709203,-93.058243
1552000000,-7.7656026,-93.032051
1553000000,-7.809279,-93.250603
1554000000,-7.8012209,-93.003754
1555000000,-7.7915649,-93.344398
1556000000,-7.7627654,-93.364265
1557000000,-7.798306,-93.563126
1558000000,-7.7953563,-93.580818
1559000000,-7.8016829,-93.580154
1560000000,-7.8079443,-93.873917
1561000000,-7.8155432,-93.720383
1562000000,-7.8234386,-94.067039
1563000000,-7.8429933,-93.769104
1564000000,-7.8020105,-93.949257
1565000000,-7.8352666,-94.07328
1566000000,-7.8254871,-94.076187
1567000000,-7.845365,-94.227158
1568000000,-7.8383489,-94.155182
1569000000,-7.8350739,-94.413277
1570000000,-7.8386536,-94.531067
1571000000,-7.8336401,-94.489128
1572000000,-7.84196,-94.418396
1573000000,-7.8422699,-94.79731
1574000000,-7.8619437,-94.665337
1575000000,-7.8143349,-94.936432
1576000000,-7.8623128,-94.892311
1577000000,-7.8269658,-95.259163
1578000000,-7.8820047,-95.042007
1579000000,-7.8798976,-95.226593
1580000000,-7.8871222,-95.391273
1581000000,-7.8650408,-95.234795
1582000000,-7.8972316,-95.484116
1583000000,-7.8670516,-95.404839
1584000000,-7.869422,-95.623383
1585000000,-7.8946962,-95.571045
1586000000,-7.9004402,-95.842957
1587000000,-7.8904285,-95.894333
1588000000,-7.8882742,-95.79924
1589000000,-7.9004049,-96.038162
1590000000,-7.9064021,-96.108765
1591000000,-7.921711,-96.028015
1592000000,-7.926424,-96.078094
1593000000,-7.8849082,-96.333839
1594000000,-7.8890958,-96.2575
1595000000,-7.911469,-96.486153
1596000000,-7.9453135,-96.527214
1597000000,-7.9359045,-96.66761
1598000000,-7.8959498,-96.563232
1599000000,-7.9259577,-96.842827
1600000000,-7.9014502,-96.732124
1601000000,-7.9124489,-96.907478
1602000000,-7.9376783,-96.929344
1603000000,-7.9406919,-96.974396
1604000000,-7.9285822,-97.178543
1605000000,-7.9199901,-97.168007
1606000000,-7.9576244,-97.157356
1607000000,-7.9629345,-97.411644
1608000000,-7.9526362,-97.287933
1609000000,-7.9449201,-97.645386
1610000000,-7.9700718,-97.685646
1611000000,-7.9658852,-97.580254
1612000000,-7.9712429,-97.610489
1613000000,-7.9684114,-97.654366
1614000000,-7.9868937,-97.796341
1615000000,-7.9514227,-97.833237
1616000000,-7.9822025,-98.057152
1617000000,-7.9719667,-97.950035
1618000000,-7.9654889,-98.206627
1619000000,-7.9677234,-98.347008
1620000000,-7.9795284,-98.432648
1621000000,-7.9785342,-98.324631
1622000000,-8.0057821,-98.488846
1623000000,-7.9931779,-98.603386
1624000000,-7.9777932,-98.60553
1625000000,-7.9903965,-98.883659
1626000000,-8.0343781,-98.693924
1627000000,-8.0046415,-98.89447
1628000000,-8.0593529,-99.030945
1629000000,-8.0338297,-99.077896
1630000000,-8.0145931,-99.157219
1631000000,-8.0334501,-99.311256
1632000000,-8.0177727,-99.361
1633000000,-7.9972634,-99.433434
1634000000,-8.0234165,-99.401253
1635000000,-8.0160103,-99.456688
1636000000,-8.0356922,-99.676636
1637000000,-8.0240622,-99.492081
1638000000,-8.0212431,-99.869781
1639000000,-8.0486078,-99.98349
1640000000,-8.0343847,-100.06062
1641000000,-8.0372009,-99.92836
1642000000,-8.0463552,-100.0822
1643000000,-8.0586929,-100.19479
1644000000,-8.0460329,-100.24711
1645000000,-8.0716867,-100.30081
1646000000,-8.0678244,-100.56566
1647000000,-8.043478,-100.52541
1648000000,-8.0524216,-100.56812
1649000000,-8.0822868,-100.74212
1650000000,-8.0712957,-100.75726
1651000000,-8.077035,-100.78496
1652000000,-8.077672,-100.97294
1653000000,-8.0838575,-101.02322
1654000000,-8.0807114,-101.14722
1655000000,-8.0864992,-101.23025
1656000000,-8.0858564,-101.16089
1657000000,-8.1274137,-101.2916
1658000000,-8.098278,-101.35239
1659000000,-8.086071,-101.40879
1660000000,-8.1068506,-101.65585
1661000000,-8.0949926,-101.45311
1662000000,-8.1166029,-101.85758
1663000000,-8.102272,-101.65898
1664000000,-8.1133223,-101.82595
1665000000,-8.0903769,-101.78874
1666000000,-8.1028452,-102.1769
1667000000,-8.1242619,-102.21006
1668000000,-8.1202002,-102.0276
1669000000,-8.1342964,-102.27052
1670000000,-8.169282,-102.51315
1671000000,-8.1277037,-102.59099
1672000000,-8.1551285,-102.57128
1673000000,-8.1303101,-102.69068
1674000000,-8.1472597,-102.88264
1675000000,-8.1524754,-102.92549
1676000000,-8.1725702,-102.98351
1677000000,-8.1519423,-103.06977
1678000000,-8.176734,-103.09416
1679000000,-8.1576757,-103.31561
1680000000,-8.1912422,-103.2454
1681000000,-8.1843739,-103.2257
1682000000,-8.1785269,-103.53088
1683000000,-8.1635656,-103.65932
1684000000,-8.1881657,-103.49862
1685000000,-8.2004061,-103.57853
1686000000,-8.2093782,-103.9285
1687000000,-8.1881933,-103.89362
1688000000,-8.2095098,-103.83613
1689000000,-8.1911201,-104.05433
1690000000,-8.2153006,-104.0122
1691000000,-8.2165642,-104.04639
1692000000,-8.203414,-104.28944
1693000000,-8.2414885,-104.43472
1694000000,-8.213191,-104.60976
1695000000,-8.2323427,-104.64587
1696000000,-8.2157412,-104.75235
1697000000,-8.2478657,-104.73336
1698000000,-8.2512579,-104.79967
1699000000,-8.2280836,-104.96381
1700000000,-8.2332964,-104.8465
1701000000,-8.2350941,-104.91849
1702000000,-8.2891178,-105.21901
1703000000,-8.2399273,-105.37878
1704000000,-8.2796021,-105.17743
1705000000,-8.2972021,-105.50967
1706000000,-8.2944241,-105.48342
1707000000,-8.2957935,-105.77457
1708000000,-8.2637844,-105.81829
1709000000,-8.286891,-105.77406
1710000000,-8.2823067,-105.86412
1711000000,-8.2801905,-105.82313
1712000000,-8.2898026,-106.05763
1713000000,-8.3201733,-106.35262
1714000000,-8.3218136,-106.47659
1715000000,-8.3141584,-106.32789
1716000000,-8.3362932,-106.48776
1717000000,-8.3096819,-106.50141
1718000000,-8.353137,-106.58485
1719000000,-8.3390741,-106.69543
1720000000,-8.325841,-106.61563
1721000000,-8.3500118,-106.86618
1722000000,-8.3665266,-106.87164
1723000000,-8.34375,-106.89726
1724000000,-8.3409958,-107.22042
1725000000,-8.353632,-107.27201
1726000000,-8.3612089,-107.42139
1727000000,-8.3519344,-107.17768
1728000000,-8.3775139,-107.30104
1729000000,-8.3643217,-107.51657
1730000000,-8.379837,-107.74586
1731000000,-8.3663406,-107.66685
1732000000,-8.3853617,-108.03695
1733000000,-8.3724775,-108.08752
1734000000,-8.3818455,-108.01398
1735000000,-8.3961353,-107.80408
1736000000,-8.3695641,-108.23344
1737000000,-8.4024258,-108.16988
1738000000,-8.4118176,-108.40092
1739000000,-8.3968449,-108.43521
1740000000,-8.4398479,-108.50271
1741000000,-8.4450302,-108.56622
1742000000,-8.4565563,-108.73611
1743000000,-8.4423504,-108.99058
1744000000,-8.418849,-108.86772
1745000000,-8.4210844,-109.07895
1746000000,-8.4625902,-109.04192
1747000000,-8.4390593,-109.26135
1748000000,-8.4914846,-109.04639
1749000000,-8.5054607,-109.15664
1750000000,-8.4826841,-109.37941
1751000000,-8.4770546,-109.5603
1752000000,-8.4728603,-109.71543
1753000000,-8.467494,-109.5727
1754000000,-8.4845333,-109.83953
1755000000,-8.4872103,-110.12495
1756000000,-8.4919319,-110.0297
1757000000,-8.5000458,-110.27106
1758000000,-8.538743,-110.2139
1759000000,-8.5190563,-110.30449
1760000000,-8.5247288,-110.29106
1761000000,-8.5055933,-110.37943
1762000000,-8.5035124,-110.51291
1763000000,-8.5408945,-110.54774
1764000000,-8.5225286,-110.51918
1765000000,-8.5158033,-110.95808
1766000000,-8.5673389,-110.83123
1767000000,-8.573308,-110.92517
1768000000,-8.5263624,-111.11467
1769000000,-8.5346203,-111.10506
1770000000,-8.5668163,-111.24512
1771000000,-8.5767784,-111.25468
1772000000,-8.5676374,-111.52769
1773000000,-8.5445595,-111.58345
1774000000,-8.5919886,-111.58566
1775000000,-8.5726843,-111.72044
1776000000,-8.5610733,-111.88104
1777000000,-8.5966158,-111.91238
1778000000,-8.6001072,-112.06244
1779000000,-8.5842438,-112.17255
1780000000,-8.6058083,-112.20303
1781000000,-8.6241951,-112.36508
1782000000,-8.6139421,-112.38728
1783000000,-8.6280022,-112.4613
1784000000,-8.641715,-112.67779
1785000000,-8.6160946,-112.51129
1786000000,-8.6270466,-112.7531
1787000000,-8.6167383,-112.89622
1788000000,-8.6555891,-112.75989
1789000000,-8.6459808,-112.99562
1790000000,-8.6562777,-113.30447
1791000000,-8.6733503,-113.3206
1792000000,-8.6565332,-113.31918
1793000000,-8.693079,-113.31413
1794000000,-8.652914,-113.49718
1795000000,-8.6887741,-113.94811
1796000000,-8.7176428,-113.79631
1797000000,-8.7209091,-113.8588
1798000000,-8.7115335,-113.91955
1799000000,-8.7121086,-114.05149
1800000000,-8.6970224,-114.15942
1801000000,-8.7451468,-114.21607
1802000000,-8.7453899,-114.36619
1803000000,-8.7604589,-114.39637
1804000000,-8.7282,-114.44528
1805000000,-8.7149029,-114.71339
1806000000,-8.7426014,-114.71106
1807000000,-8.7532072,-114.76589
1808000000,-8.7429075,-114.79978
1809000000,-8.7926893,-114.99191
1810000000,-8.7911692,-115.00462
1811000000,-8.7350264,-115.05387
1812000000,-8.793788,-115.16784
1813000000,-8.8100214,-115.1882
1814000000,-8.7994184,-115.43103
1815000000,-8.7840004,-115.6916
1816000000,-8.8104477,-115.61315
1817000000,-8.8323565,-115.64737
1818000000,-8.7918072,-115.77625
1819000000,-8.8586569,-115.91837
1820000000,-8.8052216,-115.9531
1821000000,-8.8194008,-116.19495
1822000000,-8.8329639,-116.22785
1823000000,-8.8582706,-116.26196
1824000000,-8.8405027,-116.32082
1825000000,-8.8671379,-116.5328
1826000000,-8.8681145,-116.54101
1827000000,-8.8641996,-116.56087
1828000000,-8.8783607,-116.72213
1829000000,-8.8883362,-116.71752
1830000000,-8.8912592,-116.91547
1831000000,-8.8785658,-117.05905
1832000000,-8.9155693,-117.08698
1833000000,-8.9160252,-117.47551
1834000000,-8.9121971,-117.23547
1835000000,-8.8812809,-117.68666
1836000000,-8.9290028,-117.47476
1837000000,-8.9283323,-117.64266
1838000000,-8.9166784,-117.91718
1839000000,-8.9558439,-117.90331
1840000000,-8.9781761,-117.80788
1841000000,-8.9574709,-117.94717
1842000000,-8.9627838,-118.25938
1843000000,-8.9631386,-118.35978
1844000000,-8.9823542,-118.26575
1845000000,-8.9813519,-118.52791
1846000000,-8.9747095,-118.74847
1847000000,-9.0075626,-118.78778
1848000000,-9.0208025,-118.88443
1849000000,-8.9901152,-118.89715
1850000000,-9.0491133,-118.85272
1851000000,-9.0115309,-118.89909
1852000000,-9.0330172,-119.1748
1853000000,-9.0542612,-119.24628
1854000000,-9.0805387,-119.41853
1855000000,-9.0493441,-119.69079
1856000000,-9.0870972,-119.66345
1857000000,-9.0301161,-119.66669
1858000000,-9.083334,-119.8403
1859000000,-9.077776,-119.75983
1860000000,-9.1019211,-120.09884
1861000000,-9.0928602,-120.23984
1862000000,-9.0913353,-120.04593
1863000000,-9.0989256,-120.13508
1864000000,-9.1015091,-120.27519
1865000000,-9.1245222,-120.4334
1866000000,-9.1240501,-120.62766
1867000000,-9.1147394,-120.8335
1868000000,-9.1640196,-120.72415
1869000000,-9.1466455,-120.88284
1870000000,-9.1412725,-121.06441
1871000000,-9.1457968,-121.20744
1872000000,-9.1499844,-121.29054
1873000000,-9.176672,-121.30155
1874000000,-9.1996241,-121.12029
1875000000,-9.1818581,-121.4464
1876000000,-9.1810694,-121.72813
1877000000,-9.2250681,-121.62363
1878000000,-9.2170401,-121.8587
1879000000,-9.2099447,-122.04694
1880000000,-9.2275,-122.23432
1881000000,-9.2259789,-121.87843
1882000000,-9.2320414,-122.43065
1883000000,-9.2732172,-122.26929
1884000000,-9.311409,-122.39188
1885000000,-9.2822723,-122.49872
1886000000,-9.2979603,-122.60049
1887000000,-9.2906179,-122.81847
1888000000,-9.2823792,-122.98317
1889000000,-9.2802992,-122.94819
1890000000,-9.3315907,-123.25885
1891000000,-9.325017,-123.38484
1892000000,-9.337966,-123.32515
1893000000,-9.300992,-123.30755
1894000000,-9.3473949,-123.53655
1895000000,-9.3463173,-123.94576
1896000000,-9.3658333,-123.62427
1897000000,-9.3770266,-123.75253
1898000000,-9.3709679,-123.96093
1899000000,-9.3761425,-124.05356
1900000000,-9.3796921,-124.17546
1901000000,-9.4073544,-124.12116
1902000000,-9.3974342,-124.05529
1903000000,-9.3941813,-124.53073
1904000000,-9.4162989,-124.52161
1905000000,-9.4582319,-124.64606
1906000000,-9.4655991,-124.83728
1907000000,-9.4585915,-124.83332
1908000000,-9.4258642,-125.03371
1909000000,-9.4459715,-125.02103
1910000000,-9.4691401,-125.27958
1911000000,-9.4825516,-125.18623
1912000000,-9.5006952,-125.50631
1913000000,-9.489893,-125.45869
1914000000,-9.5288296,-125.57405
1915000000,-9.4752665,-125.68568
1916000000,-9.5323925,-125.70451
1917000000,-9.5390606,-125.94843
1918000000,-9.5763512,-125.98374
1919000000,-9.5773439,-126.11394
1920000000,-9.5693407,-126.00971
1921000000,-9.5508814,-126.39338
1922000000,-9.6140661,-126.51746
1923000000,-9.5711308,-126.75336
1924000000,-9.6078434,-126.69685
1925000000,-9.6273632,-126.91833
1926000000,-9.6096716,-126.934
1927000000,-9.6295309,-127.15162
1928000000,-9.6324062,-127.11728
1929000000,-9.6219158,-127.09236
1930000000,-9.6461391,-127.41897
1931000000,-9.6568184,-127.38498
1932000000,-9.6765242,-127.59552
1933000000,-9.6874619,-127.44534
1934000000,-9.6687479,-127.63824
1935000000,-9.6973038,-127.77626
1936000000,-9.7085533,-128.0298
1937000000,-9.6994638,-128.06926
1938000000,-9.7717104,-128.2413
1939000000,-9.7583408,-128.19543
1940000000,-9.738513,-128.38731
1941000000,-9.730217,-128.53192
1942000000,-9.7419271,-128.48317
1943000000,-9.7525787,-128.70265
1944000000,-9.787981,-128.77126
1945000000,-9.7531881,-129.00063
1946000000,-9.8014927,-129.13895
1947000000,-9.8032637,-129.2422
1948000000,-9.8352232,-129.099
1949000000,-9.8349333,-129.33997
1950000000,-9.8421459,-129.42715
1951000000,-9.8842134,-129.6317
1952000000,-9.8500853,-129.62897
1953000000,-9.8800135,-130.0107
1954000000,-9.8452053,-130.18401
1955000000,-9.8706732,-130.06895
1956000000,-9.9087534,-130.16727
1957000000,-9.9229879,-130.54608
1958000000,-9.9388103,-130.45956
1959000000,-9.9070387,-130.56027
1960000000,-9.9292431,-130.70834
1961000000,-9.9451189,-130.66119
1962000000,-9.9619541,-130.88318
1963000000,-9.9808588,-131.05946
1964000000,-9.9740324,-131.24413
1965000000,-9.9999561,-131.23897
1966000000,-9.9900341,-131.19029
1967000000,-10.001002,-131.59465
1968000000,-10.026924,-131.62526
1969000000,-10.002032,-131.93071
1970000000,-10.055455,-131.68919
1971000000,-10.065652,-132.07762
1972000000,-10.070959,-132.14418
1973000000,-10.044353,-132.09439
1974000000,-10.081824,-132.29913
1975000000,-10.111121,-132.38142
1976000000,-10.077194,-132.55453
1977000000,-10.113901,-132.68857
1978000000,-10.119286,-132.75357
1979000000,-10.147846,-132.7131
1980000000,-10.135149,-132.72276
1981000000,-10.180833,-133.18495
1982000000,-10.195253,-133.04898
1983000000,-10.167087,-133.58531
1984000000,-10.181338,-133.41238
1985000000,-10.206907,-133.65773
1986000000,-10.20815,-133.82246
1987000000,-10.238881,-133.76251
1988000000,-10.245307,-134.05008
1989000000,-10.257706,-133.9313
1990000000,-10.283715,-134.144
1991000000,-10.284019,-134.30246
1992000000,-10.296519,-134.40657
1993000000,-10.332378,-134.52867
1994000000,-10.309334,-134.41322
1995000000,-10.321198,-134.88617
1996000000,-10.315488,-135.08057
1997000000,-10.369855,-135.1151
1998000000,-10.388187,-135.03444
1999000000,-10.409957,-135.41705
2000000000,-10.390882,-135.54044
2001000000,-10.410995,-135.49942
2002000000,-10.406541,-135.34517
2003000000,-10.447123,-135.86984
2004000000,-10.446286,-135.88243
2005000000,-10.437521,-135.94531
2006000000,-10.455872,-135.99281
2007000000,-10.474702,-136.05472
2008000000,-10.484234,-136.34277
2009000000,-10.497362,-135.88611
2010000000,-10.509463,-136.61952
2011000000,-10.529298,-136.4122
2012000000,-10.542983,-136.58524
2013000000,-10.590576,-136.771
2014000000,-10.574808,-136.82565
2015000000,-10.594175,-137.06653
2016000000,-10.623812,-137.2767
2017000000,-10.594913,-137.40791
2018000000,-10.577154,-137.22401
2019000000,-10.632627,-137.66479
2020000000,-10.646819,-137.76372
2021000000,-10.667555,-137.92509
2022000000,-10.671381,-137.68626
2023000000,-10.677935,-138.34146
2024000000,-10.706032,-138.15115
2025000000,-10.719607,-138.50464
2026000000,-10.758342,-138.2708
2027000000,-10.737611,-138.48392
2028000000,-10.759112,-138.67677
2029000000,-10.782036,-138.46263
2030000000,-10.788208,-138.85329
2031000000,-10.797327,-138.85081
2032000000,-10.838841,-139.27985
2033000000,-10.802785,-139.28862
2034000000,-10.849631,-139.22446
2035000000,-10.841897,-139.49138
2036000000,-10.854888,-139.59702
2037000000,-10.920387,-139.7171
2038000000,-10.896492,-140.05164
2039000000,-10.922382,-139.96046
2040000000,-10.938008,-140.14851
2041000000,-10.960776,-140.13026
2042000000,-10.964169,-140.44147
2043000000,-10.994784,-140.34331
2044000000,-10.988356,-140.67375
2045000000,-11.020842,-140.56316
2046000000,-11.003416,-140.70377
2047000000,-11.008767,-140.81386
2048000000,-11.068687,-140.90056
2049000000,-11.091217,-141.31824
2050000000,-11.10469,-141.43059
2051000000,-11.148706,-141.37309
2052000000,-11.110932,-141.56551
2053000000,-11.097004,-141.48174
2054000000,-11.151836,-141.89621
2055000000,-11.143645,-141.92668
2056000000,-11.178534,-141.95378
2057000000,-11.217678,-141.98314
2058000000,-11.237099,-142.40987
2059000000,-11.240634,-142.72156
2060000000,-11.225195,-142.54759
2061000000,-11.236377,-142.56866
2062000000,-11.286158,-142.68961
2063000000,-11.321055,-142.76596
2064000000,-11.290736,-143.01907
2065000000,-11.322016,-143.06102
2066000000,-11.344733,-143.30252
2067000000,-11.395034,-143.32359
2068000000,-11.38212,-143.71675
2069000000,-11.412506,-143.68736
2070000000,-11.406689,-143.54898
2071000000,-11.47522,-143.80835
2072000000,-11.427221,-143.85716
2073000000,-11.483239,-144.06059
2074000000,-11.471558,-144.05005
2075000000,-11.510285,-144.3665
2076000000,-11.523415,-144.56371
2077000000,-11.559235,-144.42081
2078000000,-11.538788,-144.52457
2079000000,-11.579697,-144.89554
2080000000,-11.609404,-144.9613
2081000000,-11.603309,-145.19994
2082000000,-11.613518,-145.04947
2083000000,-11.656501,-145.44147
2084000000,-11.678803,-145.33737
2085000000,-11.676567,-145.6972
2086000000,-11.694518,-145.57091
2087000000,-11.73519,-146.1795
2088000000,-11.716265,-145.87523
2089000000,-11.761343,-145.79431
2090000000,-11.727925,-146.09311
2091000000,-11.785082,-146.22871
2092000000,-11.817443,-146.54315
2093000000,-11.85518,-146.52576
2094000000,-11.831509,-146.80301
2095000000,-11.860356,-146.76335
2096000000,-11.853487,-146.87418
2097000000,-11.874931,-147.08246
2098000000,-11.896168,-147.00769
2099000000,-11.93551,-147.22934
2100000000,-11.955913,-147.43495
2101000000,-11.964643,-147.55621
2102000000,-11.984923,-147.61946
2103000000,-12.00886,-147.76517
2104000000,-12.057077,-147.84283
2105000000,-12.076186,-147.94394
2106000000,-12.084463,-147.99597
2107000000,-12.093166,-148.30286
2108000000,-12.105068,-148.55531
2109000000,-12.114601,-148.44424
2110000000,-12.153984,-148.66171
2111000000,-12.193702,-148.95772
2112000000,-12.195586,-148.99309
2113000000,-12.226928,-149.21596
2114000000,-12.239964,-149.12801
2115000000,-12.261158,-149.46161
2116000000,-12.300198,-149.50581
2117000000,-12.280635,-149.28883
2118000000,-12.320375,-149.57263
2119000000,-12.33684,-149.65631
2120000000,-12.379517,-149.95729
2121000000,-12.407599,-150.04079
2122000000,-12.395031,-150.00735
2123000000,-12.454741,-150.14136
2124000000,-12.436205,-150.44588
2125000000,-12.491515,-150.57312
2126000000,-12.465255,-150.43509
2127000000,-12.514148,-150.74573
2128000000,-12.570535,-150.87143
2129000000,-12.57267,-151.06335
2130000000,-12.599562,-151.12032
2131000000,-12.632791,-151.3618
2132000000,-12.632506,-151.48235
2133000000,-12.66751,-151.39287
2134000000,-12.692684,-151.5524
2135000000,-12.721147,-151.59764
2136000000,-12.722025,-151.94662
2137000000,-12.739236,-151.95703
2138000000,-12.764804,-152.1275
2139000000,-12.783679,-152.25548
2140000000,-12.808821,-152.26167
2141000000,-12.866236,-152.22533
2142000000,-12.839436,-152.38902
2143000000,-12.914854,-152.62219
2144000000,-12.923193,-152.72783
2145000000,-12.939197,-152.79831
2146000000,-12.934775,-153.10124
2147000000,-13.018928,-153.21455
2148000000,-12.994145,-153.31313
2149000000,-13.04833,-153.3333
2150000000,-13.036691,-153.5116
2151000000,-13.078693,-153.71634
2152000000,-13.097009,-153.65335
2153000000,-13.106407,-153.92464
2154000000,-13.145764,-154.10876
2155000000,-13.198942,-154.23587
2156000000,-13.196663,-153.94302
2157000000,-13.218794,-154.18932
2158000000,-13.232608,-154.40454
2159000000,-13.25328,-154.64731
2160000000,-13.305754,-154.81273
2161000000,-13.32544,-154.83821
2162000000,-13.35852,-155.01805
2163000000,-13.368141,-155.15361
2164000000,-13.437215,-155.34987
2165000000,-13.443843,-155.37009
2166000000,-13.43392,-155.90639
2167000000,-13.46283,-155.71831
2168000000,-13.499431,-155.60435
2169000000,-13.546283,-155.53992
2170000000,-13.541823,-155.948
2171000000,-13.557511,-156.15913
2172000000,-13.572577,-156.00128
2173000000,-13.676875,-156.48135
2174000000,-13.653481,-156.29457
2175000000,-13.689381,-156.55083
2176000000,-13.735234,-156.69254
2177000000,-13.745902,-156.89029
2178000000,-13.749616,-156.89583
2179000000,-13.833578,-156.98053
2180000000,-13.85516,-157.08588
2181000000,-13.847221,-157.36325
2182000000,-13.893933,-157.39806
2183000000,-13.981789,-157.39137
2184000000,-13.943576,-157.62291
2185000000,-13.991635,-157.63719
2186000000,-14.01752,-157.73216
2187000000,-14.067366,-157.97211
2188000000,-14.111693,-158.11501
2189000000,-14.096115,-158.20682
2190000000,-14.131738,-158.17966
2191000000,-14.170122,-158.32652
2192000000,-14.179038,-158.34502
2193000000,-14.214424,-158.69539
2194000000,-14.244889,-158.80191
2195000000,-14.261224,-158.82758
2196000000,-14.257986,-159.10707
2197000000,-14.325039,-159.26123
2198000000,-14.333755,-159.25696
2199000000,-14.372556,-159.55116
2200000000,-14.424434,-159.57573
2201000000,-14.439045,-159.5927
2202000000,-14.466417,-159.72055
2203000000,-14.492785,-159.9463
2204000000,-14.505769,-160.08331
2205000000,-14.567724,-160.0184
2206000000,-14.620567,-160.24728
2207000000,-14.612017,-160.56754
2208000000,-14.642005,-160.53123
2209000000,-14.709629,-160.76707
2210000000,-14.721161,-160.84969
2211000000,-14.777837,-160.67989
2212000000,-14.821169,-160.85184
2213000000,-14.811938,-160.89644
2214000000,-14.84094,-161.04367
2215000000,-14.865297,-161.41379
2216000000,-14.947068,-161.47946
2217000000,-14.923633,-161.54977
2218000000,-14.982256,-161.52412
2219000000,-15.006416,-161.70889
2220000000,-15.047187,-161.98689
2221000000,-15.082866,-161.90448
2222000000,-15.101662,-161.80962
2223000000,-15.130383,-162.19035
2224000000,-15.181178,-162.29903
2225000000,-15.245895,-162.14688
2226000000,-15.232038,-162.46906
2227000000,-15.306656,-162.60362
2228000000,-15.3009,-162.76439
2229000000,-15.331556,-162.73398
2230000000,-15.391683,-162.90579
2231000000,-15.419306,-163.04678
2232000000,-15.456437,-163.12665
2233000000,-15.477512,-163.30373
2234000000,-15.499817,-163.13054
2235000000,-15.541434,-163.55159
2236000000,-15.562095,-163.48203
2237000000,-15.647293,-163.71764
2238000000,-15.628403,-163.84406
2239000000,-15.701379,-164.07417
2240000000,-15.725404,-163.88564
2241000000,-15.770075,-164.10272
2242000000,-15.798116,-164.12508
2243000000,-15.838806,-164.28946
2244000000,-15.898758,-164.6004
2245000000,-15.924667,-164.4066
2246000000,-15.968959,-164.56448
2247000000,-15.967434,-164.92665
2248000000,-15.974739,-164.78728
2249000000,-16.042303,-165.13918
2250000000,-16.09971,-165.23839
2251000000,-16.135597,-165.11478
2252000000,-16.17329,-165.49745
2253000000,-16.202497,-165.32643
2254000000,-16.241117,-165.62364
2255000000,-16.307594,-165.82974
2256000000,-16.345497,-165.80591
2257000000,-16.382616,-165.92291
2258000000,-16.421438,-166.06921
2259000000,-16.450403,-166.21667
2260000000,-16.48872,-166.21548
2261000000,-16.540817,-166.25392
2262000000,-16.599865,-166.57623
2263000000,-16.636251,-166.62149
2264000000,-16.629829,-166.63507
2265000000,-16.685877,-166.66565
2266000000,-16.736258,-166.90083
2267000000,-16.77655,-166.99582
2268000000,-16.813919,-167.19661
2269000000,-16.886093,-167.15228
2270000000,-16.908552,-167.44856
2271000000,-16.937605,-167.45607
2272000000,-16.996897,-167.57216
2273000000,-17.037928,-167.71135
2274000000,-17.048933,-167.70435
2275000000,-17.101944,-167.57643
2276000000,-17.177744,-167.90349
2277000000,-17.196405,-168.20613
2278000000,-17.278143,-168.24925
2279000000,-17.287857,-168.34244
2280000000,-17.349127,-168.50883
2281000000,-17.374338,-168.2939
2282000000,-17.435682,-168.64342
2283000000,-17.477747,-168.57091
2284000000,-17.534781,-168.76303
2285000000,-17.569921,-169.15034
2286000000,-17.587231,-169.2368
2287000000,-17.688337,-169.22862
2288000000,-17.694324,-169.2171
2289000000,-17.774057,-169.39391
2290000000,-17.818184,-169.49303
2291000000,-17.837866,-169.69109
2292000000,-17.907209,-169.63254
2293000000,-17.982828,-170.04851
2294000000,-17.99284,-169.89609
2295000000,-18.052958,-169.88722
2296000000,-18.106649,-170.04114
2297000000,-18.134052,-170.21245
2298000000,-18.2183,-170.10918
2299000000,-18.242113,-170.29565
2300000000,-18.291529,-170.40318
2301000000,-18.372181,-170.35579
2302000000,-18.3981,-170.62886
2303000000,-18.454889,-170.52391
2304000000,-18.542706,-170.62212
2305000000,-18.560909,-170.57486
2306000000,-18.634815,-170.9581
2307000000,-18.682388,-171.06758
2308000000,-18.715254,-170.93747
2309000000,-18.765989,-170.98915
2310000000,-18.818062,-171.18388
2311000000,-18.85644,-171.27611
2312000000,-18.936483,-171.47565
2313000000,-18.978991,-171.69
2314000000,-19.027416,-171.65189
2315000000,-19.111742,-171.60526
2316000000,-19.127707,-171.97597
2317000000,-19.209866,-171.67003
2318000000,-19.259567,-171.97731
2319000000,-19.285614,-172.29048
2320000000,-19.380424,-172.19174
2321000000,-19.429665,-172.09874
2322000000,-19.444756,-172.41299
2323000000,-19.508194,-172.52025
2324000000,-19.591572,-172.41702
2325000000,-19.643961,-172.71574
2326000000,-19.722364,-172.68979
2327000000,-19.751499,-172.73439
2328000000,-19.85219,-172.96883
2329000000,-19.908752,-172.9962
2330000000,-19.969616,-173.15817
2331000000,-20.009367,-173.17363
2332000000,-20.123009,-173.2065
2333000000,-20.182507,-173.40953
2334000000,-20.189981,-173.31635
2335000000,-20.256878,-173.65379
2336000000,-20.309448,-173.37585
2337000000,-20.420195,-173.49077
2338000000,-20.464182,-173.44493
2339000000,-20.532455,-173.68748
2340000000,-20.565533,-173.74284
2341000000,-20.675756,-173.58153
2342000000,-20.711531,-173.89397
2343000000,-20.826773,-174.29797
2344000000,-20.851231,-174.12648
2345000000,-20.916428,-173.91144
2346000000,-21.015083,-174.27402
2347000000,-21.079557,-174.1107
2348000000,-21.154673,-174.31969
2349000000,-21.232536,-174.39627
2350000000,-21.293093,-174.40152
2351000000,-21.378315,-174.55565
2352000000,-21.465466,-174.67859
2353000000,-21.52894,-174.73769
2354000000,-21.605591,-174.8405
2355000000,-21.670792,-174.66049
2356000000,-21.770754,-175.11151
2357000000,-21.845169,-174.94803
2358000000,-21.93516,-175.14096
2359000000,-22.026848,-175.07304
2360000000,-22.06926,-175.25243
2361000000,-22.156374,-174.78343
2362000000,-22.248281,-174.95007
2363000000,-22.307968,-174.94205
2364000000,-22.408852,-175.14525
2365000000,-22.529087,-175.05522
2366000000,-22.578329,-175.10994
2367000000,-22.680664,-175.28381
2368000000,-22.729204,-175.08673
2369000000,-22.826857,-175.18924
2370000000,-22.930185,-175.09113
2371000000,-22.967232,-175.05908
2372000000,-23.095558,-175.58171
2373000000,-23.177078,-175.25806
2374000000,-23.285999,-175.43675
2375000000,-23.330414,-175.26097
2376000000,-23.461185,-175.42194
2377000000,-23.51759,-175.59921
2378000000,-23.653481,-175.66338
2379000000,-23.73159,-175.61104
2380000000,-23.825171,-175.37256
2381000000,-23.925774,-175.29515
2382000000,-23.995708,-175.57396
2383000000,-24.127508,-175.56976
2384000000,-24.23596,-175.4057
2385000000,-24.351723,-175.3728
2386000000,-24.394115,-175.21053
2387000000,-24.504492,-175.42918
2388000000,-24.628353,-175.36314
2389000000,-24.749157,-175.12013
2390000000,-24.884985,-175.38058
2391000000,-24.976862,-175.51375
2392000000,-25.055176,-175.26085
2393000000,-25.197737,-175.01189
2394000000,-25.298225,-175.00017
2395000000,-25.375555,-174.95261
2396000000,-25.482441,-175.02173
2397000000,-25.608238,-174.89087
2398000000,-25.773758,-174.78529
2399000000,-25.872303,-174.75977
2400000000,-26.002428,-174.77776
2401000000,-26.096384,-174.48495
2402000000,-26.226761,-174.17339
2403000000,-26.377874,-174.39462
2404000000,-26.473246,-173.862
2405000000,-26.631714,-174.02783
2406000000,-26.800812,-173.83577
2407000000,-26.878977,-174.04556
2408000000,-26.975861,-173.7466
2409000000,-27.13518,-173.34448
2410000000,-27.27701,-173.37465
2411000000,-27.391062,-173.29601
2412000000,-27.598913,-173.21056
2413000000,-27.670784,-172.77657
2414000000,-27.82937,-172.85393
2415000000,-28.008331,-172.56903
2416000000,-28.14806,-172.40381
2417000000,-28.307362,-171.86172
2418000000,-28.408857,-171.92436
2419000000,-28.586987,-171.43433
2420000000,-28.793543,-170.86807
2421000000,-28.97822,-170.87399
2422000000,-29.079948,-170.91121
2423000000,-29.241505,-170.43204
2424000000,-29.432142,-170.09779
2425000000,-29.624708,-169.74203
2426000000,-29.801327,-169.04091
2427000000,-29.954271,-169.08934
2428000000,-30.043633,-168.49405
2429000000,-30.292437,-167.9491
2430000000,-30.524073,-167.61829
2431000000,-30.661335,-167.08163
2432000000,-30.841108,-166.33235
2433000000,-31.06078,-166.31693
2434000000,-31.264069,-165.70148
2435000000,-31.451712,-164.95679
2436000000,-31.63299,-164.28659
2437000000,-31.858465,-163.51915
2438000000,-32.050644,-162.582
2439000000,-32.279251,-162.04881
2440000000,-32.527699,-161.41141
2441000000,-32.706028,-160.44946
2442000000,-32.944298,-159.71063
2443000000,-33.166061,-158.40944
2444000000,-33.390903,-158.08426
2445000000,-33.64135,-156.79324
2446000000,-33.941509,-155.4613
2447000000,-34.11232,-154.58377
2448000000,-34.400764,-153.33916
2449000000,-34.585262,-152.03253
2450000000,-34.813301,-150.55637
2451000000,-35.036423,-149.26715
2452000000,-35.315376,-147.71237
2453000000,-35.514683,-145.13879
2454000000,-35.755119,-143.84163
2455000000,-36.085434,-141.72473
2456000000,-36.24258,-140.07957
2457000000,-36.476707,-137.79553
2458000000,-36.671314,-135.25932
2459000000,-36.90929,-133.45813
2460000000,-36.999069,-130.81198
2461000000,-37.224522,-128.40804
2462000000,-37.461201,-125.6867
2463000000,-37.531963,-122.54095
2464000000,-37.68449,-119.75419
2465000000,-37.807205,-116.87801
2466000000,-37.72501,-113.70798
2467000000,-37.879219,-111.61697
2468000000,-38.049107,-107.24294
2469000000,-37.787781,-104.6967
2470000000,-37.920368,-101.68032
2471000000,-37.818905,-98.852272
2472000000,-37.748856,-95.798271
2473000000,-37.553825,-92.140549
2474000000,-37.525181,-90.351044
2475000000,-37.365475,-87.141853
2476000000,-37.18824,-84.427017
2477000000,-37.00103,-82.071579
2478000000,-36.719421,-78.938736
2479000000,-36.534622,-76.836327
2480000000,-36.327236,-74.366043
2481000000,-36.063034,-72.808945
2482000000,-35.852303,-71.14447
2483000000,-35.584747,-69.105057
2484000000,-35.385044,-66.928383
2485000000,-35.109135,-65.427788
2486000000,-34.866989,-64.576187
2487000000,-34.593864,-62.597858
2488000000,-34.307621,-61.861202
2489000000,-34.102585,-60.42598
2490000000,-33.847626,-59.206005
2491000000,-33.626724,-58.504513
2492000000,-33.416531,-57.312222
2493000000,-33.11768,-56.304081
2494000000,-32.958088,-55.200096
2495000000,-32.700043,-54.647354
2496000000,-32.528362,-54.089741
2497000000,-32.293579,-53.073898
2498000000,-32.075848,-52.298668
2499000000,-31.88965,-51.467377
2500000000,-31.665636,-51.210457
2501000000,-31.475681,-50.425602
2502000000,-31.221199,-49.755825
2503000000,-31.087933,-49.009106
2504000000,-30.872068,-48.346748
2505000000,-30.707243,-47.999142
2506000000,-30.485167,-47.325844
2507000000,-30.336445,-46.984146
2508000000,-30.167236,-46.515144
2509000000,-29.891197,-46.36681
2510000000,-29.80184,-45.792561
2511000000,-29.660973,-45.379292
2512000000,-29.42355,-45.165287
2513000000,-29.268175,-44.829659
2514000000,-29.102398,-44.705395
2515000000,-28.982946,-44.284966
2516000000,-28.76268,-44.043346
2517000000,-28.627333,-43.946404
2518000000,-28.461681,-43.67712
2519000000,-28.326851,-43.395191
2520000000,-28.159058,-43.229042
2521000000,-28.060741,-42.865246
2522000000,-27.895544,-42.52544
2523000000,-27.742954,-42.491024
2524000000,-27.657755,-42.279552
2525000000,-27.425098,-41.952419
2526000000,-27.323109,-41.943867
2527000000,-27.222481,-41.593082
2528000000,-27.052246,-41.757595
2529000000,-26.909298,-41.612816
2530000000,-26.79817,-41.377289
2531000000,-26.703707,-41.600536
2532000000,-26.585503,-41.524616
2533000000,-26.420471,-41.083672
2534000000,-26.317892,-40.835281
2535000000,-26.16411,-41.100384
2536000000,-26.042641,-40.878555
2537000000,-25.969738,-40.836674
2538000000,-25.81502,-40.843922
2539000000,-25.767317,-40.696293
2540000000,-25.644785,-40.627838
2541000000,-25.530966,-40.473915
2542000000,-25.391644,-40.34367
2543000000,-25.269424,-40.512325
2544000000,-25.139914,-40.261894
2545000000,-25.093967,-40.520222
2546000000,-24.92864,-40.234295
2547000000,-24.849632,-40.262859
2548000000,-24.762125,-40.076817
2549000000,-24.606859,-40.145214
2550000000,-24.564068,-39.930099
2551000000,-24.452187,-39.978458
2552000000,-24.352524,-40.231033
2553000000,-24.245815,-39.797375
2554000000,-24.112738,-39.820507
2555000000,-24.056343,-40.155922
2556000000,-23.939844,-40.040821
2557000000,-23.895374,-39.896076
2558000000,-23.813433,-39.856995
2559000000,-23.685921,-39.971554
2560000000,-23.606293,-40.010391
2561000000,-23.523996,-39.893311
2562000000,-23.411366,-39.99765
2563000000,-23.326019,-40.311485
2564000000,-23.270952,-39.924572
2565000000,-23.174776,-40.263966
2566000000,-23.094854,-39.951038
2567000000,-22.994213,-40.358624
2568000000,-22.891106,-39.997776
2569000000,-22.798214,-40.35965
2570000000,-22.746113,-40.41412
2571000000,-22.65204,-40.349102
2572000000,-22.57687,-40.481678
2573000000,-22.496382,-40.491562
2574000000,-22.422216,-40.583305
2575000000,-22.37097,-40.476429
2576000000,-22.252159,-40.610672
2577000000,-22.192432,-40.578247
2578000000,-22.109793,-40.553078
2579000000,-22.016436,-40.760036
2580000000,-21.969336,-41.018379
2581000000,-21.895042,-40.858879
2582000000,-21.824455,-41.011528
2583000000,-21.726736,-40.686005
2584000000,-21.654175,-41.108128
2585000000,-21.619658,-41.022682
2586000000,-21.50922,-40.867756
2587000000,-21.457277,-41.131233
2588000000,-21.386518,-41.364971
2589000000,-21.33535,-41.309185
2590000000,-21.270744,-41.516838
2591000000,-21.217039,-41.54668
2592000000,-21.142912,-41.628349
2593000000,-21.048571,-41.547386
2594000000,-21.018255,-41.613064
2595000000,-20.950012,-41.797935
2596000000,-20.859907,-41.676022
2597000000,-20.802507,-41.871582
2598000000,-20.732033,-42.02026
2599000000,-20.68038,-42.287159
2600000000,-20.623337,-41.998856
2601000000,-20.554113,-42.023029
2602000000,-20.503607,-42.372013
2603000000,-20.425552,-42.186607
2604000000,-20.3811,-42.475746
2605000000,-20.352198,-42.257122
2606000000,-20.254707,-42.384323
2607000000,-20.220198,-42.360992
2608000000,-20.125025,-42.472595
2609000000,-20.112377,-42.86058
2610000000,-19.980036,-42.851463
2611000000,-19.945044,-42.970825
2612000000,-19.900068,-42.977711
2613000000,-19.860033,-43.116573
2614000000,-19.798275,-43.131847
2615000000,-19.752781,-43.134201
2616000000,-19.70755,-43.268444
2617000000,-19.646002,-43.235867
2618000000,-19.608843,-43.589561
2619000000,-19.573149,-43.607555
2620000000,-19.450674,-43.794224
2621000000,-19.401283,-43.786232
2622000000,-19.371643,-43.900173
2623000000,-19.307577,-43.931721
2624000000,-19.243177,-43.957455
2625000000,-19.228914,-44.257442
2626000000,-19.170776,-44.152122
2627000000,-19.100422,-44.216301
2628000000,-19.031908,-44.351826
2629000000,-19.002161,-44.279041
2630000000,-18.987181,-44.451771
2631000000,-18.902489,-44.729862
2632000000,-18.865309,-44.607971
2633000000,-18.853004,-44.852139
2634000000,-18.762772,-44.957516
2635000000,-18.71678,-45.049328
2636000000,-18.653927,-45.228798
2637000000,-18.629011,-45.10376
2638000000,-18.552862,-45.423416
2639000000,-18.549631,-45.282425
2640000000,-18.489265,-45.444298
2641000000,-18.455849,-45.449181
2642000000,-18.373863,-45.705494
2643000000,-18.349623,-45.693401
2644000000,-18.305468,-45.565895
2645000000,-18.270699,-45.815735
2646000000,-18.209555,-46.136646
2647000000,-18.167898,-45.984238
2648000000,-18.106955,-46.052258
2649000000,-18.066608,-46.153145
2650000000,-18.020573,-46.135971
2651000000,-17.981918,-46.4828
2652000000,-17.955406,-46.437366
2653000000,-17.904951,-46.828434
2654000000,-17.867605,-46.648243
2655000000,-17.774639,-46.600872
2656000000,-17.750784,-47.019779
2657000000,-17.72888,-47.040695
2658000000,-17.704189,-47.177834
2659000000,-17.649393,-47.075588
2660000000,-17.608982,-47.368515
2661000000,-17.580183,-47.457844
2662000000,-17.543236,-47.455124
2663000000,-17.495127,-47.633236
2664000000,-17.461414,-47.543682
2665000000,-17.408152,-47.780006
2666000000,-17.360664,-47.861099
2667000000,-17.31138,-48.251644
2668000000,-17.291101,-48.117111
2669000000,-17.265886,-48.144062
2670000000,-17.218937,-48.380157
2671000000,-17.165682,-48.541336
2672000000,-17.10218,-48.58099
2673000000,-17.098742,-48.704025
2674000000,-17.088743,-48.760006
2675000000,-16.988451,-48.579407
2676000000,-16.981796,-48.841496
2677000000,-16.925055,-49.092693
2678000000,-16.920589,-48.923405
2679000000,-16.873878,-49.138786
2680000000,-16.841455,-49.149242
2681000000,-16.795887,-49.450394
2682000000,-16.79706,-49.218437
2683000000,-16.758677,-49.491379
2684000000,-16.673992,-49.697845
2685000000,-16.641218,-49.742424
2686000000,-16.649443,-49.736393
2687000000,-16.550877,-49.967331
2688000000,-16.577063,-50.049629
2689000000,-16.546978,-50.143833
2690000000,-16.47711,-50.21698
2691000000,-16.436516,-50.477299
2692000000,-16.401655,-50.539276
2693000000,-16.393179,-50.460289
2694000000,-16.319145,-50.707104
2695000000,-16.315113,-50.735718
2696000000,-16.263716,-51.099384
2697000000,-16.25173,-51.07983
2698000000,-16.223312,-50.93816
2699000000,-16.199671,-51.047024
2700000000,-16.146002,-51.389393
2701000000,-16.082386,-51.378269
2702000000,-16.038654,-51.682819
2703000000,-16.02228,-51.708069
2704000000,-16.025209,-51.794685
2705000000,-15.974796,-51.728756
2706000000,-15.908092,-51.944359
2707000000,-15.900451,-51.928932
2708000000,-15.870838,-52.095631
2709000000,-15.799111,-52.400501
2710000000,-15.829138,-52.234303
2711000000,-15.798575,-52.408203
2712000000,-15.761489,-52.552715
2713000000,-15.746119,-52.779156
2714000000,-15.693308,-52.921608
2715000000,-15.660011,-52.812275
2716000000,-15.636928,-53.000267
2717000000,-15.610659,-53.092041
2718000000,-15.580024,-53.240475
2719000000,-15.538866,-53.486328
2720000000,-15.52167,-53.487339
2721000000,-15.484966,-53.427898
2722000000,-15.417008,-53.69392
2723000000,-15.40786,-53.516819
2724000000,-15.395828,-53.668083
2725000000,-15.393017,-53.669701
2726000000,-15.34697,-53.985039
2727000000,-15.300089,-54.047291
2728000000,-15.246399,-54.119621
2729000000,-15.226969,-54.18021
2730000000,-15.208471,-54.358082
2731000000,-15.182057,-54.429337
2732000000,-15.144811,-54.574184
2733000000,-15.139756,-54.77285
2734000000,-15.084112,-54.801456
2735000000,-15.055608,-55.114979
2736000000,-15.061667,-54.861565
2737000000,-15.004959,-55.152985
2738000000,-14.999046,-55.069695
2739000000,-14.922783,-55.274277
2740000000,-14.916187,-55.415813
2741000000,-14.883184,-55.485966
2742000000,-14.875415,-55.706764
2743000000,-14.844806,-55.778313
2744000000,-14.822345,-55.877628
2745000000,-14.786102,-56.010403
2746000000,-14.79043,-56.265541
2747000000,-14.766532,-56.033459
2748000000,-14.712639,-56.219921
2749000000,-14.686105,-56.349064
2750000000,-14.64837,-56.589787
2751000000,-14.651571,-56.782013
2752000000,-14.59675,-56.796638
2753000000,-14.579962,-56.710247
2754000000,-14.541915,-57.150974
2755000000,-14.503449,-56.943882
2756000000,-14.501194,-56.758915
2757000000,-14.463465,-57.354187
2758000000,-14.444606,-57.192516
2759000000,-14.430345,-57.462521
2760000000,-14.417441,-57.529995
2761000000,-14.384727,-57.817677
2762000000,-14.374543,-57.867458
2763000000,-14.343517,-57.858952
2764000000,-14.329169,-57.886135
2765000000,-14.273605,-58.123203
2766000000,-14.242588,-58.184387
2767000000,-14.19801,-58.229042
2768000000,-14.200347,-58.323231
2769000000,-14.158627,-58.38958
2770000000,-14.190744,-58.430931
2771000000,-14.159123,-58.803722
2772000000,-14.122457,-58.645817
2773000000,-14.093628,-58.832005
2774000000,-14.064238,-59.299534
2775000000,-14.021075,-59.247494
2776000000,-14.025321,-59.265854
2777000000,-13.98308,-59.541729
2778000000,-13.993446,-59.48439
2779000000,-13.925913,-59.563889
2780000000,-13.913382,-59.710865
2781000000,-13.926797,-59.887695
2782000000,-13.876745,-59.823128
2783000000,-13.855562,-59.792229
2784000000,-13.826895,-60.003239
2785000000,-13.796608,-60.15382
2786000000,-13.766529,-60.330093
2787000000,-13.778721,-60.412819
2788000000,-13.740649,-60.629185
2789000000,-13.715312,-60.444164
2790000000,-13.694106,-60.732964
2791000000,-13.678852,-61.021111
2792000000,-13.642132,-60.983326
2793000000,-13.64463,-61.009457
2794000000,-13.62839,-61.24876
2795000000,-13.570215,-61.12923
2796000000,-13.554729,-61.480179
2797000000,-13.512731,-61.46059
2798000000,-13.560669,-61.792557
2799000000,-13.478329,-61.7584
2800000000,-13.489305,-61.919109
2801000000,-13.486448,-61.599224
2802000000,-13.458168,-62.020966
2803000000,-13.418137,-61.979195
2804000000,-13.399805,-62.172165
2805000000,-13.400104,-62.214458
2806000000,-13.385363,-62.504147
2807000000,-13.341799,-62.641483
2808000000,-13.298178,-62.587612
2809000000,-13.275588,-62.595264
2810000000,-13.243545,-62.923557
2811000000,-13.246051,-63.039627
2812000000,-13.218966,-63.191216
2813000000,-13.221046,-63.056438
2814000000,-13.177208,-63.188587
2815000000,-13.160933,-63.687275
2816000000,-13.147876,-63.407146
2817000000,-13.096612,-63.543224
2818000000,-13.103322,-63.573078
2819000000,-13.075272,-63.796837
2820000000,-13.057962,-63.744511
2821000000,-13.049301,-64.011795
2822000000,-13.006813,-64.170776
2823000000,-13.001406,-64.064026
2824000000,-12.97352,-64.117149
2825000000,-12.959715,-64.554077
2826000000,-12.952547,-64.620667
2827000000,-12.956819,-64.726669
2828000000,-12.894799,-64.832954
2829000000,-12.877588,-64.798897
2830000000,-12.862126,-65.0653
2831000000,-12.827067,-65.146111
2832000000,-12.814363,-65.308136
2833000000,-12.836752,-65.319061
2834000000,-12.788785,-65.42823
2835000000,-12.778457,-65.52195
2836000000,-12.748824,-65.797226
2837000000,-12.722827,-65.66983
2838000000,-12.721358,-65.857216
2839000000,-12.709846,-66.047333
2840000000,-12.687691,-65.983505
2841000000,-12.690029,-66.108406
2842000000,-12.612017,-66.243904
2843000000,-12.61899,-66.53669
2844000000,-12.640305,-66.509674
2845000000,-12.593972,-66.62928
2846000000,-12.60079,-66.60994
2847000000,-12.554635,-66.96389
2848000000,-12.526034,-66.688614
2849000000,-12.539315,-66.98732
2850000000,-12.5059,-67.095329
2851000000,-12.499999,-67.318718
2852000000,-12.479513,-67.34024
2853000000,-12.452971,-67.475975
2854000000,-12.454145,-67.769348
2855000000,-12.445655,-67.643509
2856000000,-12.413025,-67.611015
2857000000,-12.38668,-67.769402
2858000000,-12.412086,-68.234627
2859000000,-12.349024,-68.0373
2860000000,-12.323517,-68.242493
2861000000,-12.301658,-68.272629
2862000000,-12.29073,-68.392754
2863000000,-12.276218,-68.417442
2864000000,-12.273891,-68.719147
2865000000,-12.23593,-68.653961
2866000000,-12.257563,-68.998611
2867000000,-12.250281,-68.931389
2868000000,-12.187452,-69.248093
2869000000,-12.202168,-69.013222
2870000000,-12.145006,-69.319389
2871000000,-12.153335,-69.361252
2872000000,-12.169612,-69.515953
2873000000,-12.123093,-69.488945
2874000000,-12.103786,-69.5467
2875000000,-12.111997,-69.60038
2876000000,-12.086596,-69.580093
2877000000,-12.08555,-70.021461
2878000000,-12.05554,-70.057053
2879000000,-12.055336,-70.293938
2880000000,-12.052019,-70.373154
2881000000,-12.021294,-70.518059
2882000000,-11.964313,-70.430786
2883000000,-11.995531,-70.72374
2884000000,-11.9774,-70.818985
2885000000,-11.987128,-70.91069
2886000000,-11.963356,-71.15509
2887000000,-11.927655,-71.074684
2888000000,-11.913591,-71.107735
2889000000,-11.874441,-71.309891
2890000000,-11.871745,-71.339172
2891000000,-11.853776,-71.288544
2892000000,-11.809385,-71.622993
2893000000,-11.835091,-71.73597
2894000000,-11.839948,-71.776039
2895000000,-11.805161,-72.064896
2896000000,-11.782948,-71.799965
2897000000,-11.748158,-72.200081
2898000000,-11.758628,-72.077553
2899000000,-11.72289,-72.11927
2900000000,-11.728786,-72.459465
2901000000,-11.715481,-72.462219
2902000000,-11.671474,-72.309952
2903000000,-11.693871,-72.885742
2904000000,-11.637178,-72.825043
2905000000,-11.663322,-72.806465
2906000000,-11.644864,-73.081161
2907000000,-11.636563,-73.279099
2908000000,-11.603287,-73.409714
2909000000,-11.624663,-73.236412
2910000000,-11.569999,-73.466713
2911000000,-11.577402,-73.520981
2912000000,-11.579366,-73.586128
2913000000,-11.545388,-73.657219
2914000000,-11.486912,-73.806038
2915000000,-11.51507,-74.111252
2916000000,-11.522635,-74.117188
2917000000,-11.469272,-73.901161
2918000000,-11.494785,-74.13121
2919000000,-11.478379,-74.32753
2920000000,-11.40276,-74.402382
2921000000,-11.367661,-74.561798
2922000000,-11.390714,-74.602844
2923000000,-11.399856,-74.928894
2924000000,-11.356549,-75.021408
2925000000,-11.428271,-74.902878
2926000000,-11.364975,-75.0476
2927000000,-11.369301,-75.112328
2928000000,-11.343185,-75.22168
2929000000,-11.344419,-75.318054
2930000000,-11.341143,-75.549446
2931000000,-11.311785,-75.620209
2932000000,-11.266484,-75.488098
2933000000,-11.311382,-75.63913
2934000000,-11.222363,-76.04232
2935000000,-11.257829,-76.25312
2936000000,-11.223825,-76.032074
2937000000,-11.218622,-76.151489
2938000000,-11.207219,-76.189651
2939000000,-11.20682,-76.469429
2940000000,-11.181713,-76.649918
2941000000,-11.191107,-76.363052
2942000000,-11.176378,-76.867867
2943000000,-11.146285,-76.985565
2944000000,-11.106495,-76.782982
2945000000,-11.126037,-77.047386
2946000000,-11.119457,-77.092659
2947000000,-11.097631,-77.437637
2948000000,-11.12345,-77.577538
2949000000,-11.108207,-77.556931
2950000000,-11.046598,-77.63311
2951000000,-11.067629,-77.569992
2952000000,-11.055585,-77.738449
2953000000,-11.001766,-77.756203
2954000000,-11.057854,-77.6269
2955000000,-11.023487,-78.053429
2956000000,-10.9808,-78.049065
2957000000,-10.971312,-78.592644
2958000000,-10.97492,-78.403412
2959000000,-10.940447,-78.55249
2960000000,-10.934189,-78.566887
2961000000,-10.912154,-78.655022
2962000000,-10.917707,-78.897209
2963000000,-10.928185,-78.779953
2964000000,-10.906809,-78.977348
2965000000,-10.899545,-79.010979
2966000000,-10.872051,-79.195496
2967000000,-10.887613,-79.136887
2968000000,-10.868553,-79.441818
2969000000,-10.832086,-79.401009
2970000000,-10.860978,-79.635735
2971000000,-10.837547,-79.524345
2972000000,-10.78552,-79.751762
2973000000,-10.76778,-79.895668
2974000000,-10.791333,-80.181465
2975000000,-10.775573,-80.065239
2976000000,-10.760522,-80.084015
2977000000,-10.756566,-80.348183
2978000000,-10.731771,-80.441963
2979000000,-10.736166,-80.534782
2980000000,-10.70825,-80.412994
2981000000,-10.667682,-80.522636
2982000000,-10.648139,-80.674286
2983000000,-10.676576,-80.993774
2984000000,-10.674767,-80.934723
2985000000,-10.664994,-81.126953
2986000000,-10.624162,-81.193413
2987000000,-10.659928,-81.271309
2988000000,-10.615805,-81.411819
2989000000,-10.589407,-81.67926
2990000000,-10.600145,-81.662025
2991000000,-10.584345,-81.649971
2992000000,-10.57199,-81.726212
2993000000,-10.613506,-81.944031
2994000000,-10.560244,-81.656921
2995000000,-10.55567,-81.943634
2996000000,-10.552468,-82.283821
2997000000,-10.530887,-82.302139
2998000000,-10.487953,-82.625305
2999000000,-10.515867,-82.487968
3000000000,-10.513628,-82.473763
3001000000,-10.49227,-82.522278
3002000000,-10.498646,-82.636475
3003000000,-10.470187,-82.799995
3004000000,-10.478771,-82.943054
3005000000,-10.460177,-83.000938
3006000000,-10.450809,-83.12133
3007000000,-10.422605,-83.13446
3008000000,-10.415988,-83.469315
3009000000,-10.426122,-83.397797
3010000000,-10.408554,-83.678055
3011000000,-10.386753,-83.636414
3012000000,-10.33916,-83.621712
3013000000,-10.397143,-83.868217
3014000000,-10.37821,-84.068657
3015000000,-10.347465,-83.644997
3016000000,-10.332449,-84.126282
3017000000,-10.322697,-84.265358
3018000000,-10.352627,-84.434433
3019000000,-10.338914,-84.55645
3020000000,-10.296309,-84.659271
3021000000,-10.292129,-84.611893
3022000000,-10.288649,-85.042152
3023000000,-10.279766,-84.72937
3024000000,-10.294757,-85.019363
3025000000,-10.270191,-85.24427
3026000000,-10.252065,-85.169769
3027000000,-10.257213,-85.026123
3028000000,-10.254155,-85.416557
3029000000,-10.20723,-85.385941
3030000000,-10.216908,-85.503708
3031000000,-10.178726,-85.706612
3032000000,-10.238085,-85.786903
3033000000,-10.203166,-85.719482
3034000000,-10.186484,-86.016602
3035000000,-10.147401,-85.987129
3036000000,-10.154438,-85.942802
3037000000,-10.129995,-86.191635
3038000000,-10.159212,-86.219833
3039000000,-10.151332,-86.426804
3040000000,-10.12156,-86.684052
3041000000,-10.115997,-86.632538
3042000000,-10.08095,-86.637314
3043000000,-10.116545,-86.9002
3044000000,-10.091614,-87.004791
3045000000,-10.075143,-87.022392
3046000000,-10.083088,-87.103981
3047000000,-10.097172,-87.283821
3048000000,-10.031859,-87.538223
3049000000,-10.004331,-87.530312
3050000000,-10.039515,-87.547951
3051000000,-10.02158,-87.597061
3052000000,-10.032454,-87.868637
3053000000,-10.022328,-87.776619
3054000000,-9.9694881,-87.99424
3055000000,-9.9912891,-88.129585
3056000000,-9.9954739,-88.251907
3057000000,-9.9962492,-88.015053
3058000000,-10.008851,-88.339149
3059000000,-9.9553928,-88.267792
3060000000,-9.9652233,-88.331543
3061000000,-9.9429255,-88.594429
3062000000,-9.9592667,-88.463623
3063000000,-9.9302282,-88.716759
3064000000,-9.9119644,-88.788727
3065000000,-9.8792858,-89.108925
3066000000,-9.8942556,-89.14991
3067000000,-9.8782234,-88.931389
3068000000,-9.8776293,-89.36898
3069000000,-9.883173,-89.445419
3070000000,-9.8587627,-89.475647
3071000000,-9.8860559,-89.472809
3072000000,-9.8739796,-89.670822
3073000000,-9.8483543,-89.883659
3074000000,-9.8278465,-89.77224
3075000000,-9.8712978,-90.010696
3076000000,-9.8036947,-89.881386
3077000000,-9.7769394,-90.200783
3078000000,-9.7853203,-90.217773
3079000000,-9.8058949,-90.396103
3080000000,-9.8085909,-90.461525
3081000000,-9.8154144,-90.604233
3082000000,-9.7746534,-90.621132
3083000000,-9.7766705,-90.8144
3084000000,-9.7366285,-90.943985
3085000000,-9.7733374,-90.652229
3086000000,-9.7376156,-91.077324
3087000000,-9.7616529,-91.012215
3088000000,-9.7567539,-91.171631
3089000000,-9.7236776,-91.366089
3090000000,-9.7013903,-91.438438
3091000000,-9.7218637,-91.50676
3092000000,-9.6854954,-91.699608
3093000000,-9.718833,-91.82119
3094000000,-9.680789,-91.867599
3095000000,-9.7095413,-91.845375
3096000000,-9.6927795,-92.06517
3097000000,-9.6896505,-92.319664
3098000000,-9.6861057,-91.989578
3099000000,-9.6376753,-92.280518
3100000000,-9.6650982,-92.267357
3101000000,-9.6529503,-92.727753
3102000000,-9.6577387,-92.558632
3103000000,-9.6534986,-92.465179
3104000000,-9.6349821,-92.800484
3105000000,-9.6340685,-92.811234
3106000000,-9.6072989,-93.116318
3107000000,-9.5953064,-93.118492
3108000000,-9.5795059,-93.241714
3109000000,-9.5703487,-93.137726
3110000000,-9.5756321,-93.626038
3111000000,-9.5746517,-93.189285
3112000000,-9.5391712,-93.527153
3113000000,-9.5733385,-93.294212
3114000000,-9.5292797,-93.810173
3115000000,-9.5637159,-93.67926
3116000000,-9.5337811,-93.917496
3117000000,-9.5327015,-93.970192
3118000000,-9.5244761,-94.138824
3119000000,-9.4845266,-94.043373
3120000000,-9.5025883,-94.403946
3121000000,-9.4933958,-94.276352
3122000000,-9.4994249,-94.580696
3123000000,-9.4515295,-94.733322
3124000000,-9.4360933,-94.64061
3125000000,-9.468051,-94.879333
3126000000,-9.4884424,-94.761284
3127000000,-9.4415894,-94.928925
3128000000,-9.4431219,-94.931984
3129000000,-9.4629879,-95.234787
3130000000,-9.4176006,-95.478622
3131000000,-9.4170132,-95.517982
3132000000,-9.4186544,-95.383858
3133000000,-9.4286661,-95.471855
3134000000,-9.414463,-95.649216
3135000000,-9.4356194,-95.773178
3136000000,-9.4237461,-95.825851
3137000000,-9.3839197,-95.860191
3138000000,-9.3855972,-95.826363
3139000000,-9.3702345,-96.130501
3140000000,-9.3842602,-96.115639
3141000000,-9.3865662,-96.185585
3142000000,-9.3447666,-96.423607
3143000000,-9.3844862,-96.463089
3144000000,-9.3391228,-96.549637
3145000000,-9.3857136,-96.67244
3146000000,-9.3339672,-96.751579
3147000000,-9.313488,-96.788811
3148000000,-9.3357592,-96.647385
3149000000,-9.3333712,-96.789742
3150000000,-9.3067417,-97.262146
3151000000,-9.306015,-97.306824
3152000000,-9.3312178,-96.997444
3153000000,-9.2950983,-97.514069
3154000000,-9.2770462,-97.20488
3155000000,-9.2889433,-97.642578
3156000000,-9.2655687,-97.551826
3157000000,-9.2662096,-98.043266
3158000000,-9.2653027,-97.716667
3159000000,-9.2585249,-97.856514
3160000000,-9.260622,-98.056808
3161000000,-9.2365351,-98.083054
3162000000,-9.2488108,-98.044624
3163000000,-9.2026567,-98.481377
3164000000,-9.2131653,-98.487053
3165000000,-9.2224846,-98.312065
3166000000,-9.2193785,-98.573898
3167000000,-9.2218885,-98.708473
3168000000,-9.2057495,-98.774635
3169000000,-9.197916,-98.895538
3170000000,-9.1880875,-98.908691
3171000000,-9.1696949,-98.993477
3172000000,-9.1750994,-99.110764
3173000000,-9.1822052,-99.159142
3174000000,-9.1897507,-99.230354
3175000000,-9.1838808,-99.347969
3176000000,-9.1707392,-99.447922
3177000000,-9.1710129,-99.400185
3178000000,-9.1772308,-99.698738
3179000000,-9.1639242,-99.959816
3180000000,-9.1502781,-99.613998
3181000000,-9.1636753,-99.781212
3182000000,-9.165431,-100.01191
3183000000,-9.1304197,-100.05646
3184000000,-9.1231794,-100.21798
3185000000,-9.107233,-100.45676
3186000000,-9.1117325,-100.51804
3187000000,-9.0861025,-100.53973
3188000000,-9.1188936,-100.48875
3189000000,-9.0791483,-100.49874
3190000000,-9.12887,-100.59454
3191000000,-9.0972977,-100.96883
3192000000,-9.0975657,-100.63201
3193000000,-9.0758743,-100.82764
3194000000,-9.0858135,-101.29283
3195000000,-9.0805025,-101.1757
3196000000,-9.0717106,-101.44653
3197000000,-9.0783443,-101.29858
3198000000,-9.0213089,-101.37205
3199000000,-9.0561419,-101.45135
3200000000,-9.0117025,-101.63277
3201000000,-9.0178299,-101.66947
3202000000,-9.0267744,-101.89913
3203000000,-9.0014696,-101.61309
3204000000,-9.0141668,-101.81126
3205000000,-9.0333157,-101.78845
3206000000,-9.0134096,-102.04287
3207000000,-8.9943447,-102.11388
3208000000,-8.9785213,-102.26662
3209000000,-8.9875231,-102.51045
3210000000,-8.9919739,-102.35265
3211000000,-8.9862957,-102.57336
3212000000,-8.9919567,-102.59814
3213000000,-8.9869061,-102.7289
3214000000,-8.9801102,-103.03171
3215000000,-8.9851551,-102.74087
3216000000,-8.934886,-103.13587
3217000000,-8.9788685,-103.06817
3218000000,-8.9780254,-103.15781
3219000000,-8.9500418,-103.31176
3220000000,-8.9655533,-103.41395
3221000000,-8.9316759,-103.43762
3222000000,-8.9527626,-103.31071
3223000000,-8.926919,-103.66358
3224000000,-8.9316168,-103.53603
3225000000,-8.9096508,-103.82002
3226000000,-8.8860569,-103.94649
3227000000,-8.9049921,-103.83582
3228000000,-8.8903646,-104.0798
3229000000,-8.8837929,-104.36922
3230000000,-8.9206457,-104.2227
3231000000,-8.8906746,-104.53547
3232000000,-8.8742809,-104.27296
3233000000,-8.8716612,-104.43906
3234000000,-8.8887281,-104.80604
3235000000,-8.8923149,-104.54221
3236000000,-8.899044,-104.71844
3237000000,-8.8848057,-104.53416
3238000000,-8.8636608,-104.93492
3239000000,-8.8883963,-104.78634
3240000000,-8.8790932,-105.08882
3241000000,-8.8546705,-105.38198
3242000000,-8.8182058,-105.41895
3243000000,-8.8491306,-105.36378
3244000000,-8.8614063,-105.37159
3245000000,-8.8513432,-105.38416
3246000000,-8.8489676,-105.4156
3247000000,-8.7987776,-105.57068
3248000000,-8.8419867,-105.90042
3249000000,-8.807209,-105.73158
3250000000,-8.7879076,-105.884
3251000000,-8.7998304,-105.99113
3252000000,-8.8026247,-106.31722
3253000000,-8.7926121,-106.26582
3254000000,-8.8189573,-106.26773
3255000000,-8.8092642,-106.31961
3256000000,-8.8117905,-106.22976
3257000000,-8.7899237,-106.33704
3258000000,-8.7999649,-106.58176
3259000000,-8.804903,-106.59212
3260000000,-8.7944555,-106.96822
3261000000,-8.7882643,-106.86567
3262000000,-8.7312698,-107.05445
3263000000,-8.7674971,-107.01302
3264000000,-8.7639894,-107.28476
3265000000,-8.7253056,-107.30302
3266000000,-8.7409124,-107.2765
3267000000,-8.7473812,-107.36374
3268000000,-8.7756062,-107.39898
3269000000,-8.7337799,-107.36132
3270000000,-8.7107248,-107.60587
3271000000,-8.7455397,-107.49097
3272000000,-8.7425079,-107.75811
3273000000,-8.7035666,-107.99449
3274000000,-8.7054586,-107.89929
3275000000,-8.697587,-108.06069
3276000000,-8.682621,-108.37576
3277000000,-8.6896038,-108.20438
3278000000,-8.6998959,-108.21928
3279000000,-8.6613359,-108.32968
3280000000,-8.6935635,-108.56647
3281000000,-8.6844988,-108.58865
3282000000,-8.6576061,-108.80666
3283000000,-8.6614065,-109.02972
3284000000,-8.6420498,-108.73354
3285000000,-8.6549406,-108.84176
3286000000,-8.6387043,-109.05522
3287000000,-8.6601076,-108.77747
3288000000,-8.6501732,-109.25921
3289000000,-8.6625528,-109.28515
3290000000,-8.6358995,-109.37624
3291000000,-8.6401405,-109.45115
3292000000,-8.6353836,-109.45044
3293000000,-8.6460161,-109.55027
3294000000,-8.6188641,-109.55891
3295000000,-8.6307745,-109.53288
3296000000,-8.6354284,-109.64548
3297000000,-8.6156111,-109.85742
3298000000,-8.6135178,-109.99891
3299000000,-8.6255369,-110.02886
3300000000,-8.5867987,-110.37951
3301000000,-8.6343346,-110.31836
3302000000,-8.6094341,-110.33324
3303000000,-8.6055317,-110.35351
3304000000,-8.5976048,-110.57376
3305000000,-8.6027498,-110.63934
3306000000,-8.568079,-110.5848
3307000000,-8.5871468,-110.6431
3308000000,-8.5732965,-110.74013
3309000000,-8.5602407,-110.81049
3310000000,-8.5813694,-110.90492
3311000000,-8.5817728,-111.16706
3312000000,-8.591897,-111.23418
3313000000,-8.5859489,-111.15877
3314000000,-8.5553951,-111.08919
3315000000,-8.5300331,-111.43796
3316000000,-8.5214453,-111.30258
3317000000,-8.5565672,-111.60121
3318000000,-8.5410938,-111.70807
3319000000,-8.5745878,-111.69556
3320000000,-8.5282993,-111.72613
3321000000,-8.5250692,-111.96461
3322000000,-8.4896441,-111.89281
3323000000,-8.5165758,-112.04741
3324000000,-8.5317945,-111.83042
3325000000,-8.5341911,-112.34731
3326000000,-8.511941,-112.24744
3327000000,-8.4968901,-112.49609
3328000000,-8.4841242,-112.25266
3329000000,-8.4920206,-112.49839
3330000000,-8.4945803,-112.59491
3331000000,-8.5132399,-112.82728
3332000000,-8.5072861,-112.65588
3333000000,-8.4940739,-112.87778
3334000000,-8.499918,-113.01482
3335000000,-8.4944639,-112.90643
3336000000,-8.4834929,-112.99017
3337000000,-8.4690142,-113.04569
3338000000,-8.470295,-113.21516
3339000000,-8.497982,-113.33587
3340000000,-8.5054293,-113.42551
3341000000,-8.4647236,-113.32487
3342000000,-8.4560232,-113.5237
3343000000,-8.4448423,-113.59126
3344000000,-8.4652853,-113.74636
3345000000,-8.437851,-113.84312
3346000000,-8.4380455,-113.86638
3347000000,-8.4409246,-113.85883
3348000000,-8.4292202,-114.07638
3349000000,-8.4451208,-114.14687
3350000000,-8.4305649,-114.33493
3351000000,-8.4335413,-114.29726
3352000000,-8.4215231,-114.29136
3353000000,-8.4163666,-114.56179
3354000000,-8.3994207,-114.28885
3355000000,-8.4155703,-114.6373
3356000000,-8.3872681,-114.65679
3357000000,-8.4109888,-114.7033
3358000000,-8.4098921,-114.82449
3359000000,-8.3969212,-114.81326
3360000000,-8.3785791,-114.82992
3361000000,-8.3780966,-115.10936
3362000000,-8.3724031,-115.1197
3363000000,-8.389123,-115.42558
3364000000,-8.3674498,-115.00986
3365000000,-8.3968935,-115.65703
3366000000,-8.380846,-115.5119
3367000000,-8.3796968,-115.66909
3368000000,-8.3497438,-115.45866
3369000000,-8.3757362,-115.8368
3370000000,-8.3717251,-115.83296
3371000000,-8.3635035,-115.74908
3372000000,-8.3602686,-115.9307
3373000000,-8.3443499,-116.02015
3374000000,-8.348278,-116.14036
3375000000,-8.353754,-116.17805
3376000000,-8.3630676,-116.18163
3377000000,-8.3554821,-116.26289
3378000000,-8.3577356,-116.25887
3379000000,-8.3326435,-116.53934
3380000000,-8.3301764,-116.67865
3381000000,-8.324687,-116.46164
3382000000,-8.3475952,-116.72804
3383000000,-8.3131018,-116.84515
3384000000,-8.345336,-116.84045
3385000000,-8.3017607,-117.0192
3386000000,-8.3269234,-117.14468
3387000000,-8.3259325,-117.4127
3388000000,-8.3540411,-117.11582
3389000000,-8.2804918,-117.38815
3390000000,-8.2797747,-117.48457
3391000000,-8.2865047,-117.44857
3392000000,-8.3165808,-117.48016
3393000000,-8.2587242,-117.45881
3394000000,-8.2571497,-117.71212
3395000000,-8.2742052,-117.73655
3396000000,-8.2513561,-117.84075
3397000000,-8.2824259,-117.94261
3398000000,-8.2977076,-118.01096
3399000000,-8.2748728,-118.20512
3400000000,-8.2533464,-118.226
3401000000,-8.2516747,-118.24641
3402000000,-8.2660961,-118.34874
3403000000,-8.2658148,-118.64487
3404000000,-8.2326469,-118.56219
3405000000,-8.2862892,-118.64314
3406000000,-8.259037,-118.67509
3407000000,-8.2318449,-118.76087
3408000000,-8.20714,-118.66884
3409000000,-8.2276192,-118.94645
3410000000,-8.2404346,-118.6459
3411000000,-8.2245979,-118.97412
3412000000,-8.245389,-119.02232
3413000000,-8.2462034,-119.05714
3414000000,-8.2491493,-119.13099
3415000000,-8.2570295,-119.28806
3416000000,-8.2483702,-119.44267
3417000000,-8.214571,-119.4062
3418000000,-8.1877031,-119.64333
3419000000,-8.2272072,-119.67289
3420000000,-8.1969767,-119.86814
3421000000,-8.2137089,-119.77716
3422000000,-8.200263,-119.93925
3423000000,-8.2140884,-120.11549
3424000000,-8.191618,-120.11044
3425000000,-8.225234,-120.10403
3426000000,-8.1895332,-120.03648
3427000000,-8.1937571,-120.28383
3428000000,-8.2007189,-120.26624
3429000000,-8.2057705,-120.49172
3430000000,-8.1906042,-120.71765
3431000000,-8.1856451,-120.50943
3432000000,-8.2211914,-120.5727
3433000000,-8.1447372,-120.70438
3434000000,-8.1571312,-120.8948
3435000000,-8.2003269,-120.8296
3436000000,-8.154212,-121.08651
3437000000,-8.1878471,-121.02628
3438000000,-8.1572857,-121.26463
3439000000,-8.1554184,-121.08314
3440000000,-8.1831264,-121.56334
3441000000,-8.1465006,-121.55762
3442000000,-8.1683645,-121.60917
3443000000,-8.1669741,-121.63414
3444000000,-8.144413,-121.68204
3445000000,-8.1826353,-121.66331
3446000000,-8.1578979,-121.86059
3447000000,-8.1301317,-122.03606
3448000000,-8.1443396,-121.91422
3449000000,-8.133873,-121.92795
3450000000,-8.153224,-122.19907
3451000000,-8.1546135,-122.25884
3452000000,-8.1361265,-122.125
3453000000,-8.1185265,-122.49037
3454000000,-8.1604614,-122.29639
3455000000,-8.1221619,-122.40386
3456000000,-8.146534,-122.49464
3457000000,-8.1246881,-122.84245
3458000000,-8.1378918,-122.75613
3459000000,-8.1288691,-122.68976
3460000000,-8.1117487,-122.74187
3461000000,-8.1177063,-122.80196
3462000000,-8.1447916,-123.03416
3463000000,-8.1304083,-122.98991
3464000000,-8.1036777,-123.19679
3465000000,-8.1073885,-123.09351
3466000000,-8.1245556,-123.36359
3467000000,-8.1033163,-123.18884
3468000000,-8.1169758,-123.38828
3469000000,-8.0931988,-123.49976
3470000000,-8.097127,-123.69164
3471000000,-8.0826197,-123.76441
3472000000,-8.0897942,-123.72915
3473000000,-8.0738106,-123.85215
3474000000,-8.0956068,-123.77528
3475000000,-8.0906277,-124.05359
3476000000,-8.1041155,-124.20285
3477000000,-8.075614,-124.04871
3478000000,-8.0636845,-124.17157
3479000000,-8.0830021,-124.24664
3480000000,-8.0284586,-124.44135
3481000000,-8.0778475,-124.43002
3482000000,-8.0685997,-124.54853
3483000000,-8.0511589,-124.7152
3484000000,-8.0760345,-124.68725
3485000000,-8.0546989,-124.70743
3486000000,-8.0388241,-124.8036
3487000000,-8.0968847,-124.89464
3488000000,-8.0380974,-124.81802
3489000000,-8.0579376,-125.18915
3490000000,-8.0301533,-124.98798
3491000000,-8.0215855,-125.33478
3492000000,-8.0506849,-125.25127
3493000000,-8.0135565,-125.47169
3494000000,-8.0424776,-125.28587
3495000000,-8.061614,-125.50755
3496000000,-8.028863,-125.64049
3497000000,-8.0681753,-125.53418
3498000000,-8.051075,-125.70779
3499000000,-8.0246305,-125.66301
3500000000,-8.0133047,-125.67056
3501000000,-8.0223379,-125.94303
3502000000,-8.0417356,-125.992
3503000000,-8.027709,-125.97851
3504000000,-8.0315008,-126.14958
3505000000,-8.0306749,-126.20986
3506000000,-8.0059214,-126.3338
3507000000,-7.9915509,-126.46892
3508000000,-7.9958286,-126.39198
3509000000,-8.0324173,-126.53432
3510000000,-7.9867535,-126.51205
3511000000,-8.0246925,-126.48336
3512000000,-8.0096207,-126.60963
3513000000,-8.0044937,-126.90139
3514000000,-8.0023928,-127.09123
3515000000,-7.986465,-126.81593
3516000000,-7.9940729,-127.22453
3517000000,-7.9746771,-126.92056
3518000000,-7.999579,-127.14294
3519000000,-7.9817133,-127.34312
3520000000,-7.9842148,-127.46203
3521000000,-7.9705019,-127.47618
3522000000,-7.9537344,-127.58134
3523000000,-7.9747424,-127.60755
3524000000,-7.9678316,-127.64063
3525000000,-7.9981608,-127.59174
3526000000,-7.9789553,-127.81359
3527000000,-7.9820552,-127.87838
3528000000,-8.0034361,-127.80025
3529000000,-7.9756694,-128.00581
3530000000,-7.9643631,-128.03337
3531000000,-7.9582663,-128.35097
3532000000,-7.9648561,-128.2108
3533000000,-7.945838,-128.48453
3534000000,-7.9717464,-128.27423
3535000000,-7.9615264,-128.35852
3536000000,-7.9787493,-128.49574
3537000000,-7.9774699,-128.4554
3538000000,-7.9454517,-128.80492
3539000000,-7.953342,-128.79413
3540000000,-7.9637613,-128.91861
3541000000,-7.9488301,-128.92926
3542000000,-7.9522328,-128.90665
3543000000,-7.9368558,-128.92961
3544000000,-7.9503984,-128.90627
3545000000,-7.9144521,-129.19853
3546000000,-7.9087992,-129.28299
3547000000,-7.9488254,-129.41805
3548000000,-7.9528122,-129.4724
3549000000,-7.9534616,-129.60306
3550000000,-7.9431787,-129.64172
3551000000,-7.9653106,-129.63113
3552000000,-7.9314399,-129.60954
3553000000,-7.9234676,-129.61761
3554000000,-7.9519053,-129.80722
3555000000,-7.9285622,-129.92363
3556000000,-7.9716129,-129.95441
3557000000,-7.9181409,-130.04616
3558000000,-7.9105825,-129.99864
3559000000,-7.9149375,-130.28477
3560000000,-7.914557,-130.30171
3561000000,-7.8896022,-130.384
3562000000,-7.9045467,-130.23038
3563000000,-7.9505033,-130.53017
3564000000,-7.9096475,-130.39929
3565000000,-7.9040937,-130.52666
3566000000,-7.8952069,-130.51491
3567000000,-7.908999,-130.64307
3568000000,-7.9206491,-130.91933
3569000000,-7.9085636,-130.76805
3570000000,-7.9160571,-130.95685
3571000000,-7.9103155,-131.09254
3572000000,-7.8758039,-131.01086
3573000000,-7.8959136,-131.10208
3574000000,-7.8583302,-131.14093
3575000000,-7.8615108,-131.23373
3576000000,-7.8985982,-131.52348
3577000000,-7.8751507,-131.47537
3578000000,-7.915092,-131.5504
3579000000,-7.905479,-131.71291
3580000000,-7.8708177,-131.56313
3581000000,-7.8874817,-131.72081
3582000000,-7.9000134,-131.71957
3583000000,-7.8899331,-131.7822
3584000000,-7.8905945,-131.7988
3585000000,-7.8760061,-131.94896
3586000000,-7.8826714,-132.14162
3587000000,-7.8339376,-132.20912
3588000000,-7.8349853,-132.07188
3589000000,-7.8435154,-132.38686
3590000000,-7.8408713,-132.5488
3591000000,-7.8714561,-132.48953
3592000000,-7.8885255,-132.44424
3593000000,-7.8584175,-132.55524
3594000000,-7.8490648,-132.53828
3595000000,-7.8679395,-132.62579
3596000000,-7.8425269,-132.8329
3597000000,-7.8671446,-132.79675
3598000000,-7.8648124,-132.88547
3599000000,-7.8341789,-133.04298
3600000000,-7.8223915,-133.03749
3601000000,-7.8351064,-133.14713
3602000000,-7.8164792,-133.36517
3603000000,-7.8466382,-133.41179
3604000000,-7.8143225,-133.52858
3605000000,-7.8136649,-133.37987
3606000000,-7.826674,-133.60805
3607000000,-7.8055186,-133.46979
3608000000,-7.8000159,-133.78702
3609000000,-7.8173628,-133.68013
3610000000,-7.8522859,-133.78377
3611000000,-7.817101,-133.73247
3612000000,-7.8470755,-133.86259
3613000000,-7.8130503,-134.18108
3614000000,-7.824965,-134.20091
3615000000,-7.8235564,-134.41217
3616000000,-7.8393817,-134.07779
3617000000,-7.8236947,-134.34435
3618000000,-7.8070421,-134.40588
3619000000,-7.7815461,-134.52373
3620000000,-7.8116779,-134.43164
3621000000,-7.7925525,-134.48943
3622000000,-7.8210974,-134.69566
3623000000,-7.837193,-134.84599
3624000000,-7.8046966,-134.71252
3625000000,-7.8273821,-134.74838
3626000000,-7.7883658,-134.8864
3627000000,-7.8060627,-134.98924
3628000000,-7.7907791,-135.01811
3629000000,-7.7884159,-135.06813
3630000000,-7.8150706,-135.1666
3631000000,-7.7561955,-135.27965
3632000000,-7.7837362,-135.27054
3633000000,-7.7908483,-135.48546
3634000000,-7.788825,-135.44554
3635000000,-7.8059535,-135.55794
3636000000,-7.789835,-135.72377
3637000000,-7.7885976,-135.95006
3638000000,-7.801857,-135.61276
3639000000,-7.7784877,-135.78717
3640000000,-7.7775135,-136.0069
3641000000,-7.7859759,-135.9487
3642000000,-7.7969594,-136.01254
3643000000,-7.7793112,-136.13416
3644000000,-7.7725554,-136.28038
3645000000,-7.7581563,-136.10098
3646000000,-7.780437,-136.52116
3647000000,-7.7833028,-136.36749
3648000000,-7.7602229,-136.52609
3649000000,-7.7595158,-136.62695
3650000000,-7.7457776,-136.54254
3651000000,-7.7891092,-136.69655
3652000000,-7.7656298,-136.9008
3653000000,-7.7639909,-137.0405
3654000000,-7.7619286,-136.83354
3655000000,-7.7548485,-137.16473
3656000000,-7.7362566,-137.07144
3657000000,-7.7390604,-137.01236
3658000000,-7.7415404,-137.21759
3659000000,-7.7415466,-137.35851
3660000000,-7.735342,-137.20389
3661000000,-7.767036,-137.1991
3662000000,-7.7690005,-137.29794
3663000000,-7.7438383,-137.32845
3664000000,-7.7585335,-137.34274
3665000000,-7.774991,-137.51175
3666000000,-7.7435055,-137.82002
3667000000,-7.7795491,-137.8326
3668000000,-7.7513728,-137.73212
3669000000,-7.742681,-137.70979
3670000000,-7.7411914,-137.83926
3671000000,-7.7194138,-138.09047
3672000000,-7.7535968,-138.1165
3673000000,-7.7446046,-138.32341
3674000000,-7.748136,-138.2704
3675000000,-7.7433629,-138.2392
3676000000,-7.7068458,-138.29308
3677000000,-7.7258039,-138.41158
3678000000,-7.7459173,-138.64389
3679000000,-7.7076583,-138.64268
3680000000,-7.7464418,-138.73892
3681000000,-7.7363777,-138.76996
3682000000,-7.7136722,-138.88179
3683000000,-7.7206411,-139.01392
3684000000,-7.7299867,-138.94534
3685000000,-7.7367077,-138.9855
3686000000,-7.7312121,-139.37521
3687000000,-7.7481418,-139.25446
3688000000,-7.7000299,-139.17255
3689000000,-7.7031093,-139.43665
3690000000,-7.7308936,-139.21266
3691000000,-7.7225232,-139.34673
3692000000,-7.7376847,-139.40941
3693000000,-7.6964293,-139.60417
3694000000,-7.6898375,-139.78622
3695000000,-7.6981096,-139.71509
3696000000,-7.6821461,-139.77953
3697000000,-7.6778717,-139.91849
3698000000,-7.7059875,-139.87215
3699000000,-7.693119,-139.85301
3700000000,-7.6929502,-140.049
3701000000,-7.6952338,-140.00546
3702000000,-7.7078276,-140.22353
3703000000,-7.7075887,-140.3111
3704000000,-7.71209,-140.46373
3705000000,-7.6935143,-140.38037
3706000000,-7.6750374,-140.34705
3707000000,-7.6909938,-140.36125
3708000000,-7.6808071,-140.56725
3709000000,-7.6859193,-140.71861
3710000000,-7.6893682,-140.47659
3711000000,-7.6874251,-140.79646
3712000000,-7.6825881,-140.79799
3713000000,-7.681602,-140.86957
3714000000,-7.6896925,-140.97412
3715000000,-7.6607137,-141.11795
3716000000,-7.6830711,-141.1105
3717000000,-7.6694264,-141.11008
3718000000,-7.6711388,-141.08458
3719000000,-7.6908741,-141.3428
3720000000,-7.6731496,-141.4296
3721000000,-7.6666098,-141.63351
3722000000,-7.6575837,-141.58356
3723000000,-7.6723061,-141.49887
3724000000,-7.6767721,-141.64671
3725000000,-7.6678915,-141.6528
3726000000,-7.6781039,-141.67944
3727000000,-7.6655874,-141.96286
3728000000,-7.6648903,-141.92879
3729000000,-7.6574039,-142.01825
3730000000,-7.662807,-141.96754
3731000000,-7.6466966,-142.15454
3732000000,-7.6643858,-142.14464
3733000000,-7.6408091,-142.16661
3734000000,-7.6789351,-142.16278
3735000000,-7.6766019,-142.22488
3736000000,-7.6773696,-142.35585
3737000000,-7.675509,-142.3479
3738000000,-7.6489086,-142.45247
3739000000,-7.6349869,-142.53058
3740000000,-7.6433129,-142.61194
3741000000,-7.6378369,-142.74379
3742000000,-7.6518397,-142.68031
3743000000,-7.6163473,-142.77548
3744000000,-7.6682677,-143.0486
3745000000,-7.6285977,-143.04008
3746000000,-7.6330748,-143.17633
3747000000,-7.6426444,-143.24507
3748000000,-7.6357527,-143.30971
3749000000,-7.6309628,-143.34271
3750000000,-7.6350889,-143.47537
3751000000,-7.6259794,-143.29358
3752000000,-7.6190286,-143.65221
3753000000,-7.5931544,-143.56735
3754000000,-7.6203332,-143.73039
3755000000,-7.6334515,-143.61894
3756000000,-7.6048512,-143.79472
3757000000,-7.6188278,-143.77608
3758000000,-7.659833,-144.07689
3759000000,-7.6353316,-143.92685
3760000000,-7.6124163,-144.12219
3761000000,-7.6376028,-144.00948
3762000000,-7.6433158,-144.37366
3763000000,-7.605288,-144.16202
3764000000,-7.6390138,-144.38306
3765000000,-7.611237,-144.17503
3766000000,-7.6039376,-144.37178
3767000000,-7.597424,-144.23981
3768000000,-7.6224718,-144.74699
3769000000,-7.6049085,-144.70105
3770000000,-7.5976253,-144.8401
3771000000,-7.6001415,-144.88632
3772000000,-7.606441,-144.99301
3773000000,-7.5956655,-144.90044
3774000000,-7.6004615,-144.99811
3775000000,-7.6140814,-144.93587
3776000000,-7.5986495,-145.09033
3777000000,-7.5654473,-145.25479
3778000000,-7.6115203,-145.52464
3779000000,-7.5916586,-145.33244
3780000000,-7.5868673,-145.42662
3781000000,-7.6229253,-145.64136
3782000000,-7.6124573,-145.46106
3783000000,-7.6117001,-145.36911
3784000000,-7.5933819,-145.55002
3785000000,-7.6000056,-145.63065
3786000000,-7.5839434,-145.91591
3787000000,-7.5924668,-145.83139
3788000000,-7.6042438,-146.00462
3789000000,-7.5799928,-145.99159
3790000000,-7.5782933,-145.95442
3791000000,-7.5969448,-146.07722
3792000000,-7.5841203,-146.16025
3793000000,-7.5798025,-146.06123
3794000000,-7.5770454,-146.13611
3795000000,-7.6005797,-146.37762
3796000000,-7.5836773,-146.66501
3797000000,-7.5863996,-146.53662
3798000000,-7.5684919,-146.54227
3799000000,-7.5539923,-146.64392
3800000000,-7.5928612,-146.61856
3801000000,-7.5449572,-146.76888
3802000000,-7.5898395,-146.76666
3803000000,-7.573771,-146.80643
3804000000,-7.5496297,-147.04761
3805000000,-7.5650406,-147.03033
3806000000,-7.586833,-147.06383
3807000000,-7.5498433,-147.10957
3808000000,-7.5673537,-147.22037
3809000000,-7.5677977,-147.35791
3810000000,-7.5531402,-147.5482
3811000000,-7.5362744,-147.50079
3812000000,-7.5489888,-147.49504
3813000000,-7.5491629,-147.37236
3814000000,-7.537796,-147.78413
3815000000,-7.5362687,-147.57289
3816000000,-7.5317869,-147.88689
3817000000,-7.5518737,-147.88672
3818000000,-7.5582299,-147.84891
3819000000,-7.5499144,-147.75737
3820000000,-7.5261717,-148.11301
3821000000,-7.5540733,-148.14417
3822000000,-7.5236449,-148.10706
3823000000,-7.551126,-148.07941
3824000000,-7.5458903,-148.26152
3825000000,-7.5357332,-148.22945
3826000000,-7.5585856,-148.384
3827000000,-7.5452309,-148.39587
3828000000,-7.537147,-148.42029
3829000000,-7.5359397,-148.62141
3830000000,-7.5265055,-148.72626
3831000000,-7.5650244,-148.77184
3832000000,-7.5287924,-148.66026
3833000000,-7.5586638,-148.70735
3834000000,-7.5131927,-148.9024
3835000000,-7.5301228,-148.95264
3836000000,-7.544806,-149.02428
3837000000,-7.510951,-149.134
3838000000,-7.5174637,-149.07776
3839000000,-7.5211773,-149.2112
3840000000,-7.5126996,-149.29758
3841000000,-7.5164828,-149.42886
3842000000,-7.5266771,-149.40726
3843000000,-7.5171342,-149.66158
3844000000,-7.5273337,-149.42958
3845000000,-7.5188036,-149.6786
3846000000,-7.5226965,-149.67078
3847000000,-7.5176859,-149.77798
3848000000,-7.5123243,-149.74185
3849000000,-7.5092797,-149.97548
3850000000,-7.5058403,-149.87537
3851000000,-7.5207829,-150.01485
3852000000,-7.4993038,-150.22014
3853000000,-7.5310631,-150.18993
3854000000,-7.5166988,-150.22375
3855000000,-7.5129466,-150.17348
3856000000,-7.5586081,-150.24431
3857000000,-7.520267,-150.29999
3858000000,-7.510253,-150.53789
3859000000,-7.5130672,-150.43652
3860000000,-7.52738,-150.48216
3861000000,-7.5084949,-150.57068
3862000000,-7.5096369,-150.72099
3863000000,-7.5004196,-150.75079
3864000000,-7.523891,-150.87608
3865000000,-7.5011148,-150.9646
3866000000,-7.4893346,-150.82872
3867000000,-7.5174441,-151.05753
3868000000,-7.5223961,-151.106
3869000000,-7.5152531,-151.34923
3870000000,-7.4903173,-151.17921
3871000000,-7.4977832,-151.26463
3872000000,-7.4911151,-151.17632
3873000000,-7.5079122,-151.24678
3874000000,-7.4909277,-151.48958
3875000000,-7.5104489,-151.52045
3876000000,-7.4664078,-151.72908
3877000000,-7.4996357,-151.56975
3878000000,-7.5326715,-151.69771
3879000000,-7.4719753,-151.8166
3880000000,-7.4848185,-151.95303
3881000000,-7.509707,-151.9989
3882000000,-7.4875355,-151.99556
3883000000,-7.4791627,-152.0304
3884000000,-7.502461,-152.15414
3885000000,-7.4485559,-152.23784
3886000000,-7.4992414,-152.20299
3887000000,-7.5286627,-152.24164
3888000000,-7.4760628,-152.43694
3889000000,-7.487052,-152.56424
3890000000,-7.4768286,-152.36014
3891000000,-7.503674,-152.51363
3892000000,-7.4774475,-152.60294
3893000000,-7.4701791,-152.75969
3894000000,-7.4516625,-152.75212
3895000000,-7.4797482,-152.7847
3896000000,-7.5015893,-152.7265
3897000000,-7.4694839,-153.09331
3898000000,-7.4849329,-152.97717
3899000000,-7.485919,-153.1564
3900000000,-7.4993596,-153.10071
3901000000,-7.4586129,-153.14986
3902000000,-7.493639,-153.5154
3903000000,-7.4763184,-153.26859
3904000000,-7.4758735,-153.3031
3905000000,-7.4719257,-153.48956
3906000000,-7.465641,-153.47874
3907000000,-7.4711537,-153.49283
3908000000,-7.4594402,-153.6738
3909000000,-7.4707184,-153.60851
3910000000,-7.4506154,-153.91325
3911000000,-7.4564486,-153.7482
3912000000,-7.4434643,-153.80399
3913000000,-7.4459467,-153.8291
3914000000,-7.4401197,-154.16957
3915000000,-7.4481072,-154.10837
3916000000,-7.470171,-154.05582
3917000000,-7.4268317,-154.24399
3918000000,-7.4599781,-154.15306
3919000000,-7.4455585,-154.20003
3920000000,-7.4824171,-154.42825
3921000000,-7.436945,-154.48047
3922000000,-7.4619946,-154.36168
3923000000,-7.4454908,-154.59698
3924000000,-7.4722509,-154.47531
3925000000,-7.4479837,-154.70149
3926000000,-7.4428687,-154.82941
3927000000,-7.4364543,-154.81982
3928000000,-7.4491801,-154.85532
3929000000,-7.4500937,-154.99205
3930000000,-7.4704523,-155.08215
3931000000,-7.4345622,-155.15683
3932000000,-7.4433937,-155.28606
3933000000,-7.4301209,-155.09854
3934000000,-7.4567132,-155.31569
3935000000,-7.4320855,-155.29305
3936000000,-7.4367919,-155.35606
3937000000,-7.4517241,-155.58228
3938000000,-7.4236794,-155.62186
3939000000,-7.4697771,-155.63953
3940000000,-7.4382567,-155.95126
3941000000,-7.4430199,-155.6577
3942000000,-7.4807367,-155.61292
3943000000,-7.4464741,-155.67528
3944000000,-7.4298205,-155.78093
3945000000,-7.4360814,-156.17261
3946000000,-7.4206042,-156.04425
3947000000,-7.4112477,-155.94635
3948000000,-7.4271088,-156.13448
3949000000,-7.4388719,-156.27727
3950000000,-7.4218931,-156.27817
3951000000,-7.4029298,-156.3277
3952000000,-7.4289422,-156.4019
3953000000,-7.4138355,-156.53421
3954000000,-7.4371901,-156.36559
3955000000,-7.4091854,-156.47231
3956000000,-7.4136329,-156.42522
3957000000,-7.4093189,-156.76346
3958000000,-7.427063,-156.72791
3959000000,-7.4059162,-156.77116
3960000000,-7.4146619,-156.89874
3961000000,-7.4089003,-156.89044
3962000000,-7.4191628,-156.85254
3963000000,-7.4330387,-157.06227
3964000000,-7.4009881,-157.08037
3965000000,-7.3960428,-157.39015
3966000000,-7.3984385,-157.26263
3967000000,-7.3988504,-157.2494
3968000000,-7.424571,-157.38261
3969000000,-7.4257617,-157.20619
3970000000,-7.4261775,-157.53769
3971000000,-7.3771586,-157.68889
3972000000,-7.428143,-157.56532
3973000000,-7.4351931,-157.65512
3974000000,-7.4027591,-157.80286
3975000000,-7.4281554,-157.86635
3976000000,-7.4324832,-157.68945
3977000000,-7.3871245,-157.94391
3978000000,-7.4101586,-157.82799
3979000000,-7.3876605,-158.08739
3980000000,-7.4285531,-158.12195
3981000000,-7.410244,-158.29288
3982000000,-7.4130015,-158.26758
3983000000,-7.4043961,-158.24341
3984000000,-7.4032164,-158.25667
3985000000,-7.3800735,-158.55273
3986000000,-7.3991899,-158.4162
3987000000,-7.3888812,-158.38251
3988000000,-7.3879628,-158.63235
3989000000,-7.3745427,-158.6971
3990000000,-7.3855214,-158.64188
3991000000,-7.3904777,-158.741
3992000000,-7.3717608,-158.86786
3993000000,-7.398747,-159.01323
3994000000,-7.4146142,-159.02995
3995000000,-7.4197078,-158.88702
3996000000,-7.3910055,-159.00363
3997000000,-7.3678675,-159.21709
3998000000,-7.3944221,-159.09776
3999000000,-7.4125562,-159.26239
4000000000,-7.3924847,-159.54109
4001000000,-7.3791132,-159.29533
4002000000,-7.3527212,-159.33667
4003000000,-7.4063115,-159.33846
4004000000,-7.3878355,-159.42905
4005000000,-7.3628092,-159.70651
4006000000,-7.400672,-159.84773
4007000000,-7.3904138,-159.91959
4008000000,-7.3689823,-159.67215
4009000000,-7.395875,-159.82382
4010000000,-7.3769646,-160.02878
4011000000,-7.362072,-159.83197
4012000000,-7.3868837,-160.06471
4013000000,-7.380053,-160.15982
4014000000,-7.3923869,-160.17885
4015000000,-7.3751431,-160.31075
4016000000,-7.3745241,-160.26299
4017000000,-7.3847942,-160.424
4018000000,-7.3751369,-160.48691
4019000000,-7.3649464,-160.58888
4020000000,-7.3740525,-160.37978
4021000000,-7.3760891,-160.6189
4022000000,-7.3613148,-160.69852
4023000000,-7.3766174,-160.69969
4024000000,-7.3631816,-160.67784
4025000000,-7.3653498,-160.69705
4026000000,-7.3558545,-160.90701
4027000000,-7.3657966,-161.06822
4028000000,-7.3938131,-161.09486
4029000000,-7.3786311,-161.10136
4030000000,-7.3446016,-161.27982
4031000000,-7.3811522,-161.28439
4032000000,-7.3475704,-161.34009
4033000000,-7.3710847,-161.2998
4034000000,-7.3623438,-161.39685
4035000000,-7.3675237,-161.48848
4036000000,-7.3796663,-161.59731
4037000000,-7.3720145,-161.45264
4038000000,-7.3581586,-161.58624
4039000000,-7.3335209,-161.76454
4040000000,-7.3551669,-161.80717
4041000000,-7.3637338,-162.06659
4042000000,-7.3667855,-161.89058
4043000000,-7.3730135,-161.95934
4044000000,-7.3624763,-161.91243
4045000000,-7.3621311,-162.28424
4046000000,-7.3620591,-161.92485
4047000000,-7.3349247,-162.10756
4048000000,-7.3472915,-162.02496
4049000000,-7.3287435,-162.17
4050000000,-7.3522658,-162.53891
4051000000,-7.3812423,-162.50456
4052000000,-7.3472223,-162.6665
4053000000,-7.34407,-162.6384
4054000000,-7.3484259,-162.70872
4055000000,-7.355722,-162.64259
4056000000,-7.3141146,-162.81641
4057000000,-7.3158126,-162.66118
4058000000,-7.3796053,-162.82446
4059000000,-7.354455,-162.82018
4060000000,-7.3619852,-163.03212
4061000000,-7.3682318,-163.02922
4062000000,-7.3736453,-163.23419
4063000000,-7.3207388,-163.19641
4064000000,-7.3551898,-163.05469
4065000000,-7.3469944,-163.26636
4066000000,-7.346324,-163.51064
4067000000,-7.3169637,-163.4631
4068000000,-7.3377109,-163.43742
4069000000,-7.364841,-163.70981
4070000000,-7.3071771,-163.49805
4071000000,-7.3404183,-163.6564
4072000000,-7.3363814,-163.76772
4073000000,-7.3508954,-163.59608
4074000000,-7.3209658,-163.87965
4075000000,-7.3326039,-163.95905
4076000000,-7.335175,-163.97101
4077000000,-7.3282361,-164.05037
4078000000,-7.3239727,-164.17795
4079000000,-7.3147979,-164.1889
4080000000,-7.3327303,-164.12201
4081000000,-7.3129983,-164.1288
4082000000,-7.3418651,-164.38411
4083000000,-7.3077698,-164.27574
4084000000,-7.3318982,-164.3261
4085000000,-7.2976012,-164.45898
4086000000,-7.3148665,-164.73262
4087000000,-7.3511229,-164.6777
4088000000,-7.3538785,-164.8131
4089000000,-7.3309755,-164.93015
4090000000,-7.3409843,-164.78017
4091000000,-7.327251,-164.79137
4092000000,-7.3247843,-164.89011
4093000000,-7.3190536,-165.06873
4094000000,-7.3197031,-165.14345
4095000000,-7.3218179,-165.19644
4096000000,-7.3083658,-165.20988
4097000000,-7.3187575,-165.13591
4098000000,-7.34372,-165.43304
4099000000,-7.332006,-165.39012
4100000000,-7.3259411,-165.576
4101000000,-7.3142657,-165.42542
4102000000,-7.3315034,-165.60106
4103000000,-7.3200932,-165.53264
4104000000,-7.2878675,-165.5423
4105000000,-7.3362026,-165.74001
4106000000,-7.3178291,-165.74899
4107000000,-7.3337717,-165.6946
4108000000,-7.3137732,-165.88005
4109000000,-7.3009119,-165.95818
4110000000,-7.2983308,-165.90813
4111000000,-7.3149877,-166.08868
4112000000,-7.3150325,-165.83528
4113000000,-7.3153052,-166.11922
4114000000,-7.3013043,-166.07874
4115000000,-7.3024035,-166.31606
4116000000,-7.3098044,-166.17436
4117000000,-7.2985821,-166.28175
4118000000,-7.3183918,-166.50439
4119000000,-7.314024,-166.63684
4120000000,-7.3137827,-166.63062
4121000000,-7.3096762,-166.83832
4122000000,-7.2901173,-166.71458
4123000000,-7.2995105,-166.86478
4124000000,-7.2849927,-166.82068
4125000000,-7.2803631,-166.73698
4126000000,-7.2753382,-166.97121
4127000000,-7.2934828,-167.02502
4128000000,-7.2873702,-167.02165
4129000000,-7.2775345,-167.22672
4130000000,-7.2867413,-167.08287
4131000000,-7.2757268,-167.20563
4132000000,-7.273366,-167.43402
4133000000,-7.3046346,-167.30113
4134000000,-7.2840848,-167.57202
4135000000,-7.2699814,-167.49037
4136000000,-7.2970147,-167.6132
4137000000,-7.285038,-167.69589
4138000000,-7.3138494,-167.67357
4139000000,-7.2816367,-167.85898
4140000000,-7.3040538,-167.81548
4141000000,-7.2810678,-167.6891
4142000000,-7.2999811,-167.88171
4143000000,-7.2848716,-167.93846
4144000000,-7.2709851,-168.05211
4145000000,-7.2552094,-168.16548
4146000000,-7.3008013,-168.24257
4147000000,-7.2673469,-168.29738
4148000000,-7.2663112,-168.27032
4149000000,-7.2692914,-168.25299
4150000000,-7.2732501,-168.39328
4151000000,-7.2764263,-168.43872
4152000000,-7.2726431,-168.56641
4153000000,-7.2829709,-168.57216
4154000000,-7.3044047,-168.54684
4155000000,-7.2917962,-168.7652
4156000000,-7.2602568,-168.70601
4157000000,-7.2858696,-168.75856
4158000000,-7.2702556,-168.84918
4159000000,-7.2713547,-168.96545
4160000000,-7.281034,-169.10696
4161000000,-7.2767267,-169.13345
4162000000,-7.2607598,-168.97874
4163000000,-7.2628255,-169.18848
4164000000,-7.2475586,-169.13522
4165000000,-7.244123,-169.11012
4166000000,-7.2401385,-169.28372
4167000000,-7.2625098,-169.4801
4168000000,-7.2743225,-169.39069
4169000000,-7.2568059,-169.45634
4170000000,-7.2501974,-169.53722
4171000000,-7.2664366,-169.52618
4172000000,-7.2110686,-169.8316
4173000000,-7.2548351,-169.74382
4174000000,-7.2725992,-169.79059
4175000000,-7.2712417,-169.75807
4176000000,-7.2636447,-169.83633
4177000000,-7.2381959,-169.8891
4178000000,-7.2568631,-169.82602
4179000000,-7.2374754,-170.06509
4180000000,-7.2374263,-170.1508
4181000000,-7.2256365,-170.23529
4182000000,-7.2351747,-170.33049
4183000000,-7.2740383,-170.14215
4184000000,-7.2613931,-170.36217
4185000000,-7.2270131,-170.21298
4186000000,-7.2419138,-170.32973
4187000000,-7.2603517,-170.6433
4188000000,-7.2353082,-170.59711
4189000000,-7.2333269,-170.70419
4190000000,-7.2252078,-170.69771
4191000000,-7.2340307,-170.87244
4192000000,-7.2382045,-170.77026
4193000000,-7.2207446,-170.94684
4194000000,-7.2527122,-170.76622
4195000000,-7.233664,-170.97028
4196000000,-7.2309389,-171.09004
4197000000,-7.222383,-171.01659
4198000000,-7.2364435,-171.20093
4199000000,-7.2196641,-171.21143
4200000000,-7.2228551,-171.16441
4201000000,-7.2279916,-171.37067
4202000000,-7.227407,-171.22331
4203000000,-7.2384262,-171.43146
4204000000,-7.197823,-171.5594
4205000000,-7.2187572,-171.68289
4206000000,-7.2468181,-171.57065
4207000000,-7.232594,-171.5513
4208000000,-7.2383318,-171.63759
4209000000,-7.1973457,-171.89307
4210000000,-7.2105646,-171.74721
4211000000,-7.2230735,-171.88231
4212000000,-7.2240605,-172.04996
4213000000,-7.2033873,-171.90616
4214000000,-7.214828,-172.06648
4215000000,-7.2105694,-172.06969
4216000000,-7.2242284,-172.07619
4217000000,-7.2057643,-172.2811
4218000000,-7.2181377,-172.19847
4219000000,-7.2079949,-172.51952
4220000000,-7.196506,-172.43417
4221000000,-7.2110786,-172.43568
4222000000,-7.2176437,-172.49194
4223000000,-7.1815243,-172.62196
4224000000,-7.2069445,-172.5977
4225000000,-7.2161441,-172.85188
4226000000,-7.2114882,-172.66365
4227000000,-7.1898103,-172.89682
4228000000,-7.2063127,-172.88066
4229000000,-7.2043815,-172.9604
4230000000,-7.1935701,-173.01735
4231000000,-7.2172961,-173.01192
4232000000,-7.1726375,-173.15636
4233000000,-7.2062821,-173.25555
4234000000,-7.1777668,-173.40627
4235000000,-7.1869307,-173.43803
4236000000,-7.1867065,-173.33459
4237000000,-7.2121587,-173.44104
4238000000,-7.2091398,-173.4325
4239000000,-7.1882167,-173.58055
4240000000,-7.1946135,-173.4149
4241000000,-7.1872597,-173.66905
4242000000,-7.1916828,-173.75494
4243000000,-7.2042484,-173.80612
4244000000,-7.1958346,-173.8631
4245000000,-7.2123451,-173.93884
4246000000,-7.1935759,-173.96176
4247000000,-7.1635127,-174.02849
4248000000,-7.1883779,-174.09641
4249000000,-7.1978307,-174.09293
4250000000,-7.1750226,-174.22679
4251000000,-7.156158,-174.40173
4252000000,-7.1982536,-174.41309
4253000000,-7.186511,-174.36389
4254000000,-7.1740212,-174.49788
4255000000,-7.1578269,-174.39061
4256000000,-7.1705627,-174.4735
4257000000,-7.1549511,-174.69368
4258000000,-7.1722541,-174.60123
4259000000,-7.1733112,-174.6787
4260000000,-7.1619272,-174.91713
4261000000,-7.1812096,-174.68208
4262000000,-7.1597028,-174.88878
4263000000,-7.1464548,-174.98546
4264000000,-7.1829419,-175.07419
4265000000,-7.1800561,-175.20087
4266000000,-7.171083,-175.2509
4267000000,-7.1591568,-175.19788
4268000000,-7.1801944,-175.15535
4269000000,-7.1398344,-175.2957
4270000000,-7.1636729,-175.31679
4271000000,-7.1543474,-175.34018
4272000000,-7.1558733,-175.52084
4273000000,-7.1655741,-175.77353
4274000000,-7.1968546,-175.42574
4275000000,-7.129416,-175.62918
4276000000,-7.1474223,-175.70183
4277000000,-7.1442256,-175.80901
4278000000,-7.1603069,-175.85349
4279000000,-7.116075,-175.97131
4280000000,-7.1447396,-176.16273
4281000000,-7.1346111,-176.01784
4282000000,-7.1678648,-176.05026
4283000000,-7.1515374,-176.17084
4284000000,-7.151166,-176.25693
4285000000,-7.1554861,-176.29753
4286000000,-7.1488371,-176.33575
4287000000,-7.1520123,-176.17709
4288000000,-7.135252,-176.37569
4289000000,-7.158175,-176.51109
4290000000,-7.1342525,-176.55984
4291000000,-7.1160316,-176.54834
4292000000,-7.1137915,-176.78682
4293000000,-7.1419258,-176.79771
4294000000,-7.1498594,-176.5827
4295000000,-7.1307826,-176.75137
4296000000,-7.1391292,-176.8717
4297000000,-7.1454849,-177.05206
4298000000,-7.1609926,-177.03804
4299000000,-7.1456771,-177.00154
4300000000,-7.1270962,-177.03485
4301000000,-7.1263404,-177.13658
4302000000,-7.1072831,-177.20511
4303000000,-7.1202607,-177.13422
4304000000,-7.1379538,-177.39117
4305000000,-7.1334362,-177.4218
4306000000,-7.1352005,-177.53099
4307000000,-7.11095,-177.50725
4308000000,-7.1144633,-177.70175
4309000000,-7.1052632,-177.74229
4310000000,-7.1209955,-177.67337
4311000000,-7.1214566,-177.7798
4312000000,-7.1226106,-177.70195
4313000000,-7.1213965,-177.87064
4314000000,-7.1061196,-178.16425
4315000000,-7.1233029,-177.96797
4316000000,-7.0939093,-177.8679
4317000000,-7.0916362,-178.22089
4318000000,-7.1036086,-178.00558
4319000000,-7.1234021,-178.35481
4320000000,-7.1127028,-178.11084
4321000000,-7.111093,-178.3752
4322000000,-7.1332364,-178.59271
4323000000,-7.1169033,-178.45306
4324000000,-7.0902758,-178.52859
4325000000,-7.1009307,-178.42615
4326000000,-7.1051798,-178.4959
4327000000,-7.0843892,-178.54054
4328000000,-7.1172323,-178.70114
4329000000,-7.0961795,-178.74393
4330000000,-7.1063857,-178.66821
4331000000,-7.0678496,-178.97418
4332000000,-7.10816,-179.03821
4333000000,-7.0750389,-178.86824
4334000000,-7.0829482,-178.84308
4335000000,-7.0758724,-179.09499
4336000000,-7.0862837,-179.11032
4337000000,-7.0864291,-179.21512
4338000000,-7.0750284,-179.36053
4339000000,-7.0643125,-179.2627
4340000000,-7.0725241,-179.32346
4341000000,-7.0756283,-179.36949
4342000000,-7.0634193,-179.57254
4343000000,-7.0576639,-179.45041
4344000000,-7.0809789,-179.62274
4345000000,-7.1040225,-179.67747
4346000000,-7.0841579,-179.68738
4347000000,-7.0520043,-179.64296
4348000000,-7.079514,-179.9597
4349000000,-7.087368,-179.97054
4350000000,-7.0659523,-179.7941
4351000000,-7.0669026,-180.01585
4352000000,-7.0846701,-180.05165
4353000000,-7.0750136,-180.07068
4354000000,-7.0583811,-180.27458
4355000000,-7.0825877,-180.33253
4356000000,-7.0678272,-180.43599
4357000000,-7.0538435,-180.51277
4358000000,-7.0677366,-180.49225
4359000000,-7.0390182,-180.55971
4360000000,-7.0462193,-180.45142
4361000000,-7.052331,-180.82759
4362000000,-7.0455046,-180.53485
4363000000,-7.0549121,-180.65579
4364000000,-7.0607371,-180.75616
4365000000,-7.0632329,-180.80508
4366000000,-7.0284934,-180.77821
4367000000,-7.0549574,-180.97081
4368000000,-7.0283442,-181.07857
4369000000,-7.0465579,-181.19093
4370000000,-7.0416093,-181.29135
4371000000,-7.0462074,-181.3056
4372000000,-7.0422063,-181.24625
4373000000,-7.0481591,-181.29922
4374000000,-7.0331068,-181.25076
4375000000,-7.0393028,-181.40565
4376000000,-7.0390196,-181.44299
4377000000,-7.0453916,-181.57164
4378000000,-7.0451345,-181.5181
4379000000,-7.0331364,-181.64444
4380000000,-7.0306687,-181.74016
4381000000,-7.0340753,-182.10994
4382000000,-7.0119209,-181.91896
4383000000,-7.0128083,-181.93825
4384000000,-6.9997339,-181.98796
4385000000,-7.0100541,-181.94316
4386000000,-7.0135794,-182.14
4387000000,-7.0192728,-182.06964
4388000000,-7.0177784,-182.14438
4389000000,-7.0193634,-182.3501
4390000000,-7.017128,-182.29347
4391000000,-7.0212708,-182.42123
4392000000,-6.9962311,-182.46948
4393000000,-6.9982367,-182.44043
4394000000,-6.9956312,-182.54564
4395000000,-7.0302701,-182.61705
4396000000,-7.0189633,-182.64734
4397000000,-6.9975638,-182.6855
4398000000,-7.0024972,-182.76961
4399000000,-6.9611292,-182.83026
4400000000,-6.9909744,-182.80244
4401000000,-6.9881339,-182.79138
4402000000,-6.9860353,-182.96477
4403000000,-6.9931021,-183.04575
4404000000,-6.9831181,-183.03763
4405000000,-6.9994435,-183.10799
4406000000,-6.9870081,-183.33119
4407000000,-6.9762564,-183.34979
4408000000,-6.9774184,-183.36942
4409000000,-6.9737744,-183.50737
4410000000,-6.9820175,-183.46689
4411000000,-6.9705739,-183.65977
4412000000,-6.969873,-183.86404
4413000000,-6.9577641,-183.78371
4414000000,-6.9601402,-183.92671
4415000000,-6.9613156,-183.91701
4416000000,-6.9890428,-183.9034
4417000000,-6.9484763,-183.93803
4418000000,-6.9827986,-184.18411
4419000000,-6.9597154,-184.06731
4420000000,-6.9608073,-184.14101
4421000000,-6.9965577,-184.07503
4422000000,-6.9684582,-184.14558
4423000000,-6.9544902,-184.16692
4424000000,-6.9507761,-184.32797
4425000000,-6.9645138,-184.43622
4426000000,-6.9625397,-184.63596
4427000000,-6.9807763,-184.56241
4428000000,-6.9663396,-184.54105
4429000000,-6.9671726,-184.71564
4430000000,-6.9614301,-184.85492
4431000000,-6.9676194,-184.85197
4432000000,-6.9887695,-184.88008
4433000000,-6.9110489,-184.83438
4434000000,-6.9573736,-184.90021
4435000000,-6.9446917,-185.00914
4436000000,-6.943768,-185.02351
4437000000,-6.9425392,-185.18602
4438000000,-6.9384222,-185.28319
4439000000,-6.9311924,-185.25644
4440000000,-6.9214425,-185.23502
4441000000,-6.9494143,-185.47954
4442000000,-6.9605613,-185.4702
4443000000,-6.9457083,-185.59552
4444000000,-6.9415083,-185.50345
4445000000,-6.9136424,-185.68523
4446000000,-6.9416203,-185.75258
4447000000,-6.94627,-185.82941
4448000000,-6.9141297,-185.87715
4449000000,-6.9354506,-185.90439
4450000000,-6.9042177,-185.97928
4451000000,-6.9264565,-185.84398
4452000000,-6.9409742,-186.09723
4453000000,-6.9162946,-186.07693
4454000000,-6.8995042,-186.1382
4455000000,-6.9060826,-186.38635
4456000000,-6.8991022,-186.25591
4457000000,-6.8999524,-186.29968
4458000000,-6.9121151,-186.30565
4459000000,-6.9270558,-186.48747
4460000000,-6.8976431,-186.39592
4461000000,-6.9014392,-186.29868
4462000000,-6.9104657,-186.74034
4463000000,-6.8882384,-186.66154
4464000000,-6.8957577,-186.8212
4465000000,-6.9077249,-186.83325
4466000000,-6.9285169,-186.88995
4467000000,-6.9295039,-186.96608
4468000000,-6.8899355,-186.98366
4469000000,-6.8735294,-187.0361
4470000000,-6.8784957,-187.18381
4471000000,-6.8776431,-187.2301
4472000000,-6.9010143,-187.397
4473000000,-6.8705626,-187.27464
4474000000,-6.8876605,-187.40965
4475000000,-6.8692374,-187.49947
4476000000,-6.8878574,-187.57532
4477000000,-6.882637,-187.54819
4478000000,-6.8647466,-187.63785
4479000000,-6.8691792,-187.61465
4480000000,-6.8697071,-187.72327
4481000000,-6.8686256,-187.77493
4482000000,-6.8979249,-187.74638
4483000000,-6.8691545,-187.87741
4484000000,-6.8654227,-187.91377
4485000000,-6.88939,-187.89882
4486000000,-6.8680067,-188.13646
4487000000,-6.8543634,-188.14937
4488000000,-6.8769078,-188.28828
4489000000,-6.8556166,-188.27209
4490000000,-6.8460526,-188.37679
4491000000,-6.8446832,-188.53131
4492000000,-6.8427482,-188.5125
4493000000,-6.8552523,-188.74449
4494000000,-6.8648372,-188.63138
4495000000,-6.8686748,-188.62013
4496000000,-6.844028,-188.76945
4497000000,-6.8533654,-188.84956
4498000000,-6.8649154,-188.79921
4499000000,-6.8397489,-188.78059
4500000000,-6.8582439,-189.16328
4501000000,-6.8496938,-189.01009
4502000000,-6.8397655,-189.10344
4503000000,-6.8532853,-189.30219
4504000000,-6.855597,-189.11807
4505000000,-6.8440247,-189.33578
4506000000,-6.8640051,-189.45532
4507000000,-6.8512235,-189.43765
4508000000,-6.8182287,-189.4082
4509000000,-6.8163061,-189.54201
4510000000,-6.8303657,-189.44817
4511000000,-6.8266501,-189.76167
4512000000,-6.8461237,-189.73796
4513000000,-6.8383703,-189.76331
4514000000,-6.8606133,-190.0639
4515000000,-6.8377872,-190.04388
4516000000,-6.8280611,-190.12833
4517000000,-6.8075347,-190.07274
4518000000,-6.8241243,-190.13934
4519000000,-6.8182616,-190.26144
4520000000,-6.8375258,-190.21849
4521000000,-6.8269987,-190.28506
4522000000,-6.8225412,-190.32704
4523000000,-6.8178535,-190.40457
4524000000,-6.8418822,-190.43019
4525000000,-6.8223281,-190.4247
4526000000,-6.8593297,-190.52165
4527000000,-6.7989497,-190.7374
4528000000,-6.8040915,-190.64543
4529000000,-6.8043504,-190.80641
4530000000,-6.7938113,-190.91063
4531000000,-6.8024364,-190.99074
4532000000,-6.8138704,-190.8497
4533000000,-6.8061371,-191.02805
4534000000,-6.811914,-191.19295
4535000000,-6.8059845,-191.23778
4536000000,-6.7998314,-191.36945
4537000000,-6.8023195,-191.35928
4538000000,-6.7974219,-191.37814
4539000000,-6.824594,-191.37288
4540000000,-6.7812214,-191.46031
4541000000,-6.7890248,-191.58578
4542000000,-6.7997441,-191.57523
4543000000,-6.7541494,-191.64258
4544000000,-6.7877569,-191.70381
4545000000,-6.7978287,-191.69905
4546000000,-6.7837248,-191.93158
4547000000,-6.7550054,-191.93222
4548000000,-6.7571616,-191.90251
4549000000,-6.7897587,-192.11925
4550000000,-6.7732482,-192.1694
4551000000,-6.7816396,-192.09897
4552000000,-6.7773638,-192.14885
4553000000,-6.7587357,-192.24606
4554000000,-6.7548122,-192.41217
4555000000,-6.7723603,-192.39651
4556000000,-6.7532101,-192.45598
4557000000,-6.7706318,-192.53082
4558000000,-6.760633,-192.66039
4559000000,-6.7652521,-192.67993
4560000000,-6.7691865,-192.71953
4561000000,-6.7619438,-192.96693
4562000000,-6.7652144,-192.89786
4563000000,-6.7556195,-192.94768
4564000000,-6.7671785,-192.89644
4565000000,-6.7589793,-193.0571
4566000000,-6.7585101,-193.12389
4567000000,-6.7420363,-193.26601
4568000000,-6.7390695,-193.2066
4569000000,-6.7547121,-193.27159
4570000000,-6.7613664,-193.31006
4571000000,-6.7223053,-193.57034
4572000000,-6.7511406,-193.40677
4573000000,-6.7123418,-193.58574
4574000000,-6.7418413,-193.44948
4575000000,-6.7450829,-193.57028
4576000000,-6.7277222,-193.76175
4577000000,-6.7462106,-193.84164
4578000000,-6.7402711,-193.63774
4579000000,-6.7186532,-194.02937
4580000000,-6.7194648,-194.07994
4581000000,-6.7280869,-194.12906
4582000000,-6.7154236,-194.14577
4583000000,-6.727118,-194.17476
4584000000,-6.7044497,-194.36665
4585000000,-6.7240434,-194.29961
4586000000,-6.7368979,-194.45575
4587000000,-6.7145391,-194.24866
4588000000,-6.6987062,-194.38354
4589000000,-6.7044473,-194.51663
4590000000,-6.7186952,-194.59341
4591000000,-6.7328577,-194.70824
4592000000,-6.7105904,-194.85393
4593000000,-6.7063365,-194.80115
4594000000,-6.700222,-194.97591
4595000000,-6.7087502,-194.83827
4596000000,-6.7046142,-195.17552
4597000000,-6.7065883,-194.95242
4598000000,-6.679533,-194.99046
4599000000,-6.7028952,-195.12926
4600000000,-6.6885552,-195.26489
4601000000,-6.6939635,-195.2816
4602000000,-6.693944,-195.43442
4603000000,-6.676393,-195.34908
4604000000,-6.706821,-195.52473
4605000000,-6.6711497,-195.4485
4606000000,-6.6963305,-195.72998
4607000000,-6.6835399,-195.64519
4608000000,-6.6930289,-195.73753
4609000000,-6.6771803,-195.84232
4610000000,-6.6683264,-196.00995
4611000000,-6.6667852,-195.93321
4612000000,-6.6901636,-196.09129
4613000000,-6.68889,-196.15463
4614000000,-6.6741014,-196.20671
4615000000,-6.6878548,-196.24443
4616000000,-6.6512032,-196.1433
4617000000,-6.6547236,-196.25084
4618000000,-6.6783314,-196.33368
4619000000,-6.6737695,-196.44978
4620000000,-6.6883078,-196.72182
4621000000,-6.6712165,-196.68622
4622000000,-6.6708941,-196.70842
4623000000,-6.6721125,-196.65224
4624000000,-6.6809559,-196.74924
4625000000,-6.6513577,-196.7738
4626000000,-6.6550064,-196.93242
4627000000,-6.6637421,-196.98325
4628000000,-6.6392488,-197.08798
4629000000,-6.6353374,-197.15236
4630000000,-6.663703,-197.37773
4631000000,-6.6550527,-197.24268
4632000000,-6.6404352,-197.40094
4633000000,-6.644753,-197.34996
4634000000,-6.6150193,-197.46262
4635000000,-6.6418386,-197.51454
4636000000,-6.6522632,-197.39371
4637000000,-6.6380978,-197.70979
4638000000,-6.6730342,-197.81024
4639000000,-6.6189046,-197.72549
4640000000,-6.6353025,-198.00204
4641000000,-6.6432638,-197.88622
4642000000,-6.6203661,-197.89455
4643000000,-6.6468797,-198.11533
4644000000,-6.6397357,-198.13748
4645000000,-6.6327682,-198.0976
4646000000,-6.6480889,-198.25739
4647000000,-6.6342287,-198.33824
4648000000,-6.5981522,-198.45782
4649000000,-6.6012092,-198.42436
4650000000,-6.6168132,-198.55592
4651000000,-6.6141677,-198.55386
4652000000,-6.6090622,-198.59186
4653000000,-6.5972199,-198.56137
4654000000,-6.6344433,-198.60661
4655000000,-6.6133356,-198.7462
4656000000,-6.5970664,-199.05986
4657000000,-6.6122098,-199.0184
4658000000,-6.6176658,-198.89877
4659000000,-6.5950484,-199.0722
4660000000,-6.5898466,-199.12
4661000000,-6.5841556,-199.13147
4662000000,-6.6020985,-199.37227
4663000000,-6.5977035,-199.37878
4664000000,-6.6017919,-199.39941
4665000000,-6.5961986,-199.60992
4666000000,-6.6042829,-199.58304
4667000000,-6.5949426,-199.70551
4668000000,-6.5946565,-199.52777
4669000000,-6.6309156,-199.80133
4670000000,-6.5900645,-199.84334
4671000000,-6.6138387,-199.89003
4672000000,-6.5868392,-200.03609
4673000000,-6.5845623,-199.93359
4674000000,-6.5821791,-200.03552
4675000000,-6.6058979,-200.06065
4676000000,-6.592598,-200.33301
4677000000,-6.5824561,-200.21597
4678000000,-6.5735621,-200.24577
4679000000,-6.5887389,-200.41205
4680000000,-6.5881109,-200.38884
4681000000,-6.5768266,-200.47122
4682000000,-6.5692277,-200.68968
4683000000,-6.591815,-200.62144
4684000000,-6.5768166,-200.56816
4685000000,-6.5840821,-200.8112
4686000000,-6.5689802,-200.84225
4687000000,-6.5658188,-200.74896
4688000000,-6.5683141,-200.91855
4689000000,-6.5915179,-200.98622
4690000000,-6.5766077,-201.22621
4691000000,-6.5645671,-201.24651
4692000000,-6.5807872,-201.30055
4693000000,-6.5872016,-201.34103
4694000000,-6.5679255,-201.4549
4695000000,-6.5611286,-201.35788
4696000000,-6.5657344,-201.56761
4697000000,-6.5759172,-201.5835
4698000000,-6.561677,-201.66916
4699000000,-6.5434966,-201.64938
4700000000,-6.5527115,-201.84132
4701000000,-6.5681443,-201.69824
4702000000,-6.5569539,-201.91084
4703000000,-6.5645695,-202.00482
4704000000,-6.5525599,-202.28363
4705000000,-6.5412626,-201.98579
4706000000,-6.56317,-202.32593
4707000000,-6.5332708,-202.23296
4708000000,-6.5411215,-202.35196
4709000000,-6.5269804,-202.40366
4710000000,-6.5115771,-202.32271
4711000000,-6.5497746,-202.40282
4712000000,-6.5690603,-202.6937
4713000000,-6.567276,-202.63416
4714000000,-6.5583382,-202.726
4715000000,-6.5402727,-202.69447
4716000000,-6.5268388,-202.82527
4717000000,-6.5362048,-202.97612
4718000000,-6.5031443,-202.95354
4719000000,-6.5560589,-203.0937
4720000000,-6.5347214,-203.31781
4721000000,-6.5248699,-203.16272
4722000000,-6.53229,-203.19998
4723000000,-6.5128922,-203.2547
4724000000,-6.5140672,-203.20436
4725000000,-6.5229197,-203.46819
4726000000,-6.5452414,-203.51955
4727000000,-6.5287595,-203.68639
4728000000,-6.5323968,-203.56548
4729000000,-6.5337291,-203.63873
4730000000,-6.5246439,-203.84419
4731000000,-6.5083275,-203.77164
4732000000,-6.5157547,-203.70467
4733000000,-6.5351291,-203.95569
4734000000,-6.497334,-204.06081
4735000000,-6.5043101,-204.02174
4736000000,-6.5136132,-204.14333
4737000000,-6.5003242,-204.17882
4738000000,-6.5066833,-204.25754
4739000000,-6.4965134,-204.13922
4740000000,-6.5149827,-204.4874
4741000000,-6.4898801,-204.4861
4742000000,-6.4855328,-204.51689
4743000000,-6.5214825,-204.62218
4744000000,-6.5164971,-204.66652
4745000000,-6.4949861,-204.83278
4746000000,-6.4787316,-204.82655
4747000000,-6.483572,-204.91089
4748000000,-6.4701977,-205.05629
4749000000,-6.4677796,-205.02217
4750000000,-6.470005,-205.12723
4751000000,-6.5164008,-205.17075
4752000000,-6.4731555,-205.21448
4753000000,-6.441412,-205.32265
4754000000,-6.4638262,-205.3454
4755000000,-6.4907608,-205.44008
4756000000,-6.4846368,-205.51677
4757000000,-6.4629683,-205.43559
4758000000,-6.4884248,-205.50496
4759000000,-6.476862,-205.50595
4760000000,-6.467227,-205.64198
4761000000,-6.4745917,-205.73499
4762000000,-6.5082803,-205.92577
4763000000,-6.4808154,-205.90381
4764000000,-6.5034332,-206.08981
4765000000,-6.4816093,-205.99573
4766000000,-6.4734435,-206.25485
4767000000,-6.4767709,-206.02834
4768000000,-6.4966578,-206.18306
4769000000,-6.4787006,-206.37206
4770000000,-6.4457521,-206.4133
4771000000,-6.4562435,-206.36217
4772000000,-6.4362721,-206.66748
4773000000,-6.4612956,-206.58347
4774000000,-6.4599695,-206.69627
4775000000,-6.4077506,-206.80217
4776000000,-6.4659338,-206.85564
4777000000,-6.4502935,-206.82426
4778000000,-6.4429121,-206.86583
4779000000,-6.4338694,-206.9774
4780000000,-6.4571943,-207.05254
4781000000,-6.4394641,-207.01707
4782000000,-6.4394021,-207.17342
4783000000,-6.4288716,-207.29129
4784000000,-6.433475,-207.34178
4785000000,-6.4343228,-207.45016
4786000000,-6.4324274,-207.44003
4787000000,-6.4009881,-207.71306
4788000000,-6.4338827,-207.61615
4789000000,-6.4600573,-207.72911
4790000000,-6.4111447,-207.79549
4791000000,-6.4479036,-207.81689
4792000000,-6.4387579,-207.6871
4793000000,-6.4224892,-207.96227
4794000000,-6.4172783,-207.86917
4795000000,-6.3988686,-208.07854
4796000000,-6.4482408,-208.22101
4797000000,-6.4050288,-208.16228
4798000000,-6.3882828,-208.16049
4799000000,-6.4288468,-208.43402
4800000000,-6.3956599,-208.36641
4801000000,-6.4227886,-208.43878
4802000000,-6.4045215,-208.41455
4803000000,-6.4038048,-208.54004
4804000000,-6.3998485,-208.77603
4805000000,-6.399519,-208.6507
4806000000,-6.3957744,-208.65511
4807000000,-6.3885765,-208.86751
4808000000,-6.3870082,-209.0667
4809000000,-6.4062204,-209.00369
4810000000,-6.3938231,-209.16408
4811000000,-6.3952131,-209.10066
4812000000,-6.3644981,-209.35107
4813000000,-6.3966832,-209.17297
4814000000,-6.3813648,-209.34502
4815000000,-6.396842,-209.33406
4816000000,-6.3937097,-209.46341
4817000000,-6.4096284,-209.75029
4818000000,-6.3857818,-209.43561
4819000000,-6.3720384,-209.89467
4820000000,-6.3701334,-209.68573
4821000000,-6.3731203,-209.93832
4822000000,-6.3759284,-209.95483
4823000000,-6.3634238,-210.21574
4824000000,-6.3916197,-210.10497
4825000000,-6.3912935,-210.14543
4826000000,-6.3582096,-210.2821
4827000000,-6.3762426,-210.2178
4828000000,-6.3445101,-210.50598
4829000000,-6.3699474,-210.53865
4830000000,-6.3680453,-210.41519
4831000000,-6.3514781,-210.63918
4832000000,-6.3336935,-210.62669
4833000000,-6.3782005,-210.70595
4834000000,-6.3512144,-210.90741
4835000000,-6.3277497,-210.76025
4836000000,-6.3623147,-210.89314
4837000000,-6.362216,-210.96455
4838000000,-6.3321724,-210.95973
4839000000,-6.3716836,-211.12263
4840000000,-6.3562799,-211.09685
4841000000,-6.3457165,-211.39102
4842000000,-6.3341789,-211.26537
4843000000,-6.3377094,-211.36929
4844000000,-6.3080339,-211.43413
4845000000,-6.3242078,-211.61446
4846000000,-6.3234711,-211.70598
4847000000,-6.3656392,-211.69521
4848000000,-6.3446722,-211.67902
4849000000,-6.3230515,-211.93115
4850000000,-6.3186088,-211.80721
4851000000,-6.332767,-212.04158
4852000000,-6.3336973,-212.23247
4853000000,-6.3161111,-212.00949
4854000000,-6.3241358,-212.03467
4855000000,-6.3081222,-212.31624
4856000000,-6.3263855,-212.45395
4857000000,-6.2978959,-212.41777
4858000000,-6.3300905,-212.42105
4859000000,-6.3158641,-212.65512
4860000000,-6.3198824,-212.49651
4861000000,-6.2810879,-212.64896
4862000000,-6.2962871,-212.8663
4863000000,-6.3136787,-212.82437
4864000000,-6.3170376,-212.72784
4865000000,-6.3269892,-213.15404
4866000000,-6.3037896,-213.07411
4867000000,-6.290513,-213.06145
4868000000,-6.3002253,-213.16055
4869000000,-6.3214016,-213.26225
4870000000,-6.3275204,-213.58189
4871000000,-6.2851434,-213.56575
4872000000,-6.3195734,-213.54984
4873000000,-6.29881,-213.58606
4874000000,-6.3128943,-213.43645
4875000000,-6.2924995,-213.81306
4876000000,-6.2820883,-213.68492
4877000000,-6.2971992,-214.01901
4878000000,-6.3008833,-213.94762
4879000000,-6.2766004,-214.17683
4880000000,-6.2847433,-214.09613
4881000000,-6.3018508,-214.2308
4882000000,-6.2889757,-214.14828
4883000000,-6.2702994,-214.32027
4884000000,-6.2670503,-214.43806
4885000000,-6.2902989,-214.36644
4886000000,-6.2958937,-214.56696
4887000000,-6.2902341,-214.69849
4888000000,-6.2680888,-214.86453
4889000000,-6.3031445,-214.7625
4890000000,-6.2737799,-214.86671
4891000000,-6.2978992,-214.92909
4892000000,-6.2870235,-214.97321
4893000000,-6.2680702,-215.18236
4894000000,-6.3057356,-215.3221
4895000000,-6.2848878,-215.18639
4896000000,-6.2870331,-215.35278
4897000000,-6.2687201,-215.4751
4898000000,-6.2885666,-215.30417
4899000000,-6.2911906,-215.39798
4900000000,-6.2910347,-215.49144
4901000000,-6.2989807,-215.81693
4902000000,-6.2797971,-215.66122
4903000000,-6.2588835,-215.70474
4904000000,-6.2872467,-215.79721
4905000000,-6.2663422,-215.93047
4906000000,-6.2693424,-216.02753
4907000000,-6.2701349,-216.14548
4908000000,-6.2832327,-216.14534
4909000000,-6.2835159,-216.29633
4910000000,-6.2681475,-216.5009
4911000000,-6.2995529,-216.4249
4912000000,-6.2515812,-216.51286
4913000000,-6.277544,-216.70886
4914000000,-6.2792459,-216.70943
4915000000,-6.2586136,-216.7419
4916000000,-6.3040791,-216.9397
4917000000,-6.2949729,-216.83852
4918000000,-6.2602797,-216.98914
4919000000,-6.2551756,-217.09641
4920000000,-6.2548633,-217.16838
4921000000,-6.2855539,-217.23761
4922000000,-6.2832174,-217.31488
4923000000,-6.2837834,-217.43198
4924000000,-6.2640176,-217.4964
4925000000,-6.2647567,-217.69794
4926000000,-6.2851224,-217.56181
4927000000,-6.2997851,-217.64828
4928000000,-6.2802186,-217.58398
4929000000,-6.2646546,-217.92256
4930000000,-6.270576,-217.84264
4931000000,-6.2585435,-217.94214
4932000000,-6.2863903,-217.98167
4933000000,-6.2517929,-218.02678
4934000000,-6.2585797,-218.03941
4935000000,-6.2571826,-218.27107
4936000000,-6.2594924,-218.38933
4937000000,-6.2471523,-218.28448
4938000000,-6.2748647,-218.57965
4939000000,-6.2612753,-218.5108
4940000000,-6.2736392,-218.74413
4941000000,-6.2815695,-218.56412
4942000000,-6.2970223,-218.7005
4943000000,-6.2598953,-218.78671
4944000000,-6.2631345,-218.63676
4945000000,-6.2756557,-219.06989
4946000000,-6.2828264,-218.89919
4947000000,-6.286437,-219.1667
4948000000,-6.2603865,-219.2317
4949000000,-6.2806473,-219.09753
4950000000,-6.281249,-219.34828
4951000000,-6.302063,-219.27655
4952000000,-6.2669163,-219.41077
4953000000,-6.2613797,-219.48274
4954000000,-6.2418103,-219.56294
4955000000,-6.2580585,-219.59094
4956000000,-6.2491341,-219.70486
4957000000,-6.2644634,-219.85101
4958000000,-6.2707973,-219.92778
4959000000,-6.2601933,-219.94339
4960000000,-6.2825189,-220.02705
4961000000,-6.2684283,-220.00632
4962000000,-6.2542772,-220.20753
4963000000,-6.2483501,-220.14308
4964000000,-6.2177844,-220.23615
4965000000,-6.265717,-220.33382
4966000000,-6.2272553,-220.31859
4967000000,-6.2650871,-220.33441
4968000000,-6.2654762,-220.58276
4969000000,-6.2471724,-220.55104
4970000000,-6.2500658,-220.63947
4971000000,-6.2614794,-220.72115
4972000000,-6.2499866,-220.70778
4973000000,-6.2760129,-220.92883
4974000000,-6.2621708,-220.85725
4975000000,-6.25178,-221.00757
4976000000,-6.2577786,-221.02051
4977000000,-6.2512145,-221.26512
4978000000,-6.2287841,-221.23096
4979000000,-6.2799625,-221.29358
4980000000,-6.2569833,-221.34187
4981000000,-6.2541451,-221.47427
4982000000,-6.2272053,-221.35866
4983000000,-6.2285218,-221.59433
4984000000,-6.2336879,-221.55803
4985000000,-6.2457051,-221.70647
4986000000,-6.2485976,-221.74191
4987000000,-6.2682614,-221.69939
4988000000,-6.2282071,-221.83278
4989000000,-6.2536769,-221.91325
4990000000,-6.2638321,-222.07896
4991000000,-6.2640142,-221.96858
4992000000,-6.2505689,-222.18828
4993000000,-6.2338943,-222.39375
4994000000,-6.2492933,-222.48981
4995000000,-6.256856,-222.30588
4996000000,-6.2324648,-222.40604
4997000000,-6.2377706,-222.52931
4998000000,-6.231616,-222.45882
4999000000,-6.2525182,-222.67073
5000000000,-6.22932,-222.83611
END

