!CSV A.01.01
!Agilent Technologies,E8362C,MY49020225,A.09.42.22
!Agilent E8362C: A.09.42.22
!Date: Tuesday, March 08, 2016 15:25:51
!Source: Standard

BEGIN CH1_DATA
Freq(Hz),S22 Log Mag(dB),S22 Phase(°)
1000000000,-10.930903,92.541748
1001000000,-10.987521,92.567764
1002000000,-11.012508,92.548782
1003000000,-10.991899,92.384621
1004000000,-11.020203,92.054932
1005000000,-11.057718,92.266708
1006000000,-11.044017,91.843376
1007000000,-11.087819,91.857903
1008000000,-11.04544,91.648415
1009000000,-11.082186,91.704369
1010000000,-11.10241,91.609802
1011000000,-11.108741,91.440063
1012000000,-11.136457,91.599464
1013000000,-11.184651,91.328529
1014000000,-11.215725,91.210114
1015000000,-11.14613,91.333916
1016000000,-11.189468,90.948639
1017000000,-11.217411,90.855194
1018000000,-11.265887,90.724693
1019000000,-11.258414,90.828659
1020000000,-11.30047,90.494919
1021000000,-11.294121,90.660141
1022000000,-11.308737,90.382614
1023000000,-11.299639,90.197433
1024000000,-11.338431,90.130577
1025000000,-11.383286,90.01339
1026000000,-11.348786,90.044212
1027000000,-11.374321,89.745239
1028000000,-11.412807,89.709862
1029000000,-11.435217,89.433434
1030000000,-11.435358,89.393944
1031000000,-11.423741,89.576294
1032000000,-11.452751,89.272186
1033000000,-11.473334,89.207565
1034000000,-11.473856,89.094055
1035000000,-11.527229,88.938789
1036000000,-11.551644,88.734116
1037000000,-11.548045,88.496956
1038000000,-11.548675,88.485474
1039000000,-11.535129,88.200859
1040000000,-11.568441,87.958328
1041000000,-11.59677,88.123039
1042000000,-11.635574,88.182083
1043000000,-11.588,88.093048
1044000000,-11.617673,87.931801
1045000000,-11.672144,87.743134
1046000000,-11.675427,87.400368
1047000000,-11.654202,87.501747
1048000000,-11.71086,87.708588
1049000000,-11.719254,87.327713
1050000000,-11.717004,87.252357
1051000000,-11.715033,87.111603
1052000000,-11.754237,87.005905
1053000000,-11.74315,86.938004
1054000000,-11.785465,86.686363
1055000000,-11.797523,86.657005
1056000000,-11.781026,86.662949
1057000000,-11.793333,86.383018
1058000000,-11.867849,86.609406
1059000000,-11.864545,86.387489
1060000000,-11.873174,85.819305
1061000000,-11.917826,86.190514
1062000000,-11.894399,86.151688
1063000000,-11.88366,85.78405
1064000000,-11.947609,85.899544
1065000000,-11.938257,85.732719
1066000000,-11.956166,85.590668
1067000000,-11.983307,85.414604
1068000000,-12.024911,85.096764
1069000000,-12.026273,85.184204
1070000000,-12.067506,85.358047
1071000000,-12.024836,85.078232
1072000000,-12.08534,85.163475
1073000000,-12.08484,85.090233
1074000000,-12.13499,84.866707
1075000000,-12.136518,84.590797
1076000000,-12.138799,84.782936
1077000000,-12.206723,84.213425
1078000000,-12.175266,84.369484
1079000000,-12.202793,84.334648
1080000000,-12.219142,84.266487
1081000000,-12.265414,84.016747
1082000000,-12.224333,84.09433
1083000000,-12.261549,83.666229
1084000000,-12.303578,83.95536
1085000000,-12.324922,83.720772
1086000000,-12.332075,83.47892
1087000000,-12.330159,83.484344
1088000000,-12.367362,83.245018
1089000000,-12.383147,83.333168
1090000000,-12.354875,83.29258
1091000000,-12.409737,83.315063
1092000000,-12.458972,82.944
1093000000,-12.44655,82.799782
1094000000,-12.496449,82.693855
1095000000,-12.505836,82.477951
1096000000,-12.536291,82.417923
1097000000,-12.536193,82.360535
1098000000,-12.526438,81.966713
1099000000,-12.538545,82.098099
1100000000,-12.624815,82.053802
1101000000,-12.626075,82.041252
1102000000,-12.668464,81.850128
1103000000,-12.678668,81.888123
1104000000,-12.678459,81.895172
1105000000,-12.719204,81.566833
1106000000,-12.704473,81.603142
1107000000,-12.746101,81.324448
1108000000,-12.77954,81.222908
1109000000,-12.795933,81.239113
1110000000,-12.811255,80.575096
1111000000,-12.852796,80.913437
1112000000,-12.84136,80.512207
1113000000,-12.885521,80.735489
1114000000,-12.861771,80.551682
1115000000,-12.909768,80.110107
1116000000,-12.948167,80.045074
1117000000,-12.951998,80.132538
1118000000,-12.996731,79.890068
1119000000,-13.020425,79.942535
1120000000,-13.052306,79.895508
1121000000,-13.079587,79.733826
1122000000,-13.057508,79.568199
1123000000,-13.106065,79.719116
1124000000,-13.110168,79.245209
1125000000,-13.128611,79.042572
1126000000,-13.152217,79.279205
1127000000,-13.199745,79.234352
1128000000,-13.153053,78.888214
1129000000,-13.279607,78.736839
1130000000,-13.249386,78.925255
1131000000,-13.297416,78.2761
1132000000,-13.261535,78.708778
1133000000,-13.328335,78.208572
1134000000,-13.325243,77.938683
1135000000,-13.359515,78.320641
1136000000,-13.400002,77.82103
1137000000,-13.417407,77.990868
1138000000,-13.439708,77.759819
1139000000,-13.428802,77.491592
1140000000,-13.463037,77.530006
1141000000,-13.50456,77.692261
1142000000,-13.548901,77.165489
1143000000,-13.505291,77.168068
1144000000,-13.574002,77.215569
1145000000,-13.611111,76.921875
1146000000,-13.584972,76.594894
1147000000,-13.594149,76.5168
1148000000,-13.627263,76.532639
1149000000,-13.645718,76.705681
1150000000,-13.681433,76.708839
1151000000,-13.720596,76.487686
1152000000,-13.733259,76.15873
1153000000,-13.779967,76.414207
1154000000,-13.758404,76.11689
1155000000,-13.839528,76.089104
1156000000,-13.84905,75.930443
1157000000,-13.878798,75.841438
1158000000,-13.890786,75.575005
1159000000,-13.916877,75.685928
1160000000,-13.956418,75.326874
1161000000,-13.931711,75.553925
1162000000,-14.007255,75.177246
1163000000,-14.044711,75.24865
1164000000,-14.058942,74.943855
1165000000,-14.084398,75.063309
1166000000,-14.132595,74.737564
1167000000,-14.100634,74.672592
1168000000,-14.176698,74.864769
1169000000,-14.18724,74.759941
1170000000,-14.210065,74.421463
1171000000,-14.236758,74.358543
1172000000,-14.3003,74.431953
1173000000,-14.275702,74.35675
1174000000,-14.319696,74.23703
1175000000,-14.358027,74.213737
1176000000,-14.416862,73.963036
1177000000,-14.45356,73.958076
1178000000,-14.439653,73.685234
1179000000,-14.466558,73.540436
1180000000,-14.473047,73.609245
1181000000,-14.536185,73.704407
1182000000,-14.619544,73.127808
1183000000,-14.610319,73.001778
1184000000,-14.639788,73.169891
1185000000,-14.651916,72.915337
1186000000,-14.701802,72.886398
1187000000,-14.794217,72.73452
1188000000,-14.779372,72.653801
1189000000,-14.844428,72.423264
1190000000,-14.818203,72.445313
1191000000,-14.894415,72.264496
1192000000,-14.882432,72.101692
1193000000,-14.891235,72.071159
1194000000,-14.924151,71.828903
1195000000,-14.994526,71.791008
1196000000,-15.052389,71.710602
1197000000,-15.033717,71.16153
1198000000,-15.077983,71.291748
1199000000,-15.101449,71.268219
1200000000,-15.135208,70.693192
1201000000,-15.137532,71.132332
1202000000,-15.179616,70.525246
1203000000,-15.229471,70.611877
1204000000,-15.281912,70.464417
1205000000,-15.29298,70.480316
1206000000,-15.357149,70.478668
1207000000,-15.380435,70.536331
1208000000,-15.405677,70.354408
1209000000,-15.465613,70.198936
1210000000,-15.414237,69.878433
1211000000,-15.512677,69.944481
1212000000,-15.525446,70.009377
1213000000,-15.53488,69.47496
1214000000,-15.565172,69.612129
1215000000,-15.611825,69.18969
1216000000,-15.654854,69.494522
1217000000,-15.654173,69.155891
1218000000,-15.742019,69.007469
1219000000,-15.774569,68.87809
1220000000,-15.802177,68.980583
1221000000,-15.821028,68.953117
1222000000,-15.854444,68.810547
1223000000,-15.894844,68.836189
1224000000,-15.895182,68.583374
1225000000,-16.008682,68.525352
1226000000,-15.976637,68.205521
1227000000,-15.993281,68.267929
1228000000,-16.088068,67.995056
1229000000,-16.071192,67.831398
1230000000,-16.115971,67.752586
1231000000,-16.18816,67.981766
1232000000,-16.205656,67.436729
1233000000,-16.207718,67.495605
1234000000,-16.291611,67.156281
1235000000,-16.309183,67.57093
1236000000,-16.363079,67.547379
1237000000,-16.415663,67.398521
1238000000,-16.404844,67.423058
1239000000,-16.455265,67.103996
1240000000,-16.548227,66.808243
1241000000,-16.538641,66.772934
1242000000,-16.57547,66.716385
1243000000,-16.611919,66.289772
1244000000,-16.697815,66.481529
1245000000,-16.735519,66.700287
1246000000,-16.703022,66.456802
1247000000,-16.819309,66.148895
1248000000,-16.755924,66.271706
1249000000,-16.853296,66.105934
1250000000,-16.915012,66.306053
1251000000,-16.927343,65.76889
1252000000,-16.990765,65.715729
1253000000,-17.02685,65.807503
1254000000,-17.039759,65.66906
1255000000,-17.067291,65.517044
1256000000,-17.091635,65.653351
1257000000,-17.201004,65.653961
1258000000,-17.170614,65.296272
1259000000,-17.220665,65.306198
1260000000,-17.315479,65.228806
1261000000,-17.338678,65.215591
1262000000,-17.377472,65.179047
1263000000,-17.467962,64.99131
1264000000,-17.450287,65.029625
1265000000,-17.542654,64.917122
1266000000,-17.600571,65.083305
1267000000,-17.640638,64.673752
1268000000,-17.668434,64.608131
1269000000,-17.679302,64.524666
1270000000,-17.7684,64.65625
1271000000,-17.859398,64.390144
1272000000,-17.867403,64.301117
1273000000,-17.913712,64.171616
1274000000,-17.927086,64.36264
1275000000,-17.951727,64.224068
1276000000,-18.054092,64.056023
1277000000,-18.145473,64.073914
1278000000,-18.183147,64.190964
1279000000,-18.232931,63.587582
1280000000,-18.318399,63.791756
1281000000,-18.310591,63.599873
1282000000,-18.382648,63.763538
1283000000,-18.433203,63.415596
1284000000,-18.49229,63.278889
1285000000,-18.542475,63.242271
1286000000,-18.608547,63.061245
1287000000,-18.653252,63.084114
1288000000,-18.689331,63.08638
1289000000,-18.767645,63.108051
1290000000,-18.828794,62.698692
1291000000,-18.874525,62.9277
1292000000,-18.913374,62.618916
1293000000,-19.035334,62.78056
1294000000,-18.999313,62.236717
1295000000,-19.080355,62.530689
1296000000,-19.116653,62.296463
1297000000,-19.21899,62.347626
1298000000,-19.267412,62.322117
1299000000,-19.292873,61.621162
1300000000,-19.370386,62.171669
1301000000,-19.407024,62.286667
1302000000,-19.421141,61.944046
1303000000,-19.574051,61.768723
1304000000,-19.611095,61.830406
1305000000,-19.636183,61.555176
1306000000,-19.68609,61.803123
1307000000,-19.742968,61.402706
1308000000,-19.791616,61.727684
1309000000,-19.841608,61.411736
1310000000,-19.902994,61.130283
1311000000,-19.954723,61.202606
1312000000,-19.979816,61.255424
1313000000,-20.097723,60.875351
1314000000,-20.136431,61.2159
1315000000,-20.184362,61.074768
1316000000,-20.260124,61.449081
1317000000,-20.282942,60.851337
1318000000,-20.376623,61.40435
1319000000,-20.383753,61.18713
1320000000,-20.486303,61.181995
1321000000,-20.573446,60.804764
1322000000,-20.632586,60.997997
1323000000,-20.703695,61.120754
1324000000,-20.770937,61.055183
1325000000,-20.864552,60.854473
1326000000,-20.910667,61.201283
1327000000,-20.978769,60.878693
1328000000,-20.985538,61.133896
1329000000,-21.12599,61.22361
1330000000,-21.139727,61.051399
1331000000,-21.190153,60.826702
1332000000,-21.283062,61.341869
1333000000,-21.333483,61.46833
1334000000,-21.409849,60.875156
1335000000,-21.502125,61.373562
1336000000,-21.615929,61.383526
1337000000,-21.700779,61.250748
1338000000,-21.707693,61.700878
1339000000,-21.765713,61.564636
1340000000,-21.850349,61.695938
1341000000,-21.955997,61.603348
1342000000,-22.007896,61.686382
1343000000,-22.100855,61.624691
1344000000,-22.201708,61.790638
1345000000,-22.286133,61.862404
1346000000,-22.386887,61.76086
1347000000,-22.510767,62.342014
1348000000,-22.519457,62.071831
1349000000,-22.604496,62.161865
1350000000,-22.737278,62.705795
1351000000,-22.766665,62.376942
1352000000,-22.862232,62.198128
1353000000,-23.002617,62.551208
1354000000,-23.134289,62.586166
1355000000,-23.12336,62.916405
1356000000,-23.24888,63.112923
1357000000,-23.40493,62.911022
1358000000,-23.382761,63.26152
1359000000,-23.563293,62.961765
1360000000,-23.622282,62.705517
1361000000,-23.725576,63.91827
1362000000,-23.828171,63.459385
1363000000,-23.894436,63.425964
1364000000,-23.946253,63.545067
1365000000,-24.032265,63.404785
1366000000,-24.226503,64.112053
1367000000,-24.302273,64.110001
1368000000,-24.394745,64.431747
1369000000,-24.454,64.653938
1370000000,-24.592262,64.748756
1371000000,-24.704184,64.751709
1372000000,-24.749182,64.892021
1373000000,-24.84082,64.723679
1374000000,-24.954477,65.531502
1375000000,-25.089445,65.924095
1376000000,-25.183897,65.762772
1377000000,-25.341314,66.308228
1378000000,-25.263931,66.770027
1379000000,-25.451139,66.817406
1380000000,-25.599922,67.209099
1381000000,-25.630764,67.85305
1382000000,-25.767942,67.344162
1383000000,-25.863077,68.109985
1384000000,-26.0324,68.96788
1385000000,-26.102242,68.799072
1386000000,-26.224812,68.476959
1387000000,-26.416842,69.320625
1388000000,-26.454517,69.887398
1389000000,-26.574535,70.135017
1390000000,-26.644489,70.777016
1391000000,-26.912571,70.97139
1392000000,-26.850954,71.083961
1393000000,-26.974302,72.721527
1394000000,-27.018335,71.908447
1395000000,-27.163847,72.947937
1396000000,-27.389313,72.840141
1397000000,-27.534792,74.057953
1398000000,-27.553024,74.688026
1399000000,-27.681158,75.6082
1400000000,-27.758528,75.949486
1401000000,-27.773529,76.380241
1402000000,-28.044907,77.486137
1403000000,-28.211014,77.681839
1404000000,-28.317892,79.319847
1405000000,-28.342926,79.078362
1406000000,-28.440376,79.551689
1407000000,-28.65477,80.537094
1408000000,-28.713871,81.31765
1409000000,-28.850618,81.972588
1410000000,-28.997223,82.525719
1411000000,-29.046637,83.699242
1412000000,-29.128893,84.079666
1413000000,-29.296621,85.815208
1414000000,-29.302483,86.233505
1415000000,-29.317839,87.055321
1416000000,-29.619234,88.358223
1417000000,-29.5567,89.03791
1418000000,-29.759735,90.852966
1419000000,-29.695469,91.001732
1420000000,-29.9067,92.469666
1421000000,-29.890869,93.529251
1422000000,-29.984173,94.67939
1423000000,-30.063,95.700706
1424000000,-30.159422,97.103294
1425000000,-30.235733,98.323326
1426000000,-30.05938,98.772072
1427000000,-30.325573,99.728058
1428000000,-30.252556,102.02394
1429000000,-30.405912,102.63667
1430000000,-30.273518,103.73079
1431000000,-30.43906,105.40923
1432000000,-30.348,106.50655
1433000000,-30.497021,108.09178
1434000000,-30.407393,110.1063
1435000000,-30.50099,110.95198
1436000000,-30.454102,112.05657
1437000000,-30.394011,112.09948
1438000000,-30.388889,113.38171
1439000000,-30.313284,115.36038
1440000000,-30.253294,116.26474
1441000000,-30.399094,118.10558
1442000000,-30.356009,118.67438
1443000000,-30.277445,120.98079
1444000000,-30.195654,121.64179
1445000000,-30.196512,123.35457
1446000000,-30.250071,123.75242
1447000000,-30.257957,124.81224
1448000000,-29.939037,127.21745
1449000000,-29.873533,127.6318
1450000000,-29.817928,129.741
1451000000,-29.769178,130.26392
1452000000,-29.732025,131.0925
1453000000,-29.831167,132.30936
1454000000,-29.545948,132.6042
1455000000,-29.588886,134.55885
1456000000,-29.442595,135.93288
1457000000,-29.261084,136.30113
1458000000,-29.341333,137.67717
1459000000,-29.218237,138.47638
1460000000,-29.131493,139.09842
1461000000,-29.068478,139.914
1462000000,-28.980877,140.3401
1463000000,-28.97776,140.70438
1464000000,-28.728638,142.33585
1465000000,-28.637972,142.67706
1466000000,-28.523731,144.00749
1467000000,-28.458887,144.96764
1468000000,-28.397312,145.69403
1469000000,-28.209166,145.74467
1470000000,-28.289896,146.43825
1471000000,-28.020891,147.47049
1472000000,-27.851299,148.73015
1473000000,-27.837557,149.05396
1474000000,-27.833305,148.44675
1475000000,-27.555407,149.7623
1476000000,-27.500008,149.19035
1477000000,-27.56114,150.54027
1478000000,-27.419827,149.93166
1479000000,-27.263586,151.13524
1480000000,-27.224375,151.73145
1481000000,-27.115597,152.13611
1482000000,-27.009518,152.43156
1483000000,-26.953424,152.35239
1484000000,-26.747189,153.12793
1485000000,-26.667854,153.05206
1486000000,-26.549404,153.77054
1487000000,-26.486168,154.27159
1488000000,-26.444557,153.92006
1489000000,-26.192825,155.03775
1490000000,-26.287239,154.49895
1491000000,-26.052103,155.10387
1492000000,-25.975054,155.25275
1493000000,-25.853333,155.67337
1494000000,-25.822107,155.13348
1495000000,-25.683598,155.9883
1496000000,-25.561077,155.73898
1497000000,-25.38883,156.13309
1498000000,-25.382368,156.48679
1499000000,-25.239813,156.34515
1500000000,-25.23214,156.48418
1501000000,-25.030344,156.36017
1502000000,-25.053762,156.39507
1503000000,-24.926491,157.50989
1504000000,-24.849966,157.91994
1505000000,-24.703934,157.58266
1506000000,-24.599058,157.99649
1507000000,-24.461441,157.79649
1508000000,-24.456774,157.63356
1509000000,-24.299734,157.886
1510000000,-24.253317,157.76189
1511000000,-24.140516,158.10878
1512000000,-24.051491,157.81689
1513000000,-23.943832,157.98175
1514000000,-23.930155,158.29839
1515000000,-23.839922,158.52664
1516000000,-23.736801,158.86394
1517000000,-23.641479,158.62178
1518000000,-23.478767,158.80405
1519000000,-23.428627,158.92734
1520000000,-23.376604,159.15059
1521000000,-23.308811,158.5992
1522000000,-23.197638,159.62788
1523000000,-23.101828,158.91069
1524000000,-23.084539,159.13101
1525000000,-22.995632,159.5282
1526000000,-22.912518,159.54456
1527000000,-22.83427,159.31158
1528000000,-22.71644,159.51263
1529000000,-22.722668,159.50964
1530000000,-22.688972,159.64563
1531000000,-22.519072,159.2598
1532000000,-22.498823,159.97157
1533000000,-22.438412,159.52
1534000000,-22.363508,159.93692
1535000000,-22.258423,159.55411
1536000000,-22.218245,160.17261
1537000000,-22.19582,159.76649
1538000000,-22.10508,159.72185
1539000000,-22.027943,159.78061
1540000000,-21.973988,159.91077
1541000000,-21.932066,159.78513
1542000000,-21.871141,159.89128
1543000000,-21.830442,159.53064
1544000000,-21.722195,159.46016
1545000000,-21.720245,159.73625
1546000000,-21.587902,159.33868
1547000000,-21.568329,159.78607
1548000000,-21.560112,159.64633
1549000000,-21.456469,159.5249
1550000000,-21.431358,159.47867
1551000000,-21.343025,159.64432
1552000000,-21.279688,159.69659
1553000000,-21.191227,159.23067
1554000000,-21.182821,159.47076
1555000000,-21.093927,159.22534
1556000000,-21.069225,159.43179
1557000000,-21.00218,158.81122
1558000000,-20.960634,159.0804
1559000000,-20.932224,158.80775
1560000000,-20.895126,159.05035
1561000000,-20.800253,158.54237
1562000000,-20.730391,158.52049
1563000000,-20.693928,159.06354
1564000000,-20.634098,158.55661
1565000000,-20.652758,158.0753
1566000000,-20.534721,158.63954
1567000000,-20.539309,158.51819
1568000000,-20.459332,158.26971
1569000000,-20.410051,158.22079
1570000000,-20.384266,157.83702
1571000000,-20.319016,157.86076
1572000000,-20.264193,158.30115
1573000000,-20.264505,157.67741
1574000000,-20.211246,157.42786
1575000000,-20.152851,157.64218
1576000000,-20.118721,157.52339
1577000000,-20.058641,157.30299
1578000000,-19.986975,157.32295
1579000000,-19.916958,157.37668
1580000000,-19.929718,156.91946
1581000000,-19.856537,157.01129
1582000000,-19.826714,156.74481
1583000000,-19.79422,156.3573
1584000000,-19.770365,156.69583
1585000000,-19.735739,156.36481
1586000000,-19.704813,156.54745
1587000000,-19.615665,156.51945
1588000000,-19.585312,156.28975
1589000000,-19.587919,156.39842
1590000000,-19.49931,155.93219
1591000000,-19.49906,155.49748
1592000000,-19.448555,155.65761
1593000000,-19.370045,155.52052
1594000000,-19.349619,155.30986
1595000000,-19.304876,155.72997
1596000000,-19.280087,154.91899
1597000000,-19.262812,154.69386
1598000000,-19.148336,154.87328
1599000000,-19.158012,154.73387
1600000000,-19.143246,154.52977
1601000000,-19.08049,154.33752
1602000000,-18.993626,154.11517
1603000000,-18.994011,154.24226
1604000000,-18.930035,154.17801
1605000000,-18.92449,154.01288
1606000000,-18.840282,153.76132
1607000000,-18.919743,153.9464
1608000000,-18.803282,153.40598
1609000000,-18.817368,153.52542
1610000000,-18.789991,153.36104
1611000000,-18.713945,153.10629
1612000000,-18.693502,152.95493
1613000000,-18.683434,152.6154
1614000000,-18.62851,152.75687
1615000000,-18.551041,152.68344
1616000000,-18.548498,152.66481
1617000000,-18.530779,152.56059
1618000000,-18.508446,152.20088
1619000000,-18.461729,152.00256
1620000000,-18.465639,152.01266
1621000000,-18.358618,151.70299
1622000000,-18.393545,151.95941
1623000000,-18.350151,151.45012
1624000000,-18.30965,151.76286
1625000000,-18.253031,151.15887
1626000000,-18.214811,151.42807
1627000000,-18.248539,151.36331
1628000000,-18.198917,150.95682
1629000000,-18.169115,150.8528
1630000000,-18.132427,150.8046
1631000000,-18.130198,150.55437
1632000000,-18.075642,150.83362
1633000000,-18.074121,150.46404
1634000000,-18.043905,150.19267
1635000000,-17.981762,149.89091
1636000000,-17.970692,149.92163
1637000000,-17.978586,150.28958
1638000000,-17.932089,149.88972
1639000000,-17.888222,149.74699
1640000000,-17.864614,149.50883
1641000000,-17.889177,149.6433
1642000000,-17.860168,149.06618
1643000000,-17.811111,149.14735
1644000000,-17.811375,148.90335
1645000000,-17.775856,148.70396
1646000000,-17.758503,148.78482
1647000000,-17.720272,149.05319
1648000000,-17.717869,148.10146
1649000000,-17.702309,148.15405
1650000000,-17.652145,148.17789
1651000000,-17.660555,147.97481
1652000000,-17.660957,148.05063
1653000000,-17.586428,147.51764
1654000000,-17.585218,147.45038
1655000000,-17.542892,147.66562
1656000000,-17.56428,147.43622
1657000000,-17.571325,147.16563
1658000000,-17.534615,146.90854
1659000000,-17.566965,146.94031
1660000000,-17.527246,146.72469
1661000000,-17.459829,146.53583
1662000000,-17.435274,146.66179
1663000000,-17.507513,146.25038
1664000000,-17.419102,146.3246
1665000000,-17.411085,145.86421
1666000000,-17.359694,146.00464
1667000000,-17.342419,145.7599
1668000000,-17.358446,145.47778
1669000000,-17.304279,145.47031
1670000000,-17.328215,144.99814
1671000000,-17.306871,145.07735
1672000000,-17.302803,145.0005
1673000000,-17.258944,145.02022
1674000000,-17.19734,144.81451
1675000000,-17.211634,144.61209
1676000000,-17.242332,144.26889
1677000000,-17.175789,144.09068
1678000000,-17.178463,144.05391
1679000000,-17.132292,143.85681
1680000000,-17.13821,143.70287
1681000000,-17.150339,143.66086
1682000000,-17.121099,143.52197
1683000000,-17.095446,143.23289
1684000000,-17.076675,143.03276
1685000000,-17.073969,142.92781
1686000000,-17.052021,142.82451
1687000000,-17.03702,142.99236
1688000000,-17.024422,142.50705
1689000000,-16.985308,142.46057
1690000000,-16.992159,142.41835
1691000000,-17.040903,142.39447
1692000000,-16.966209,142.08408
1693000000,-16.951374,141.76517
1694000000,-16.934063,141.71465
1695000000,-16.932812,141.42679
1696000000,-16.887594,141.55962
1697000000,-16.880802,141.3203
1698000000,-16.868055,141.30275
1699000000,-16.887194,141.02219
1700000000,-16.831936,140.76375
1701000000,-16.818495,140.8165
1702000000,-16.875238,140.66357
1703000000,-16.801708,140.52649
1704000000,-16.798222,140.64056
1705000000,-16.801437,140.01003
1706000000,-16.756214,140.06059
1707000000,-16.750774,139.70584
1708000000,-16.776531,139.73927
1709000000,-16.827654,139.47531
1710000000,-16.737787,139.36597
1711000000,-16.760098,139.28558
1712000000,-16.715717,139.22594
1713000000,-16.697645,138.88916
1714000000,-16.71277,138.96407
1715000000,-16.675484,138.86116
1716000000,-16.686575,138.44525
1717000000,-16.638067,138.55281
1718000000,-16.656698,138.03035
1719000000,-16.609726,137.83632
1720000000,-16.638208,138.08797
1721000000,-16.628111,138.11649
1722000000,-16.587505,137.87134
1723000000,-16.595776,137.80145
1724000000,-16.62516,137.5441
1725000000,-16.617346,137.41336
1726000000,-16.567543,136.87909
1727000000,-16.546534,137.4021
1728000000,-16.56139,136.85469
1729000000,-16.576515,136.77568
1730000000,-16.584473,136.48251
1731000000,-16.528646,136.13408
1732000000,-16.530602,136.6097
1733000000,-16.512074,136.162
1734000000,-16.506641,136.00642
1735000000,-16.487106,135.65384
1736000000,-16.464098,135.97551
1737000000,-16.483246,135.76784
1738000000,-16.493387,135.6955
1739000000,-16.486034,135.34166
1740000000,-16.423012,135.33067
1741000000,-16.455465,135.27368
1742000000,-16.441378,134.83461
1743000000,-16.486341,134.91631
1744000000,-16.389336,134.56912
1745000000,-16.403152,134.57912
1746000000,-16.411219,134.26888
1747000000,-16.377031,134.17987
1748000000,-16.378141,134.09373
1749000000,-16.394943,134.44223
1750000000,-16.394793,133.7395
1751000000,-16.407808,133.89339
1752000000,-16.36035,133.55052
1753000000,-16.367554,133.50386
1754000000,-16.388851,133.01688
1755000000,-16.392622,133.11441
1756000000,-16.398663,133.17992
1757000000,-16.264076,132.91922
1758000000,-16.329166,132.87578
1759000000,-16.388659,132.5276
1760000000,-16.314322,132.92018
1761000000,-16.323086,132.25204
1762000000,-16.31826,132.13034
1763000000,-16.306711,131.95143
1764000000,-16.330503,131.8239
1765000000,-16.279152,131.91835
1766000000,-16.309669,131.76385
1767000000,-16.324892,131.20438
1768000000,-16.296844,131.49692
1769000000,-16.294661,131.23674
1770000000,-16.289139,131.18533
1771000000,-16.260588,131.10986
1772000000,-16.217577,130.87022
1773000000,-16.254822,130.938
1774000000,-16.323362,130.65694
1775000000,-16.248762,130.59703
1776000000,-16.253271,129.97055
1777000000,-16.253633,130.27592
1778000000,-16.210466,130.03432
1779000000,-16.272943,130.01009
1780000000,-16.237505,129.6478
1781000000,-16.202896,129.64909
1782000000,-16.265413,129.74834
1783000000,-16.208902,129.45576
1784000000,-16.221512,129.37703
1785000000,-16.214514,129.36157
1786000000,-16.25816,129.0466
1787000000,-16.206829,128.83131
1788000000,-16.215788,128.39236
1789000000,-16.15826,128.80956
1790000000,-16.212662,128.70259
1791000000,-16.207964,128.33508
1792000000,-16.160463,128.43178
1793000000,-16.146463,128.09277
1794000000,-16.174608,128.11024
1795000000,-16.171415,128.08084
1796000000,-16.170166,127.87259
1797000000,-16.129082,127.74861
1798000000,-16.15164,127.63636
1799000000,-16.161203,127.31847
1800000000,-16.148233,127.52383
1801000000,-16.161045,127.1609
1802000000,-16.173893,127.09937
1803000000,-16.169111,127.00305
1804000000,-16.162205,126.92239
1805000000,-16.118385,126.67565
1806000000,-16.144966,126.45212
1807000000,-16.17515,126.73409
1808000000,-16.177702,126.23355
1809000000,-16.127937,126.36841
1810000000,-16.13443,126.50934
1811000000,-16.142756,126.22089
1812000000,-16.147718,125.9644
1813000000,-16.191385,125.65504
1814000000,-16.211952,125.78258
1815000000,-16.199636,125.68758
1816000000,-16.222616,125.30347
1817000000,-16.177858,125.22803
1818000000,-16.167847,124.97131
1819000000,-16.205923,125.01062
1820000000,-16.163364,125.14017
1821000000,-16.200607,124.9006
1822000000,-16.135965,124.87347
1823000000,-16.171795,124.49059
1824000000,-16.173162,124.68526
1825000000,-16.119471,124.45411
1826000000,-16.234543,123.84078
1827000000,-16.175371,124.44317
1828000000,-16.174427,123.77299
1829000000,-16.170006,124.07623
1830000000,-16.221872,123.69954
1831000000,-16.177359,123.52038
1832000000,-16.169773,123.29535
1833000000,-16.201363,123.32355
1834000000,-16.178469,123.34263
1835000000,-16.194647,123.15279
1836000000,-16.190481,122.98189
1837000000,-16.236828,122.41869
1838000000,-16.173281,122.94096
1839000000,-16.192772,122.83991
1840000000,-16.267471,122.21311
1841000000,-16.195189,122.06015
1842000000,-16.240444,121.69825
1843000000,-16.171471,122.29634
1844000000,-16.221109,121.99783
1845000000,-16.211466,121.85973
1846000000,-16.204718,121.89318
1847000000,-16.209818,121.54974
1848000000,-16.255865,121.21567
1849000000,-16.253006,121.40546
1850000000,-16.253561,121.16999
1851000000,-16.219965,121.36835
1852000000,-16.238348,121.02202
1853000000,-16.244127,120.96328
1854000000,-16.217009,120.8509
1855000000,-16.24621,120.84983
1856000000,-16.287434,120.37639
1857000000,-16.233799,120.27374
1858000000,-16.223114,120.28943
1859000000,-16.175604,120.13387
1860000000,-16.267738,119.96964
1861000000,-16.259872,119.7995
1862000000,-16.240486,119.98689
1863000000,-16.231174,119.87027
1864000000,-16.250446,119.79297
1865000000,-16.268808,119.7497
1866000000,-16.286531,119.55585
1867000000,-16.301025,119.36017
1868000000,-16.254663,119.43066
1869000000,-16.260454,119.83097
1870000000,-16.305614,119.03957
1871000000,-16.273203,119.00209
1872000000,-16.267868,118.88167
1873000000,-16.27285,118.46743
1874000000,-16.271011,118.16084
1875000000,-16.335073,118.46115
1876000000,-16.220341,118.58511
1877000000,-16.291655,118.5418
1878000000,-16.26207,118.13164
1879000000,-16.312918,117.96114
1880000000,-16.304502,118.11277
1881000000,-16.307438,117.65631
1882000000,-16.330435,117.90336
1883000000,-16.379597,117.54144
1884000000,-16.369961,117.81321
1885000000,-16.380707,117.45698
1886000000,-16.377863,117.24384
1887000000,-16.370279,117.60535
1888000000,-16.356861,117.07036
1889000000,-16.425018,117.06116
1890000000,-16.379286,117.10905
1891000000,-16.358364,116.88559
1892000000,-16.371937,116.9912
1893000000,-16.374695,116.60596
1894000000,-16.410349,116.47739
1895000000,-16.427473,116.21914
1896000000,-16.382317,116.1726
1897000000,-16.384415,116.2906
1898000000,-16.380547,116.05102
1899000000,-16.396622,115.66
1900000000,-16.421616,115.68613
1901000000,-16.462433,115.74267
1902000000,-16.433628,115.49186
1903000000,-16.45117,115.04649
1904000000,-16.44766,115.47717
1905000000,-16.488726,115.11106
1906000000,-16.484398,115.21006
1907000000,-16.43177,115.00124
1908000000,-16.48048,115.18624
1909000000,-16.464249,114.88033
1910000000,-16.475121,114.72573
1911000000,-16.505697,114.5696
1912000000,-16.499687,114.68861
1913000000,-16.465904,114.39792
1914000000,-16.493279,114.25741
1915000000,-16.501051,114.27518
1916000000,-16.505215,114.2439
1917000000,-16.535904,114.17767
1918000000,-16.542213,113.66943
1919000000,-16.509445,113.75524
1920000000,-16.545675,113.72763
1921000000,-16.544308,113.32919
1922000000,-16.539557,113.66862
1923000000,-16.551237,113.45052
1924000000,-16.527054,113.33232
1925000000,-16.546885,113.18761
1926000000,-16.596014,112.94025
1927000000,-16.58025,112.8541
1928000000,-16.582567,112.77736
1929000000,-16.63266,112.65942
1930000000,-16.569689,112.54674
1931000000,-16.622578,112.532
1932000000,-16.589972,112.33344
1933000000,-16.591948,112.22946
1934000000,-16.602367,112.10768
1935000000,-16.63002,112.27014
1936000000,-16.604614,112.0062
1937000000,-16.641169,111.66623
1938000000,-16.641111,111.58892
1939000000,-16.654722,111.66254
1940000000,-16.642683,111.44619
1941000000,-16.660109,111.2057
1942000000,-16.642244,111.01089
1943000000,-16.636648,110.86515
1944000000,-16.697544,110.96107
1945000000,-16.64373,110.87545
1946000000,-16.691109,110.54835
1947000000,-16.660547,110.57527
1948000000,-16.660252,110.28831
1949000000,-16.689442,110.4124
1950000000,-16.651205,110.11076
1951000000,-16.674515,110.27097
1952000000,-16.71883,109.79523
1953000000,-16.671524,109.89725
1954000000,-16.663332,109.65768
1955000000,-16.671202,110.00081
1956000000,-16.671934,109.61501
1957000000,-16.661623,109.48569
1958000000,-16.70289,109.22633
1959000000,-16.67222,109.4614
1960000000,-16.71183,108.92357
1961000000,-16.712109,109.21449
1962000000,-16.711681,109.07174
1963000000,-16.725836,109.14626
1964000000,-16.68124,108.96503
1965000000,-16.716431,108.7414
1966000000,-16.731907,108.86114
1967000000,-16.749298,108.66512
1968000000,-16.744987,108.51252
1969000000,-16.70763,108.47927
1970000000,-16.730724,108.19238
1971000000,-16.767122,108.20618
1972000000,-16.707726,108.11832
1973000000,-16.752922,108.35697
1974000000,-16.779253,108.08067
1975000000,-16.798622,108.04972
1976000000,-16.765991,107.79833
1977000000,-16.784849,107.84752
1978000000,-16.796791,107.64157
1979000000,-16.838181,107.37418
1980000000,-16.813814,107.34884
1981000000,-16.824141,107.52362
1982000000,-16.839497,107.62672
1983000000,-16.791941,107.25832
1984000000,-16.837711,107.53497
1985000000,-16.883205,107.28281
1986000000,-16.838428,107.01073
1987000000,-16.889105,107.08383
1988000000,-16.881308,106.71101
1989000000,-16.876833,107.17167
1990000000,-16.884109,107.0798
1991000000,-16.906687,106.61068
1992000000,-16.910358,106.66138
1993000000,-16.898518,106.4807
1994000000,-16.914293,106.61794
1995000000,-16.955294,106.58064
1996000000,-16.953369,105.96674
1997000000,-16.964893,106.11423
1998000000,-16.946507,106.08509
1999000000,-16.983301,105.76694
2000000000,-16.953423,105.62138
2001000000,-16.996429,105.77686
2002000000,-17.010189,105.76784
2003000000,-17.039352,105.5644
2004000000,-17.027441,105.14919
2005000000,-17.054258,105.27271
2006000000,-17.019615,104.90406
2007000000,-17.057968,105.10046
2008000000,-17.09111,105.05625
2009000000,-17.057234,104.71604
2010000000,-17.041286,104.57722
2011000000,-17.093046,104.56879
2012000000,-17.068754,104.71626
2013000000,-17.073122,104.15857
2014000000,-17.107561,104.22684
2015000000,-17.110788,104.17193
2016000000,-17.131451,103.92954
2017000000,-17.114111,103.82175
2018000000,-17.119175,103.90424
2019000000,-17.175894,103.42629
2020000000,-17.108364,103.63644
2021000000,-17.157619,103.38763
2022000000,-17.10997,103.41132
2023000000,-17.18409,103.26172
2024000000,-17.158716,103.24454
2025000000,-17.193802,102.91836
2026000000,-17.17528,102.81715
2027000000,-17.169758,102.71741
2028000000,-17.20607,102.56297
2029000000,-17.222231,102.71706
2030000000,-17.265242,102.2344
2031000000,-17.218777,102.11918
2032000000,-17.250071,102.12039
2033000000,-17.227619,102.03235
2034000000,-17.267916,102.28095
2035000000,-17.269817,101.76594
2036000000,-17.263281,101.69586
2037000000,-17.269245,101.45034
2038000000,-17.238482,101.54106
2039000000,-17.264202,101.75559
2040000000,-17.299557,101.36104
2041000000,-17.279213,101.37465
2042000000,-17.31521,101.07365
2043000000,-17.249052,101.31375
2044000000,-17.272844,101.20458
2045000000,-17.289829,100.96938
2046000000,-17.304911,101.1235
2047000000,-17.320566,101.35004
2048000000,-17.334978,100.69295
2049000000,-17.317507,100.44698
2050000000,-17.338928,100.69498
2051000000,-17.348122,100.48353
2052000000,-17.316654,99.873665
2053000000,-17.346031,100.23293
2054000000,-17.346895,99.941109
2055000000,-17.350418,100.08417
2056000000,-17.348249,99.953461
2057000000,-17.379244,99.981079
2058000000,-17.351446,99.749336
2059000000,-17.365444,99.497986
2060000000,-17.395346,99.659828
2061000000,-17.38711,99.392502
2062000000,-17.424196,99.064331
2063000000,-17.453983,99.222107
2064000000,-17.443653,99.205933
2065000000,-17.462593,99.137367
2066000000,-17.414335,99.009438
2067000000,-17.458805,99.006432
2068000000,-17.412916,98.393661
2069000000,-17.428549,98.673508
2070000000,-17.4662,98.603569
2071000000,-17.470598,98.52726
2072000000,-17.454327,98.702316
2073000000,-17.479836,98.285583
2074000000,-17.50631,98.549042
2075000000,-17.472658,98.015747
2076000000,-17.493925,98.075409
2077000000,-17.544466,98.000763
2078000000,-17.524845,97.796051
2079000000,-17.505665,97.862434
2080000000,-17.570997,97.586464
2081000000,-17.562969,97.458878
2082000000,-17.576687,97.51844
2083000000,-17.55818,97.326653
2084000000,-17.560736,97.483147
2085000000,-17.572006,97.028603
2086000000,-17.598549,97.341469
2087000000,-17.601252,97.186928
2088000000,-17.61385,97.097244
2089000000,-17.614031,97.121178
2090000000,-17.634899,96.997345
2091000000,-17.635414,96.751915
2092000000,-17.667086,96.73262
2093000000,-17.677528,96.6399
2094000000,-17.671654,96.887085
2095000000,-17.724258,96.364677
2096000000,-17.696564,96.241859
2097000000,-17.733723,96.097069
2098000000,-17.737814,96.111946
2099000000,-17.745853,96.205978
2100000000,-17.753803,95.802597
2101000000,-17.745312,95.650269
2102000000,-17.760818,95.472
2103000000,-17.761463,95.418991
2104000000,-17.762056,95.360252
2105000000,-17.8486,95.303604
2106000000,-17.794458,95.192329
2107000000,-17.811691,95.296143
2108000000,-17.834106,94.907501
2109000000,-17.83975,94.977646
2110000000,-17.876535,94.56987
2111000000,-17.864338,94.583687
2112000000,-17.856613,94.662239
2113000000,-17.881405,94.473915
2114000000,-17.919325,94.507713
2115000000,-17.890966,94.263992
2116000000,-17.91371,94.117058
2117000000,-17.916203,94.023018
2118000000,-17.952631,93.75322
2119000000,-17.933226,93.893097
2120000000,-17.969177,93.629333
2121000000,-17.968403,93.489182
2122000000,-17.996439,93.579338
2123000000,-17.970732,93.135849
2124000000,-17.95274,93.140388
2125000000,-17.99752,92.993958
2126000000,-17.98633,92.945557
2127000000,-18.037636,92.640099
2128000000,-18.03931,92.814346
2129000000,-18.016848,92.413177
2130000000,-18.018963,92.621902
2131000000,-18.043055,92.393295
2132000000,-18.011591,92.081802
2133000000,-18.081964,91.82235
2134000000,-18.070751,91.9319
2135000000,-18.082394,92.090866
2136000000,-18.077707,91.628647
2137000000,-18.084381,91.740356
2138000000,-18.103472,91.743042
2139000000,-18.123852,91.412422
2140000000,-18.119251,91.247192
2141000000,-18.175348,91.138657
2142000000,-18.119329,91.069115
2143000000,-18.11795,90.93132
2144000000,-18.16927,90.915131
2145000000,-18.18343,90.698563
2146000000,-18.173845,90.681564
2147000000,-18.148729,90.04155
2148000000,-18.1819,90.55043
2149000000,-18.181103,90.247269
2150000000,-18.192097,90.156029
2151000000,-18.216238,89.990639
2152000000,-18.249048,89.879166
2153000000,-18.194885,90.149681
2154000000,-18.291773,89.705254
2155000000,-18.269182,89.795967
2156000000,-18.273558,89.613495
2157000000,-18.270573,89.740425
2158000000,-18.273136,89.574631
2159000000,-18.306318,89.437599
2160000000,-18.30648,89.028
2161000000,-18.34811,89.070442
2162000000,-18.302458,88.890854
2163000000,-18.345165,88.782898
2164000000,-18.346531,88.603729
2165000000,-18.303442,88.680885
2166000000,-18.380659,88.40818
2167000000,-18.391796,88.750519
2168000000,-18.398684,88.36776
2169000000,-18.435608,88.325943
2170000000,-18.429127,88.439987
2171000000,-18.418215,87.876907
2172000000,-18.453094,88.208229
2173000000,-18.419439,87.679955
2174000000,-18.465233,87.735809
2175000000,-18.461269,87.774895
2176000000,-18.512415,87.365982
2177000000,-18.545494,87.337585
2178000000,-18.519808,87.30645
2179000000,-18.52495,87.139809
2180000000,-18.579432,86.821068
2181000000,-18.535305,86.81562
2182000000,-18.582169,86.840302
2183000000,-18.625666,86.860695
2184000000,-18.590664,86.488632
2185000000,-18.595926,86.619942
2186000000,-18.562561,86.167725
2187000000,-18.614136,86.101204
2188000000,-18.652775,85.953407
2189000000,-18.622223,85.934952
2190000000,-18.651251,85.946907
2191000000,-18.663559,85.495865
2192000000,-18.679083,85.391129
2193000000,-18.731585,85.377754
2194000000,-18.720953,85.29705
2195000000,-18.667431,84.934349
2196000000,-18.73069,85.089035
2197000000,-18.722113,84.846909
2198000000,-18.71982,84.760048
2199000000,-18.751564,84.889809
2200000000,-18.765301,84.251434
2201000000,-18.745335,84.453758
2202000000,-18.829048,84.122246
2203000000,-18.814983,84.167198
2204000000,-18.804056,84.154488
2205000000,-18.854462,83.812042
2206000000,-18.83507,83.845856
2207000000,-18.847076,83.654671
2208000000,-18.829901,83.538956
2209000000,-18.899168,83.398438
2210000000,-18.881666,83.121773
2211000000,-18.908062,82.828529
2212000000,-18.916441,82.838791
2213000000,-18.906723,82.543892
2214000000,-18.941977,82.453186
2215000000,-18.910614,82.592506
2216000000,-18.965372,82.236359
2217000000,-18.95285,82.200233
2218000000,-18.990517,81.734985
2219000000,-18.987358,81.87854
2220000000,-19.00979,81.682434
2221000000,-19.044754,81.598297
2222000000,-19.030689,81.619614
2223000000,-19.033909,81.329231
2224000000,-19.061283,81.056107
2225000000,-19.031664,81.080933
2226000000,-19.027479,80.806892
2227000000,-19.073395,80.663681
2228000000,-19.055029,80.737411
2229000000,-19.051998,80.643311
2230000000,-19.091099,80.37838
2231000000,-19.08605,79.952545
2232000000,-19.103479,80.125229
2233000000,-19.146467,79.949448
2234000000,-19.100853,79.92321
2235000000,-19.145935,79.756241
2236000000,-19.113874,79.712013
2237000000,-19.149998,79.30674
2238000000,-19.137255,79.185989
2239000000,-19.140972,79.238152
2240000000,-19.186762,79.212532
2241000000,-19.178997,79.336143
2242000000,-19.236059,79.07515
2243000000,-19.233927,79.040077
2244000000,-19.25337,78.756699
2245000000,-19.218515,78.579048
2246000000,-19.248026,78.547028
2247000000,-19.250341,78.667114
2248000000,-19.265499,78.229279
2249000000,-19.246981,78.043594
2250000000,-19.293388,78.154686
2251000000,-19.308222,77.776024
2252000000,-19.328484,77.730049
2253000000,-19.35655,77.683479
2254000000,-19.385172,77.503082
2255000000,-19.341549,77.27887
2256000000,-19.401821,77.32058
2257000000,-19.435499,77.251183
2258000000,-19.440784,77.013321
2259000000,-19.426767,76.891731
2260000000,-19.477076,76.958992
2261000000,-19.445322,76.800423
2262000000,-19.477045,76.411659
2263000000,-19.470854,76.569115
2264000000,-19.551228,76.126961
2265000000,-19.507723,76.066467
2266000000,-19.533184,76.091423
2267000000,-19.553514,75.812492
2268000000,-19.571785,75.724831
2269000000,-19.612089,75.300835
2270000000,-19.624212,75.521942
2271000000,-19.602207,74.962074
2272000000,-19.651625,74.772148
2273000000,-19.68877,74.90892
2274000000,-19.688923,74.749771
2275000000,-19.708124,74.608543
2276000000,-19.740883,74.346519
2277000000,-19.738888,73.97139
2278000000,-19.729897,74.184998
2279000000,-19.767441,73.676033
2280000000,-19.761669,73.701111
2281000000,-19.785427,73.354561
2282000000,-19.804607,73.243149
2283000000,-19.849007,73.085419
2284000000,-19.853758,73.269157
2285000000,-19.858206,72.646324
2286000000,-19.836666,72.081573
2287000000,-19.876781,72.205765
2288000000,-19.853668,72.215775
2289000000,-19.898186,72.051338
2290000000,-19.926561,71.611061
2291000000,-19.915979,71.46064
2292000000,-19.953728,71.505417
2293000000,-19.962929,71.236687
2294000000,-19.961617,71.123528
2295000000,-20.002419,70.822083
2296000000,-20.01116,70.582916
2297000000,-20.00036,70.579712
2298000000,-20.02099,70.302505
2299000000,-20.043312,70.27813
2300000000,-20.013504,69.868896
2301000000,-20.048695,69.730476
2302000000,-19.998404,69.523148
2303000000,-20.110262,69.546791
2304000000,-20.077667,69.122337
2305000000,-20.118359,69.23101
2306000000,-20.115431,69.01545
2307000000,-20.086433,68.767548
2308000000,-20.138235,68.643387
2309000000,-20.156633,68.292641
2310000000,-20.168203,68.318008
2311000000,-20.128651,68.234314
2312000000,-20.198154,67.696877
2313000000,-20.197969,67.678436
2314000000,-20.212893,67.644073
2315000000,-20.167913,67.265442
2316000000,-20.228197,67.393898
2317000000,-20.292982,67.005478
2318000000,-20.270918,66.749397
2319000000,-20.254051,66.885117
2320000000,-20.313725,66.583908
2321000000,-20.295862,66.370323
2322000000,-20.33692,66.360657
2323000000,-20.324329,65.726799
2324000000,-20.28113,65.790421
2325000000,-20.348284,65.953545
2326000000,-20.360367,65.387268
2327000000,-20.370653,65.22982
2328000000,-20.360044,65.084435
2329000000,-20.40917,65.131371
2330000000,-20.428591,65.048088
2331000000,-20.430481,64.806686
2332000000,-20.412899,64.424606
2333000000,-20.393072,64.208984
2334000000,-20.48,64.254578
2335000000,-20.449709,64.035713
2336000000,-20.48247,63.720467
2337000000,-20.525915,63.654572
2338000000,-20.501163,63.452122
2339000000,-20.488482,63.254929
2340000000,-20.551908,63.097584
2341000000,-20.552509,63.033035
2342000000,-20.549658,62.92889
2343000000,-20.562912,62.85334
2344000000,-20.633951,62.289597
2345000000,-20.554201,62.427773
2346000000,-20.581177,61.910686
2347000000,-20.631332,62.239712
2348000000,-20.646997,61.890366
2349000000,-20.655689,61.613697
2350000000,-20.704376,61.294521
2351000000,-20.76697,61.540089
2352000000,-20.71047,61.133186
2353000000,-20.77109,60.745338
2354000000,-20.732155,60.675316
2355000000,-20.813162,60.525948
2356000000,-20.81856,60.487404
2357000000,-20.83703,60.098438
2358000000,-20.840622,60.082947
2359000000,-20.890554,59.866398
2360000000,-20.888557,59.379936
2361000000,-20.907049,59.285107
2362000000,-20.917521,59.009544
2363000000,-20.950335,59.113354
2364000000,-20.925886,58.811951
2365000000,-20.986038,58.428532
2366000000,-21.010256,58.418922
2367000000,-20.990917,58.139179
2368000000,-21.008177,57.90958
2369000000,-21.051126,57.611309
2370000000,-21.083162,57.878574
2371000000,-21.136883,57.361095
2372000000,-21.143322,57.090603
2373000000,-21.10965,56.902676
2374000000,-21.161882,57.004307
2375000000,-21.155521,56.392807
2376000000,-21.191921,56.158871
2377000000,-21.199984,55.732872
2378000000,-21.177486,55.532028
2379000000,-21.231453,55.413158
2380000000,-21.233522,55.362476
2381000000,-21.258429,55.18523
2382000000,-21.274807,54.523834
2383000000,-21.270166,54.277767
2384000000,-21.307615,54.189064
2385000000,-21.279776,53.987724
2386000000,-21.316931,54.068344
2387000000,-21.341242,53.596851
2388000000,-21.323784,53.316753
2389000000,-21.402802,53.282238
2390000000,-21.418056,52.518505
2391000000,-21.40387,52.532589
2392000000,-21.448248,52.412182
2393000000,-21.479259,51.950981
2394000000,-21.473621,52.235516
2395000000,-21.430748,51.640686
2396000000,-21.450758,51.522163
2397000000,-21.497093,51.48531
2398000000,-21.505144,51.03677
2399000000,-21.520506,50.946346
2400000000,-21.54105,50.682014
2401000000,-21.527081,50.491718
2402000000,-21.524715,50.340611
2403000000,-21.525023,49.930008
2404000000,-21.55246,49.987606
2405000000,-21.574505,49.470928
2406000000,-21.564713,49.138321
2407000000,-21.600681,49.065865
2408000000,-21.611515,48.722015
2409000000,-21.567438,49.00621
2410000000,-21.62678,48.384235
2411000000,-21.619928,48.059063
2412000000,-21.70672,47.781624
2413000000,-21.689943,48.023853
2414000000,-21.700911,47.394329
2415000000,-21.701605,47.512783
2416000000,-21.756477,46.935219
2417000000,-21.748449,46.693558
2418000000,-21.79192,46.56144
2419000000,-21.787962,46.488899
2420000000,-21.849958,46.399864
2421000000,-21.787453,46.09914
2422000000,-21.807713,46.093002
2423000000,-21.833784,45.745941
2424000000,-21.893103,44.798424
2425000000,-21.872694,45.134945
2426000000,-21.952927,45.085201
2427000000,-21.937799,44.877625
2428000000,-21.911165,44.678425
2429000000,-21.90501,44.384434
2430000000,-21.970573,44.213371
2431000000,-22.020464,43.963081
2432000000,-21.979271,43.350872
2433000000,-22.021538,43.579857
2434000000,-22.024008,42.857536
2435000000,-22.064657,42.667583
2436000000,-22.077822,42.44175
2437000000,-22.10182,42.258049
2438000000,-22.07522,42.013794
2439000000,-22.120398,41.644878
2440000000,-22.107866,41.307178
2441000000,-22.201233,41.013931
2442000000,-22.205627,40.691521
2443000000,-22.210461,40.910969
2444000000,-22.254583,40.215309
2445000000,-22.261229,39.933716
2446000000,-22.281109,39.302383
2447000000,-22.290161,39.534664
2448000000,-22.329329,38.869118
2449000000,-22.338415,38.873569
2450000000,-22.355122,38.439484
2451000000,-22.36532,38.185204
2452000000,-22.371933,38.087299
2453000000,-22.430212,37.638226
2454000000,-22.351686,37.563328
2455000000,-22.386684,36.969566
2456000000,-22.463543,36.427792
2457000000,-22.509678,36.364346
2458000000,-22.522339,36.49852
2459000000,-22.525839,36.292599
2460000000,-22.524652,36.188221
2461000000,-22.515636,35.555393
2462000000,-22.550629,35.259232
2463000000,-22.57094,34.986908
2464000000,-22.567995,34.18026
2465000000,-22.639963,34.133072
2466000000,-22.543825,34.075493
2467000000,-22.604958,33.664986
2468000000,-22.658707,33.298939
2469000000,-22.671604,32.988884
2470000000,-22.703156,32.442257
2471000000,-22.683376,32.337536
2472000000,-22.690565,32.059967
2473000000,-22.700644,31.930389
2474000000,-22.756485,31.278265
2475000000,-22.759491,31.01144
2476000000,-22.732376,30.863354
2477000000,-22.786146,30.522255
2478000000,-22.840357,30.090296
2479000000,-22.821218,29.873476
2480000000,-22.88036,29.369469
2481000000,-22.811327,29.223436
2482000000,-22.892849,29.103859
2483000000,-22.835306,28.578997
2484000000,-22.942247,28.112768
2485000000,-22.922997,27.477583
2486000000,-22.945498,27.472269
2487000000,-22.959179,26.896067
2488000000,-22.974272,26.49568
2489000000,-22.99371,26.343184
2490000000,-23.045309,26.081793
2491000000,-22.998505,25.522491
2492000000,-23.031311,25.397339
2493000000,-23.020418,25.20001
2494000000,-23.076271,25.006723
2495000000,-23.034788,24.47504
2496000000,-23.055536,23.94631
2497000000,-23.087069,23.894701
2498000000,-23.085585,23.692621
2499000000,-23.082644,23.333223
2500000000,-23.104553,22.917768
2501000000,-23.122286,22.454796
2502000000,-23.142418,22.515062
2503000000,-23.139124,21.73003
2504000000,-23.220354,21.773111
2505000000,-23.130405,20.987373
2506000000,-23.238916,21.07523
2507000000,-23.207073,20.739962
2508000000,-23.201677,20.418825
2509000000,-23.228634,20.183506
2510000000,-23.224697,19.143463
2511000000,-23.27767,19.622555
2512000000,-23.283661,18.934595
2513000000,-23.319311,18.45252
2514000000,-23.218479,18.326923
2515000000,-23.372021,18.015816
2516000000,-23.337341,17.856617
2517000000,-23.288723,17.199806
2518000000,-23.378677,16.620411
2519000000,-23.370979,16.457027
2520000000,-23.40835,17.114876
2521000000,-23.337084,16.308058
2522000000,-23.412127,15.295915
2523000000,-23.431473,15.468914
2524000000,-23.420033,15.650616
2525000000,-23.4653,14.933003
2526000000,-23.47176,14.572474
2527000000,-23.502359,14.151759
2528000000,-23.507275,13.721151
2529000000,-23.527943,13.5124
2530000000,-23.46376,13.496602
2531000000,-23.507887,12.848824
2532000000,-23.608131,12.170888
2533000000,-23.568037,11.871428
2534000000,-23.590124,11.456241
2535000000,-23.542566,11.20634
2536000000,-23.622145,11.212375
2537000000,-23.585939,10.56274
2538000000,-23.642603,9.8901739
2539000000,-23.676834,9.5389538
2540000000,-23.635166,9.6080456
2541000000,-23.646235,8.8852167
2542000000,-23.68709,8.0593338
2543000000,-23.710493,8.4016314
2544000000,-23.722052,7.3330021
2545000000,-23.711008,7.1552839
2546000000,-23.669485,6.7950411
2547000000,-23.70347,6.3858047
2548000000,-23.714443,6.0871482
2549000000,-23.79331,5.5777655
2550000000,-23.729801,5.1651716
2551000000,-23.770878,5.1643281
2552000000,-23.652306,4.0782304
2553000000,-23.798695,4.2960219
2554000000,-23.801434,3.7889142
2555000000,-23.74654,3.2523265
2556000000,-23.757816,3.0767579
2557000000,-23.807461,2.5713391
2558000000,-23.784187,1.9547058
2559000000,-23.723499,1.7147536
2560000000,-23.703667,1.2619563
2561000000,-23.789095,0.95031339
2562000000,-23.846107,0.36731911
2563000000,-23.81068,0.34878185
2564000000,-23.818958,-0.46295956
2565000000,-23.744072,-0.76985979
2566000000,-23.816507,-0.93589473
2567000000,-23.752724,-1.3732733
2568000000,-23.779795,-1.7037599
2569000000,-23.784904,-1.6202679
2570000000,-23.779259,-2.5259142
2571000000,-23.729836,-2.7731106
2572000000,-23.758696,-3.1218274
2573000000,-23.689451,-3.3846266
2574000000,-23.72294,-4.0202847
2575000000,-23.699524,-4.2456493
2576000000,-23.74613,-4.4869256
2577000000,-23.677956,-5.3716378
2578000000,-23.713577,-5.0653033
2579000000,-23.758867,-5.4713845
2580000000,-23.717226,-6.109416
2581000000,-23.765696,-6.5706787
2582000000,-23.684158,-6.8163605
2583000000,-23.767412,-7.4780207
2584000000,-23.757715,-6.8533206
2585000000,-23.693802,-8.1193609
2586000000,-23.757473,-8.0738983
2587000000,-23.704014,-9.1696825
2588000000,-23.733551,-8.9076786
2589000000,-23.676998,-9.065671
2590000000,-23.765604,-9.74652
2591000000,-23.762962,-10.108966
2592000000,-23.729225,-10.023646
2593000000,-23.635201,-10.748902
2594000000,-23.708637,-11.027925
2595000000,-23.708998,-11.598166
2596000000,-23.746422,-11.54319
2597000000,-23.707407,-12.444315
2598000000,-23.739607,-12.556676
2599000000,-23.644934,-13.16406
2600000000,-23.716242,-13.492179
2601000000,-23.742405,-13.869375
2602000000,-23.721428,-13.530645
2603000000,-23.718653,-14.145522
2604000000,-23.756489,-15.276562
2605000000,-23.738449,-15.232159
2606000000,-23.754513,-15.71089
2607000000,-23.681358,-16.117702
2608000000,-23.710623,-16.980352
2609000000,-23.649101,-17.22772
2610000000,-23.721712,-17.543341
2611000000,-23.717129,-17.305874
2612000000,-23.674274,-18.517042
2613000000,-23.602144,-18.788944
2614000000,-23.679781,-19.010214
2615000000,-23.679171,-19.699034
2616000000,-23.63291,-19.92877
2617000000,-23.611507,-20.338587
2618000000,-23.622393,-20.212996
2619000000,-23.662846,-21.512577
2620000000,-23.582972,-21.797035
2621000000,-23.58292,-22.146521
2622000000,-23.618923,-22.044847
2623000000,-23.629129,-22.540583
2624000000,-23.614651,-24.15793
2625000000,-23.539623,-23.466015
2626000000,-23.494194,-24.309818
2627000000,-23.5228,-24.070265
2628000000,-23.502926,-24.805687
2629000000,-23.435101,-25.486687
2630000000,-23.469549,-25.974676
2631000000,-23.521969,-25.66431
2632000000,-23.428314,-26.626678
2633000000,-23.469944,-27.246073
2634000000,-23.432592,-27.175859
2635000000,-23.367552,-28.18309
2636000000,-23.437841,-27.233372
2637000000,-23.402281,-28.746992
2638000000,-23.356339,-28.210629
2639000000,-23.397451,-29.345224
2640000000,-23.437426,-29.760633
2641000000,-23.324078,-30.13349
2642000000,-23.272699,-30.32963
2643000000,-23.304203,-30.382345
2644000000,-23.218775,-31.469353
2645000000,-23.208868,-31.758327
2646000000,-23.286177,-32.368107
2647000000,-23.172796,-32.837139
2648000000,-23.273121,-32.713318
2649000000,-23.138432,-33.283772
2650000000,-23.212032,-33.16571
2651000000,-23.159765,-33.804501
2652000000,-23.082447,-34.290344
2653000000,-23.149921,-34.431885
2654000000,-23.050287,-34.732449
2655000000,-23.047924,-35.416847
2656000000,-23.026855,-35.750229
2657000000,-23.01466,-36.765987
2658000000,-22.955118,-36.752769
2659000000,-22.934307,-37.056435
2660000000,-22.902319,-38.029129
2661000000,-22.945589,-37.756668
2662000000,-22.912521,-38.003101
2663000000,-22.905766,-38.217144
2664000000,-22.868824,-39.030533
2665000000,-22.80023,-38.148857
2666000000,-22.797026,-39.376415
2667000000,-22.860811,-39.429161
2668000000,-22.819027,-40.216331
2669000000,-22.78071,-40.079861
2670000000,-22.715117,-40.866573
2671000000,-22.737188,-40.796181
2672000000,-22.754278,-41.086731
2673000000,-22.697437,-42.094288
2674000000,-22.66921,-41.583126
2675000000,-22.536919,-42.840511
2676000000,-22.555639,-42.754723
2677000000,-22.645237,-42.956932
2678000000,-22.601295,-43.131882
2679000000,-22.625166,-44.370861
2680000000,-22.614136,-44.506153
2681000000,-22.608471,-44.66544
2682000000,-22.639309,-44.993137
2683000000,-22.615984,-45.703316
2684000000,-22.48958,-45.536106
2685000000,-22.53549,-45.634552
2686000000,-22.519373,-46.776955
2687000000,-22.548601,-46.743515
2688000000,-22.371067,-47.02803
2689000000,-22.456888,-47.148312
2690000000,-22.433237,-47.625759
2691000000,-22.432894,-48.224987
2692000000,-22.457825,-48.064388
2693000000,-22.413576,-48.504929
2694000000,-22.455814,-48.882362
2695000000,-22.401133,-49.407169
2696000000,-22.372894,-49.777031
2697000000,-22.313185,-50.297756
2698000000,-22.287645,-50.218811
2699000000,-22.245106,-51.162239
2700000000,-22.290051,-51.286503
2701000000,-22.252756,-51.69825
2702000000,-22.249901,-51.55917
2703000000,-22.128447,-52.05822
2704000000,-22.155876,-52.587391
2705000000,-22.225109,-53.008904
2706000000,-22.205013,-53.677383
2707000000,-22.166098,-53.882706
2708000000,-22.066851,-54.000484
2709000000,-22.080864,-54.496521
2710000000,-22.099701,-55.029148
2711000000,-22.088701,-55.402836
2712000000,-22.033302,-55.859768
2713000000,-21.958647,-56.00415
2714000000,-21.972414,-56.141884
2715000000,-21.986788,-56.879616
2716000000,-21.918989,-57.029697
2717000000,-21.8738,-57.563251
2718000000,-21.920835,-57.770519
2719000000,-21.784815,-58.851849
2720000000,-21.862076,-58.590485
2721000000,-21.802589,-58.653786
2722000000,-21.750111,-59.287319
2723000000,-21.782192,-59.892979
2724000000,-21.72772,-59.941536
2725000000,-21.684376,-60.444614
2726000000,-21.658125,-60.090504
2727000000,-21.6161,-61.443802
2728000000,-21.627558,-61.030495
2729000000,-21.540939,-60.990757
2730000000,-21.566853,-61.723568
2731000000,-21.503378,-62.287029
2732000000,-21.517654,-62.727688
2733000000,-21.54356,-62.939606
2734000000,-21.408154,-63.177979
2735000000,-21.507824,-63.295002
2736000000,-21.348425,-64.157135
2737000000,-21.360992,-64.157501
2738000000,-21.356562,-64.916557
2739000000,-21.35503,-65.053459
2740000000,-21.31542,-65.620003
2741000000,-21.31443,-65.598289
2742000000,-21.283411,-65.695351
2743000000,-21.28932,-66.015106
2744000000,-21.170198,-66.263084
2745000000,-21.126108,-66.473114
2746000000,-21.139456,-67.051048
2747000000,-21.091219,-66.778793
2748000000,-21.12331,-67.745728
2749000000,-21.060532,-67.602348
2750000000,-21.065378,-67.815689
2751000000,-21.052195,-68.018463
2752000000,-20.987844,-68.497604
2753000000,-21.009291,-68.826599
2754000000,-20.924809,-68.559654
2755000000,-20.94968,-68.893486
2756000000,-20.961414,-69.022301
2757000000,-20.918919,-69.293602
2758000000,-20.906828,-69.445259
2759000000,-20.859005,-69.876389
2760000000,-20.766247,-70.29837
2761000000,-20.827639,-70.38755
2762000000,-20.792259,-71.124008
2763000000,-20.810556,-71.101112
2764000000,-20.764957,-71.210136
2765000000,-20.704062,-71.687218
2766000000,-20.673382,-71.812508
2767000000,-20.604532,-72.520264
2768000000,-20.659601,-72.686104
2769000000,-20.623529,-72.469841
2770000000,-20.690985,-72.742882
2771000000,-20.683929,-73.297386
2772000000,-20.643736,-73.650375
2773000000,-20.600456,-73.691345
2774000000,-20.48563,-73.854637
2775000000,-20.518112,-74.150604
2776000000,-20.469753,-75.116455
2777000000,-20.516296,-74.604408
2778000000,-20.405497,-75.248924
2779000000,-20.457369,-75.043037
2780000000,-20.397398,-75.828362
2781000000,-20.372725,-75.763626
2782000000,-20.380215,-76.398705
2783000000,-20.300919,-76.951035
2784000000,-20.32584,-76.712204
2785000000,-20.298653,-76.377594
2786000000,-20.287315,-76.932846
2787000000,-20.327982,-77.013786
2788000000,-20.332882,-77.288467
2789000000,-20.26227,-77.76651
2790000000,-20.122686,-78.348595
2791000000,-20.145422,-78.5327
2792000000,-20.106102,-79.07238
2793000000,-20.040989,-79.286415
2794000000,-20.085766,-79.403107
2795000000,-20.087339,-79.317001
2796000000,-20.050985,-78.905182
2797000000,-20.065798,-79.789299
2798000000,-19.97242,-79.924866
2799000000,-20.038609,-80.688782
2800000000,-19.850531,-80.650879
2801000000,-19.924282,-81.06601
2802000000,-19.906342,-80.700951
2803000000,-19.884462,-81.099243
2804000000,-19.860506,-81.794853
2805000000,-19.836597,-82.177139
2806000000,-19.799656,-82.649628
2807000000,-19.73069,-82.044838
2808000000,-19.699686,-82.718651
2809000000,-19.714577,-82.814026
2810000000,-19.606064,-83.23967
2811000000,-19.60084,-83.255554
2812000000,-19.596983,-83.867073
2813000000,-19.671471,-84.284805
2814000000,-19.600529,-84.053978
2815000000,-19.611578,-84.506454
2816000000,-19.556662,-84.716835
2817000000,-19.533836,-85.080772
2818000000,-19.459314,-85.016304
2819000000,-19.431116,-85.443733
2820000000,-19.427689,-85.921814
2821000000,-19.333101,-85.798805
2822000000,-19.315256,-86.263466
2823000000,-19.284922,-86.501686
2824000000,-19.332949,-86.70932
2825000000,-19.226152,-86.73642
2826000000,-19.185184,-86.762779
2827000000,-19.233093,-87.087166
2828000000,-19.163776,-87.236252
2829000000,-19.160507,-87.853806
2830000000,-19.104889,-87.419556
2831000000,-19.116669,-87.752869
2832000000,-19.150192,-88.233688
2833000000,-19.01807,-88.291695
2834000000,-18.957924,-88.283653
2835000000,-19.021458,-89.059898
2836000000,-18.9076,-89.112587
2837000000,-18.853275,-89.023186
2838000000,-18.93759,-90.0382
2839000000,-18.892462,-90.056427
2840000000,-18.924971,-90.208313
2841000000,-18.777998,-90.279526
2842000000,-18.816195,-90.846291
2843000000,-18.819241,-90.848114
2844000000,-18.767902,-91.012199
2845000000,-18.697037,-91.476395
2846000000,-18.655947,-91.061028
2847000000,-18.753,-92.048973
2848000000,-18.64975,-91.686798
2849000000,-18.6845,-92.133217
2850000000,-18.679955,-91.848427
2851000000,-18.656132,-92.388077
2852000000,-18.601765,-92.706627
2853000000,-18.569223,-92.967873
2854000000,-18.616116,-93.24556
2855000000,-18.486628,-94.018494
2856000000,-18.53021,-93.548058
2857000000,-18.576614,-93.398407
2858000000,-18.457365,-93.301636
2859000000,-18.449837,-94.87471
2860000000,-18.477549,-94.201103
2861000000,-18.413084,-94.577911
2862000000,-18.307371,-94.569763
2863000000,-18.368151,-94.608116
2864000000,-18.338137,-95.102814
2865000000,-18.30077,-95.812439
2866000000,-18.342165,-95.317841
2867000000,-18.276066,-95.579887
2868000000,-18.338093,-96.28994
2869000000,-18.236452,-96.776764
2870000000,-18.190971,-96.986176
2871000000,-18.201286,-96.978645
2872000000,-18.169065,-97.538818
2873000000,-18.211296,-97.190567
2874000000,-18.143242,-97.867378
2875000000,-18.1411,-97.939911
2876000000,-18.066029,-97.753235
2877000000,-18.049538,-97.855438
2878000000,-18.06892,-98.512794
2879000000,-18.038624,-98.974495
2880000000,-17.924404,-99.078247
2881000000,-18.006985,-99.528191
2882000000,-17.949175,-100.0823
2883000000,-17.880182,-99.451492
2884000000,-17.905279,-99.965759
2885000000,-17.892982,-100.57269
2886000000,-17.840796,-100.09764
2887000000,-17.812283,-100.85244
2888000000,-17.774372,-101.11214
2889000000,-17.7696,-101.49925
2890000000,-17.826338,-101.23007
2891000000,-17.729273,-101.26367
2892000000,-17.708389,-102.16556
2893000000,-17.710394,-102.19279
2894000000,-17.630337,-102.45609
2895000000,-17.622711,-102.43662
2896000000,-17.563007,-102.53617
2897000000,-17.632006,-103.07661
2898000000,-17.574596,-103.44704
2899000000,-17.494776,-103.20076
2900000000,-17.56505,-103.52219
2901000000,-17.43191,-104.12225
2902000000,-17.427094,-104.36179
2903000000,-17.386673,-103.46428
2904000000,-17.378599,-104.34351
2905000000,-17.313084,-104.43349
2906000000,-17.435808,-104.39333
2907000000,-17.431847,-104.59061
2908000000,-17.24659,-105.14179
2909000000,-17.342556,-105.12196
2910000000,-17.242676,-105.8079
2911000000,-17.229252,-105.79825
2912000000,-17.251373,-105.97627
2913000000,-17.230259,-105.57107
2914000000,-17.091957,-106.41254
2915000000,-17.069233,-106.74385
2916000000,-17.139288,-106.56669
2917000000,-17.119314,-106.80373
2918000000,-16.987522,-106.95203
2919000000,-17.028107,-106.91568
2920000000,-17.0406,-107.17042
2921000000,-16.967188,-107.63483
2922000000,-16.988789,-107.66637
2923000000,-16.991695,-107.57462
2924000000,-16.995125,-107.84194
2925000000,-16.890066,-107.94153
2926000000,-16.85396,-108.34716
2927000000,-16.890202,-108.67695
2928000000,-16.876257,-109.07007
2929000000,-16.862345,-109.29245
2930000000,-16.855,-109.56361
2931000000,-16.812757,-109.71699
2932000000,-16.799208,-109.72828
2933000000,-16.820192,-110.12948
2934000000,-16.819565,-110.22058
2935000000,-16.772125,-110.49342
2936000000,-16.744778,-110.64655
2937000000,-16.708532,-111.00424
2938000000,-16.74509,-111.00246
2939000000,-16.715282,-111.53699
2940000000,-16.713533,-111.70782
2941000000,-16.651842,-111.65315
2942000000,-16.62929,-111.73287
2943000000,-16.62154,-112.19811
2944000000,-16.609192,-112.58341
2945000000,-16.555157,-112.6867
2946000000,-16.612913,-112.48412
2947000000,-16.563177,-113.08254
2948000000,-16.540222,-113.28263
2949000000,-16.550745,-113.77958
2950000000,-16.532219,-114.00218
2951000000,-16.501108,-113.66821
2952000000,-16.52961,-113.87989
2953000000,-16.425699,-114.26296
2954000000,-16.491831,-114.57124
2955000000,-16.453035,-114.62643
2956000000,-16.466904,-115.31846
2957000000,-16.363913,-115.38837
2958000000,-16.396372,-115.71473
2959000000,-16.362183,-115.54254
2960000000,-16.37615,-116.01089
2961000000,-16.358486,-116.36908
2962000000,-16.302649,-116.1123
2963000000,-16.271059,-116.25475
2964000000,-16.323221,-117.20933
2965000000,-16.295866,-117.19234
2966000000,-16.231308,-116.86156
2967000000,-16.223354,-117.0955
2968000000,-16.211647,-117.86536
2969000000,-16.180075,-118.13352
2970000000,-16.17358,-117.99626
2971000000,-16.159534,-118.49538
2972000000,-16.042202,-118.48257
2973000000,-16.160088,-118.66567
2974000000,-16.090609,-119.13104
2975000000,-16.104181,-119.04487
2976000000,-16.023613,-119.05155
2977000000,-16.027803,-119.76508
2978000000,-16.001518,-119.80029
2979000000,-16.002653,-120.13601
2980000000,-15.977761,-120.12173
2981000000,-15.929126,-120.3022
2982000000,-15.925813,-120.60012
2983000000,-15.945278,-120.8166
2984000000,-15.923367,-120.96717
2985000000,-15.878913,-120.99279
2986000000,-15.891831,-121.3231
2987000000,-15.825311,-121.35818
2988000000,-15.797531,-121.79592
2989000000,-15.838932,-121.9121
2990000000,-15.82077,-122.09275
2991000000,-15.774856,-122.00616
2992000000,-15.787271,-122.51161
2993000000,-15.695534,-122.56625
2994000000,-15.692813,-122.46095
2995000000,-15.675853,-122.66606
2996000000,-15.71288,-123.24684
2997000000,-15.60648,-123.32769
2998000000,-15.649315,-123.7616
2999000000,-15.610785,-123.88309
3000000000,-15.594418,-123.56529
3001000000,-15.56488,-123.82082
3002000000,-15.601337,-123.96615
3003000000,-15.543662,-124.31832
3004000000,-15.536019,-124.69511
3005000000,-15.518276,-124.63819
3006000000,-15.546047,-124.9779
3007000000,-15.48613,-125.00525
3008000000,-15.497158,-125.78201
3009000000,-15.434427,-125.76659
3010000000,-15.479259,-125.78456
3011000000,-15.462475,-126.5074
3012000000,-15.399927,-126.09885
3013000000,-15.369257,-126.24446
3014000000,-15.383928,-126.26957
3015000000,-15.328208,-126.63988
3016000000,-15.393823,-126.88068
3017000000,-15.363107,-127.03443
3018000000,-15.336433,-127.4396
3019000000,-15.33063,-127.39597
3020000000,-15.303043,-127.48785
3021000000,-15.298982,-127.82587
3022000000,-15.199762,-127.84516
3023000000,-15.362598,-128.34329
3024000000,-15.265914,-128.54341
3025000000,-15.233192,-128.46471
3026000000,-15.247503,-128.76738
3027000000,-15.203322,-129.25137
3028000000,-15.28334,-129.04031
3029000000,-15.153591,-129.2637
3030000000,-15.175654,-129.50841
3031000000,-15.133019,-129.77596
3032000000,-15.122568,-129.89278
3033000000,-15.163123,-130.0065
3034000000,-15.063688,-130.3835
3035000000,-15.076901,-130.46877
3036000000,-15.047822,-130.97084
3037000000,-15.109586,-131.00842
3038000000,-15.046835,-130.97762
3039000000,-15.010486,-131.77277
3040000000,-15.079342,-131.84502
3041000000,-15.033432,-131.68919
3042000000,-14.998554,-132.10582
3043000000,-14.950934,-132.08423
3044000000,-14.967933,-132.5036
3045000000,-14.936574,-132.93735
3046000000,-15.008933,-132.73973
3047000000,-14.9982,-133.23012
3048000000,-14.950177,-132.79826
3049000000,-14.871929,-133.6562
3050000000,-14.912558,-133.82645
3051000000,-14.917961,-133.74455
3052000000,-14.848359,-133.97661
3053000000,-14.817867,-134.10211
3054000000,-14.819909,-134.8831
3055000000,-14.829085,-134.73466
3056000000,-14.785209,-134.93689
3057000000,-14.794193,-135.40942
3058000000,-14.715346,-134.84427
3059000000,-14.772761,-135.68163
3060000000,-14.750073,-135.33246
3061000000,-14.745164,-135.8954
3062000000,-14.775317,-136.22383
3063000000,-14.764563,-136.21837
3064000000,-14.667252,-136.57916
3065000000,-14.721932,-136.71384
3066000000,-14.621756,-137.08076
3067000000,-14.60903,-136.87271
3068000000,-14.648558,-137.24406
3069000000,-14.604136,-137.64296
3070000000,-14.573684,-136.98634
3071000000,-14.646728,-137.49974
3072000000,-14.572294,-138.20139
3073000000,-14.536076,-138.25836
3074000000,-14.538161,-138.1032
3075000000,-14.503115,-138.33159
3076000000,-14.476794,-138.29071
3077000000,-14.494745,-139.01672
3078000000,-14.420427,-139.06509
3079000000,-14.493588,-138.97853
3080000000,-14.393665,-139.91331
3081000000,-14.436813,-139.83681
3082000000,-14.442238,-139.90312
3083000000,-14.419355,-139.7276
3084000000,-14.425211,-140.36241
3085000000,-14.337021,-140.56924
3086000000,-14.363244,-140.46539
3087000000,-14.343659,-140.72961
3088000000,-14.380898,-140.91953
3089000000,-14.305311,-141.0675
3090000000,-14.36447,-141.43414
3091000000,-14.270396,-141.06696
3092000000,-14.266666,-141.49112
3093000000,-14.281472,-141.3154
3094000000,-14.284484,-141.99379
3095000000,-14.176121,-142.02069
3096000000,-14.230116,-142.28316
3097000000,-14.236977,-142.44739
3098000000,-14.216913,-142.79314
3099000000,-14.181746,-143.05194
3100000000,-14.172873,-143.00366
3101000000,-14.164564,-143.25784
3102000000,-14.175791,-143.68124
3103000000,-14.134159,-143.70164
3104000000,-14.148477,-144.12726
3105000000,-14.176837,-143.92763
3106000000,-14.153938,-144.59277
3107000000,-14.133546,-144.24265
3108000000,-14.103871,-144.80132
3109000000,-14.118215,-144.76585
3110000000,-14.10397,-144.79347
3111000000,-14.084639,-145.32936
3112000000,-14.038448,-145.31239
3113000000,-14.039263,-145.51923
3114000000,-14.06197,-145.78606
3115000000,-14.014179,-145.75699
3116000000,-14.023641,-146.09755
3117000000,-13.999665,-146.32309
3118000000,-13.973848,-146.56015
3119000000,-13.962674,-146.74139
3120000000,-14.000851,-147.09332
3121000000,-13.982871,-147.46588
3122000000,-13.912463,-147.71706
3123000000,-13.956064,-147.70186
3124000000,-13.963347,-147.71338
3125000000,-13.933864,-148.12022
3126000000,-13.927503,-148.36137
3127000000,-13.905627,-148.80342
3128000000,-13.849553,-148.75018
3129000000,-13.870278,-148.64105
3130000000,-13.884315,-149.29109
3131000000,-13.873557,-148.71205
3132000000,-13.834586,-149.47719
3133000000,-13.834115,-149.72774
3134000000,-13.883137,-149.5885
3135000000,-13.811105,-150.11812
3136000000,-13.812582,-150.35504
3137000000,-13.850484,-150.57756
3138000000,-13.791995,-150.78267
3139000000,-13.806498,-151.07919
3140000000,-13.807399,-151.09998
3141000000,-13.802825,-151.46471
3142000000,-13.802299,-151.18297
3143000000,-13.754829,-151.67767
3144000000,-13.759162,-151.96474
3145000000,-13.761809,-151.86282
3146000000,-13.730974,-152.18726
3147000000,-13.738939,-152.51331
3148000000,-13.740355,-152.93109
3149000000,-13.70443,-152.9379
3150000000,-13.705424,-153.19041
3151000000,-13.710304,-153.25987
3152000000,-13.702743,-153.34859
3153000000,-13.686543,-153.56207
3154000000,-13.623624,-153.76849
3155000000,-13.673448,-153.9772
3156000000,-13.672329,-154.36507
3157000000,-13.626774,-154.57574
3158000000,-13.605369,-154.94127
3159000000,-13.633203,-154.82086
3160000000,-13.575518,-155.03464
3161000000,-13.567318,-155.31537
3162000000,-13.539414,-155.62158
3163000000,-13.572731,-155.77415
3164000000,-13.531414,-155.97743
3165000000,-13.588839,-156.09575
3166000000,-13.577378,-156.35051
3167000000,-13.553187,-156.16557
3168000000,-13.556149,-156.80302
3169000000,-13.555693,-156.70702
3170000000,-13.503778,-157.07399
3171000000,-13.535877,-157.12894
3172000000,-13.507401,-157.24973
3173000000,-13.462601,-157.49036
3174000000,-13.502746,-157.72496
3175000000,-13.481909,-158.04718
3176000000,-13.447847,-158.10388
3177000000,-13.451351,-158.15651
3178000000,-13.408569,-158.21159
3179000000,-13.43283,-158.43454
3180000000,-13.408029,-158.6985
3181000000,-13.434459,-159.22687
3182000000,-13.444796,-159.32034
3183000000,-13.409217,-159.39215
3184000000,-13.394188,-159.58635
3185000000,-13.391388,-159.94888
3186000000,-13.372631,-160.24937
3187000000,-13.368481,-160.06676
3188000000,-13.416004,-160.22353
3189000000,-13.327181,-160.48436
3190000000,-13.388528,-160.88382
3191000000,-13.38291,-161.20403
3192000000,-13.365181,-161.38684
3193000000,-13.377295,-161.04146
3194000000,-13.327425,-161.82524
3195000000,-13.357828,-161.72827
3196000000,-13.33101,-161.89384
3197000000,-13.331234,-162.0452
3198000000,-13.357037,-162.29399
3199000000,-13.322791,-162.66402
3200000000,-13.31976,-162.65863
3201000000,-13.282421,-163.16922
3202000000,-13.290771,-163.41696
3203000000,-13.29152,-163.3456
3204000000,-13.282008,-163.66537
3205000000,-13.267259,-163.87952
3206000000,-13.324369,-164.15446
3207000000,-13.296262,-164.47531
3208000000,-13.326477,-164.24214
3209000000,-13.321597,-164.33871
3210000000,-13.292179,-164.87985
3211000000,-13.227189,-164.88116
3212000000,-13.286696,-165.03291
3213000000,-13.251344,-165.42227
3214000000,-13.282672,-165.56229
3215000000,-13.240896,-165.83423
3216000000,-13.252487,-166.16483
3217000000,-13.289886,-166.28822
3218000000,-13.234276,-166.57729
3219000000,-13.229282,-166.3788
3220000000,-13.2158,-166.99277
3221000000,-13.215761,-167.1266
3222000000,-13.212167,-167.22792
3223000000,-13.180593,-167.3485
3224000000,-13.175573,-167.93095
3225000000,-13.235698,-168.12674
3226000000,-13.230698,-167.94337
3227000000,-13.204047,-168.31963
3228000000,-13.175086,-168.45993
3229000000,-13.158854,-168.84181
3230000000,-13.204135,-168.99107
3231000000,-13.190279,-169.28691
3232000000,-13.171061,-169.12175
3233000000,-13.150517,-169.8446
3234000000,-13.154036,-170.06682
3235000000,-13.183372,-170.0249
3236000000,-13.167966,-169.98238
3237000000,-13.186594,-170.40579
3238000000,-13.17843,-170.46382
3239000000,-13.205482,-170.62198
3240000000,-13.109878,-171.07846
3241000000,-13.154618,-171.12123
3242000000,-13.109464,-171.3196
3243000000,-13.147154,-171.58884
3244000000,-13.09323,-171.62862
3245000000,-13.107324,-171.80325
3246000000,-13.127103,-171.9915
3247000000,-13.095341,-172.48358
3248000000,-13.1122,-172.70993
3249000000,-13.077006,-172.78223
3250000000,-13.089869,-172.88312
3251000000,-13.134185,-173.15913
3252000000,-13.133986,-173.36494
3253000000,-13.103655,-173.53659
3254000000,-13.139559,-173.62228
3255000000,-13.078906,-174.14459
3256000000,-13.110322,-174.06033
3257000000,-13.095006,-174.32809
3258000000,-13.064283,-174.45238
3259000000,-13.073794,-174.53209
3260000000,-13.132883,-175.02466
3261000000,-13.072955,-175.01657
3262000000,-13.063963,-175.29294
3263000000,-13.146002,-175.64839
3264000000,-13.10366,-175.54663
3265000000,-13.140616,-175.85809
3266000000,-13.090504,-176.17958
3267000000,-13.090738,-176.13971
3268000000,-13.058969,-176.33052
3269000000,-13.08121,-176.68835
3270000000,-13.077695,-176.993
3271000000,-13.093051,-177.01265
3272000000,-13.067515,-177.30656
3273000000,-13.09584,-177.53604
3274000000,-13.099983,-177.85258
3275000000,-13.077863,-177.97055
3276000000,-13.087663,-178.25742
3277000000,-13.077071,-178.6259
3278000000,-13.096697,-178.62701
3279000000,-13.086797,-178.8324
3280000000,-13.046308,-179.10478
3281000000,-13.118979,-179.32373
3282000000,-13.070538,-179.56908
3283000000,-13.130116,-179.75613
3284000000,-13.049668,-179.68065
3285000000,-13.081922,-179.98293
3286000000,-13.097342,-180.26811
3287000000,-13.066794,-180.6525
3288000000,-13.104297,-180.84372
3289000000,-13.106855,-181.27921
3290000000,-13.100317,-181.38463
3291000000,-13.101681,-181.67773
3292000000,-13.105936,-181.48363
3293000000,-13.110001,-181.93147
3294000000,-13.10872,-182.09019
3295000000,-13.100985,-182.21594
3296000000,-13.104328,-182.27672
3297000000,-13.072001,-182.49091
3298000000,-13.134048,-182.78659
3299000000,-13.129729,-183.11935
3300000000,-13.144056,-183.31209
3301000000,-13.108301,-183.74159
3302000000,-13.125122,-183.65317
3303000000,-13.119281,-184.15471
3304000000,-13.102473,-184.15993
3305000000,-13.125487,-184.26929
3306000000,-13.123388,-184.68973
3307000000,-13.134273,-184.9581
3308000000,-13.099069,-184.87
3309000000,-13.152227,-185.01411
3310000000,-13.140946,-185.38652
3311000000,-13.133779,-185.57635
3312000000,-13.115932,-185.65321
3313000000,-13.175641,-186.3157
3314000000,-13.101121,-186.31461
3315000000,-13.123637,-186.53485
3316000000,-13.106089,-186.82802
3317000000,-13.161034,-186.87019
3318000000,-13.11049,-187.15382
3319000000,-13.153152,-187.38225
3320000000,-13.108847,-187.66026
3321000000,-13.154881,-188.01483
3322000000,-13.12259,-187.92859
3323000000,-13.152312,-188.25673
3324000000,-13.136395,-188.45509
3325000000,-13.108734,-188.72906
3326000000,-13.145932,-188.60335
3327000000,-13.180453,-189.28249
3328000000,-13.15427,-189.44975
3329000000,-13.194869,-189.50262
3330000000,-13.169199,-189.8627
3331000000,-13.160806,-189.87427
3332000000,-13.183078,-190.03885
3333000000,-13.207858,-190.49773
3334000000,-13.185834,-190.57838
3335000000,-13.239975,-190.79468
3336000000,-13.203896,-191.08479
3337000000,-13.157729,-191.44048
3338000000,-13.17756,-191.34981
3339000000,-13.228765,-191.5551
3340000000,-13.223808,-191.80414
3341000000,-13.239474,-191.99597
3342000000,-13.216342,-192.11446
3343000000,-13.202619,-192.41902
3344000000,-13.268335,-192.84691
3345000000,-13.257419,-192.93721
3346000000,-13.254769,-193.13838
3347000000,-13.224319,-193.38893
3348000000,-13.267028,-193.52528
3349000000,-13.295668,-193.69348
3350000000,-13.277416,-193.77025
3351000000,-13.282216,-194.35376
3352000000,-13.288439,-194.65932
3353000000,-13.300338,-194.79677
3354000000,-13.33136,-194.67819
3355000000,-13.308175,-194.94429
3356000000,-13.324596,-195.28795
3357000000,-13.336485,-195.31544
3358000000,-13.33869,-195.64978
3359000000,-13.327337,-195.49403
3360000000,-13.418832,-196.07864
3361000000,-13.36265,-196.3885
3362000000,-13.373824,-196.6714
3363000000,-13.404118,-196.63609
3364000000,-13.350754,-196.84645
3365000000,-13.412118,-197.0918
3366000000,-13.430407,-197.3045
3367000000,-13.40213,-197.76489
3368000000,-13.429376,-197.5231
3369000000,-13.432093,-197.96794
3370000000,-13.489502,-198.11101
3371000000,-13.457938,-198.29097
3372000000,-13.455949,-198.83519
3373000000,-13.453843,-198.79041
3374000000,-13.472009,-199.12292
3375000000,-13.513537,-199.38187
3376000000,-13.492208,-199.57355
3377000000,-13.506253,-199.70901
3378000000,-13.470266,-199.74425
3379000000,-13.522846,-200.28654
3380000000,-13.555578,-200.61111
3381000000,-13.576247,-200.75641
3382000000,-13.551519,-200.8196
3383000000,-13.557193,-201.36621
3384000000,-13.580421,-201.03546
3385000000,-13.601702,-201.75983
3386000000,-13.584579,-201.94055
3387000000,-13.63448,-202.03571
3388000000,-13.621652,-202.23816
3389000000,-13.658476,-202.57504
3390000000,-13.679125,-202.82845
3391000000,-13.690358,-202.99239
3392000000,-13.652569,-203.12512
3393000000,-13.690517,-203.35306
3394000000,-13.686953,-203.79527
3395000000,-13.718338,-203.93875
3396000000,-13.723609,-204.28572
3397000000,-13.728781,-204.49432
3398000000,-13.756292,-204.68529
3399000000,-13.7607,-205.04135
3400000000,-13.729822,-205.09241
3401000000,-13.724683,-205.30093
3402000000,-13.76824,-205.46585
3403000000,-13.824992,-205.71837
3404000000,-13.822289,-205.95178
3405000000,-13.832874,-206.37221
3406000000,-13.83722,-206.56949
3407000000,-13.849418,-206.85057
3408000000,-13.841069,-207.01181
3409000000,-13.881396,-207.11542
3410000000,-13.885507,-207.48062
3411000000,-13.926475,-207.24377
3412000000,-13.875568,-207.89282
3413000000,-13.937761,-208.11392
3414000000,-13.902942,-208.15398
3415000000,-13.929803,-208.54245
3416000000,-13.915968,-208.96315
3417000000,-13.960385,-209.00264
3418000000,-13.97875,-209.145
3419000000,-13.989831,-209.399
3420000000,-14.034586,-209.67812
3421000000,-14.039921,-210.07542
3422000000,-14.025468,-210.25227
3423000000,-14.080929,-210.40912
3424000000,-14.058254,-210.64725
3425000000,-14.039713,-210.51563
3426000000,-14.087942,-210.92993
3427000000,-14.127719,-211.15855
3428000000,-14.124587,-211.63014
3429000000,-14.153366,-211.79222
3430000000,-14.172307,-211.77547
3431000000,-14.181826,-211.94534
3432000000,-14.160556,-212.34395
3433000000,-14.210848,-212.91336
3434000000,-14.206833,-212.89737
3435000000,-14.252562,-212.99155
3436000000,-14.280666,-213.26271
3437000000,-14.283334,-213.3613
3438000000,-14.325572,-213.61832
3439000000,-14.300204,-213.94827
3440000000,-14.338492,-214.18785
3441000000,-14.348438,-214.28024
3442000000,-14.378274,-214.65485
3443000000,-14.411104,-214.75423
3444000000,-14.405708,-215.09567
3445000000,-14.448927,-215.2249
3446000000,-14.517044,-215.63661
3447000000,-14.482271,-216.00111
3448000000,-14.492759,-216.28938
3449000000,-14.501507,-216.55223
3450000000,-14.509254,-216.5681
3451000000,-14.553357,-216.87305
3452000000,-14.555122,-217.02481
3453000000,-14.61495,-217.26437
3454000000,-14.610916,-217.18871
3455000000,-14.617352,-217.92053
3456000000,-14.640503,-217.88275
3457000000,-14.720027,-218.50647
3458000000,-14.659739,-218.96426
3459000000,-14.741032,-218.88927
3460000000,-14.755146,-219.02368
3461000000,-14.758387,-219.30969
3462000000,-14.819432,-219.24008
3463000000,-14.829605,-219.92836
3464000000,-14.808465,-219.86353
3465000000,-14.823453,-220.39433
3466000000,-14.885414,-220.57654
3467000000,-14.915916,-220.73154
3468000000,-14.870236,-220.86325
3469000000,-14.970733,-221.18024
3470000000,-14.964578,-221.47925
3471000000,-14.965401,-221.62978
3472000000,-15.02653,-221.6888
3473000000,-14.993507,-222.03516
3474000000,-15.028811,-222.28755
3475000000,-15.118272,-222.50868
3476000000,-15.077789,-223.0591
3477000000,-15.147119,-223.16566
3478000000,-15.17218,-223.15001
3479000000,-15.162292,-223.7122
3480000000,-15.222883,-224.02448
3481000000,-15.22534,-224.2128
3482000000,-15.263962,-224.243
3483000000,-15.281086,-224.45563
3484000000,-15.31114,-224.89859
3485000000,-15.283464,-225.12004
3486000000,-15.338432,-225.28032
3487000000,-15.397279,-225.57956
3488000000,-15.422602,-225.77151
3489000000,-15.445514,-226.13057
3490000000,-15.46019,-226.23047
3491000000,-15.482249,-226.58473
3492000000,-15.532997,-226.65463
3493000000,-15.502932,-226.80783
3494000000,-15.565965,-227.1266
3495000000,-15.597995,-227.18555
3496000000,-15.636543,-227.74524
3497000000,-15.677611,-227.57265
3498000000,-15.662591,-228.09209
3499000000,-15.71819,-227.79045
3500000000,-15.747713,-228.35312
3501000000,-15.763174,-228.74622
3502000000,-15.827618,-228.80977
3503000000,-15.834094,-229.2394
3504000000,-15.864424,-229.40829
3505000000,-15.881543,-229.49788
3506000000,-15.943912,-230.06651
3507000000,-15.990266,-230.28447
3508000000,-16.02404,-230.56638
3509000000,-16.033709,-230.53435
3510000000,-16.084175,-230.83423
3511000000,-16.073465,-231.03976
3512000000,-16.166914,-231.38432
3513000000,-16.176508,-231.3192
3514000000,-16.215054,-231.99956
3515000000,-16.215122,-232.15294
3516000000,-16.280081,-232.17996
3517000000,-16.257654,-232.71184
3518000000,-16.325474,-232.76834
3519000000,-16.395672,-233.19553
3520000000,-16.425194,-233.15695
3521000000,-16.475464,-233.67392
3522000000,-16.520269,-233.97202
3523000000,-16.539232,-234.09471
3524000000,-16.552984,-234.58313
3525000000,-16.638531,-234.49023
3526000000,-16.687157,-234.75554
3527000000,-16.725946,-234.99203
3528000000,-16.719639,-235.75769
3529000000,-16.750723,-235.61836
3530000000,-16.811092,-235.76851
3531000000,-16.813496,-236.30704
3532000000,-16.897196,-236.46416
3533000000,-16.97014,-237.00893
3534000000,-16.958502,-237.15387
3535000000,-17.007418,-237.59322
3536000000,-17.07128,-237.68654
3537000000,-17.116219,-237.81656
3538000000,-17.178017,-238.00768
3539000000,-17.233639,-238.57092
3540000000,-17.275745,-238.88655
3541000000,-17.332659,-239.03493
3542000000,-17.282948,-239.63239
3543000000,-17.347948,-239.59407
3544000000,-17.394743,-240.30226
3545000000,-17.457418,-240.12976
3546000000,-17.466108,-240.54599
3547000000,-17.564058,-240.60486
3548000000,-17.569103,-241.10625
3549000000,-17.605804,-241.12816
3550000000,-17.713417,-241.16652
3551000000,-17.696203,-241.74248
3552000000,-17.724361,-241.90154
3553000000,-17.773314,-242.54341
3554000000,-17.89921,-242.59589
3555000000,-17.923519,-243.06108
3556000000,-17.961216,-242.99438
3557000000,-18.034666,-243.39369
3558000000,-18.041334,-243.92278
3559000000,-18.11422,-244.28877
3560000000,-18.150911,-244.5629
3561000000,-18.156393,-244.80171
3562000000,-18.239212,-245.15807
3563000000,-18.313416,-245.23483
3564000000,-18.313686,-245.45317
3565000000,-18.388697,-245.71535
3566000000,-18.422585,-246.13161
3567000000,-18.434914,-246.47777
3568000000,-18.523275,-246.53609
3569000000,-18.557013,-246.51224
3570000000,-18.649776,-247.33833
3571000000,-18.716845,-247.91931
3572000000,-18.771105,-247.77086
3573000000,-18.818844,-247.95221
3574000000,-18.859333,-248.31284
3575000000,-18.916359,-248.46075
3576000000,-18.953709,-248.86937
3577000000,-19.019905,-249.50447
3578000000,-19.09016,-249.64948
3579000000,-19.183481,-249.79436
3580000000,-19.281666,-250.11894
3581000000,-19.260355,-250.12596
3582000000,-19.362911,-250.71811
3583000000,-19.417597,-250.43993
3584000000,-19.424135,-251.31851
3585000000,-19.477106,-251.3806
3586000000,-19.604509,-251.32816
3587000000,-19.660612,-252.19603
3588000000,-19.662281,-252.31705
3589000000,-19.764994,-252.65858
3590000000,-19.846142,-253.09122
3591000000,-19.944061,-253.07977
3592000000,-19.983322,-253.19402
3593000000,-20.071405,-253.38939
3594000000,-20.184727,-254.08194
3595000000,-20.186865,-254.46184
3596000000,-20.29265,-254.70438
3597000000,-20.285328,-255.26961
3598000000,-20.446329,-255.31523
3599000000,-20.511719,-255.84309
3600000000,-20.640476,-255.69164
3601000000,-20.642139,-256.02863
3602000000,-20.751783,-256.492
3603000000,-20.872299,-256.58105
3604000000,-20.957611,-256.84982
3605000000,-20.989655,-257.38318
3606000000,-21.0814,-257.59601
3607000000,-21.238047,-258.08145
3608000000,-21.241659,-258.23148
3609000000,-21.418415,-258.49286
3610000000,-21.437649,-258.9599
3611000000,-21.51561,-259.12073
3612000000,-21.572742,-259.92795
3613000000,-21.775454,-260.23856
3614000000,-21.831892,-260.42145
3615000000,-21.949644,-260.38373
3616000000,-22.00779,-260.96875
3617000000,-22.118176,-261.10922
3618000000,-22.277391,-261.86981
3619000000,-22.340456,-262.68866
3620000000,-22.420069,-262.6615
3621000000,-22.477562,-262.67441
3622000000,-22.655577,-262.95987
3623000000,-22.715847,-263.83365
3624000000,-22.778906,-263.43527
3625000000,-23.032419,-265.02078
3626000000,-22.973759,-264.89188
3627000000,-23.199417,-265.4248
3628000000,-23.230244,-266.01538
3629000000,-23.383854,-266.37973
3630000000,-23.563335,-266.45474
3631000000,-23.598455,-267.7095
3632000000,-23.715633,-267.60736
3633000000,-23.834616,-268.6218
3634000000,-23.92243,-269.12302
3635000000,-24.044956,-268.79297
3636000000,-24.280649,-269.67401
3637000000,-24.411455,-270.20337
3638000000,-24.48007,-269.96866
3639000000,-24.613829,-270.5285
3640000000,-24.746391,-270.55627
3641000000,-24.776623,-272.42239
3642000000,-25.038055,-271.81625
3643000000,-25.130014,-273.14252
3644000000,-25.232563,-273.18671
3645000000,-25.399744,-273.34094
3646000000,-25.543175,-274.71378
3647000000,-25.76536,-275.16254
3648000000,-25.754557,-276.04028
3649000000,-25.976292,-276.43909
3650000000,-26.165716,-277.27142
3651000000,-26.251657,-277.30179
3652000000,-26.522102,-278.25723
3653000000,-26.483009,-278.56573
3654000000,-26.703362,-279.52667
3655000000,-26.825809,-280.34421
3656000000,-27.014711,-280.7677
3657000000,-27.157717,-280.68436
3658000000,-27.408966,-283.08359
3659000000,-27.636824,-281.99274
3660000000,-27.673538,-283.4375
3661000000,-27.772331,-283.30621
3662000000,-28.00342,-285.76657
3663000000,-28.107119,-285.59473
3664000000,-28.259893,-285.62238
3665000000,-28.64908,-285.6965
3666000000,-28.877922,-287.72919
3667000000,-29.159557,-287.70764
3668000000,-29.119886,-289.71283
3669000000,-29.284384,-290.74228
3670000000,-29.62746,-291.16846
3671000000,-29.952358,-292.61923
3672000000,-29.842522,-292.34457
3673000000,-30.308336,-294.70462
3674000000,-30.328651,-296.90762
3675000000,-30.709332,-296.7446
3676000000,-30.719009,-298.10037
3677000000,-31.483051,-299.23489
3678000000,-31.362026,-302.55139
3679000000,-31.552151,-300.06036
3680000000,-31.842493,-304.19556
3681000000,-32.409817,-304.75626
3682000000,-32.601555,-304.90128
3683000000,-32.753815,-308.43878
3684000000,-33.185596,-310.62225
3685000000,-33.049313,-310.06308
3686000000,-33.32222,-312.72241
3687000000,-33.964878,-316.70532
3688000000,-34.155991,-317.33823
3689000000,-34.189739,-320.13956
3690000000,-34.416813,-321.26358
3691000000,-34.469002,-324.91187
3692000000,-34.979954,-328.56873
3693000000,-35.419952,-331.07828
3694000000,-35.85923,-334.12521
3695000000,-35.243958,-336.48053
3696000000,-35.757992,-338.77423
3697000000,-35.362907,-342.85297
3698000000,-36.042591,-349.10928
3699000000,-36.38781,-351.99576
3700000000,-36.035671,-356.10098
3701000000,-36.295944,-358.04187
3702000000,-36.184765,-359.69547
3703000000,-36.732624,-368.97885
3704000000,-36.129112,-373.78683
3705000000,-36.002586,-372.66519
3706000000,-36.091431,-380.2999
3707000000,-35.588676,-380.69919
3708000000,-35.709831,-385.95468
3709000000,-34.994961,-389.35742
3710000000,-35.141926,-389.48743
3711000000,-34.802685,-391.82959
3712000000,-34.670181,-400.07278
3713000000,-34.586098,-401.11639
3714000000,-34.122643,-400.45456
3715000000,-33.398441,-402.94614
3716000000,-33.363205,-406.36652
3717000000,-33.053982,-409.96017
3718000000,-32.884857,-409.73138
3719000000,-32.624573,-412.24237
3720000000,-32.399632,-414.43661
3721000000,-32.031914,-416.1261
3722000000,-31.899073,-417.73529
3723000000,-31.614697,-418.33459
3724000000,-31.208757,-420.46646
3725000000,-31.082897,-422.74341
3726000000,-30.935665,-423.75894
3727000000,-30.66452,-422.7471
3728000000,-30.17005,-424.46771
3729000000,-30.041397,-425.04892
3730000000,-29.881117,-426.25098
3731000000,-29.421644,-428.13608
3732000000,-29.472944,-428.54825
3733000000,-29.152288,-430.1123
3734000000,-29.045015,-430.75494
3735000000,-28.796835,-431.32535
3736000000,-28.507061,-431.40643
3737000000,-28.371292,-432.83307
3738000000,-28.142529,-434.49643
3739000000,-27.979801,-433.80124
3740000000,-27.809708,-435.79272
3741000000,-27.550568,-435.00543
3742000000,-27.416231,-436.73495
3743000000,-27.229689,-436.1384
3744000000,-27.072084,-439.22537
3745000000,-26.944304,-437.25638
3746000000,-26.80464,-439.50015
3747000000,-26.537422,-439.47644
3748000000,-26.366615,-439.72955
3749000000,-26.111341,-440.97992
3750000000,-25.978794,-441.12033
3751000000,-26.029171,-441.51157
3752000000,-25.647926,-443.05539
3753000000,-25.554033,-443.55771
3754000000,-25.413662,-443.62042
3755000000,-25.437967,-444.68903
3756000000,-25.184925,-444.46924
3757000000,-25.024199,-445.47418
3758000000,-25.016357,-446.28134
3759000000,-24.733829,-446.48828
3760000000,-24.59849,-447.01346
3761000000,-24.475277,-447.27814
3762000000,-24.397835,-448.46072
3763000000,-24.131193,-447.58472
3764000000,-24.045685,-449.03519
3765000000,-23.94603,-449.1976
3766000000,-23.862009,-449.57941
3767000000,-23.772631,-450.67053
3768000000,-23.675823,-449.94653
3769000000,-23.420872,-450.64795
3770000000,-23.378445,-451.87555
3771000000,-23.252911,-451.62485
3772000000,-23.050777,-451.91785
3773000000,-22.935383,-452.80621
3774000000,-22.862406,-452.79831
3775000000,-22.794441,-453.38254
3776000000,-22.643854,-453.65128
3777000000,-22.58625,-454.07214
3778000000,-22.385685,-454.80814
3779000000,-22.334738,-454.46222
3780000000,-22.195717,-455.05069
3781000000,-22.098852,-456.40613
3782000000,-22.114691,-456.18097
3783000000,-21.901262,-456.60339
3784000000,-21.774717,-456.20541
3785000000,-21.614693,-457.26184
3786000000,-21.655558,-457.29126
3787000000,-21.52812,-457.8067
3788000000,-21.367096,-458.51611
3789000000,-21.291662,-458.85114
3790000000,-21.268553,-459.1774
3791000000,-21.162893,-458.81677
3792000000,-21.113768,-459.35068
3793000000,-20.904928,-459.62186
3794000000,-20.818232,-460.13904
3795000000,-20.730932,-460.43503
3796000000,-20.632519,-461.19662
3797000000,-20.614511,-460.71506
3798000000,-20.479019,-461.24902
3799000000,-20.339764,-461.56921
3800000000,-20.337843,-461.6337
3801000000,-20.250263,-461.38785
3802000000,-20.137079,-462.16138
3803000000,-20.038477,-462.82745
3804000000,-19.92017,-462.92679
3805000000,-19.794901,-463.52887
3806000000,-19.842707,-463.89984
3807000000,-19.779238,-463.52856
3808000000,-19.605244,-464.38046
3809000000,-19.519724,-464.10278
3810000000,-19.41814,-464.56335
3811000000,-19.33872,-464.78564
3812000000,-19.336544,-465.22748
3813000000,-19.341475,-465.48312
3814000000,-19.187832,-465.5051
3815000000,-19.060446,-466.09653
3816000000,-19.136049,-466.20139
3817000000,-18.947138,-466.13184
3818000000,-18.898998,-466.69138
3819000000,-18.854095,-466.90747
3820000000,-18.816351,-466.78427
3821000000,-18.676165,-467.00293
3822000000,-18.645977,-467.14401
3823000000,-18.555643,-468.06839
3824000000,-18.522684,-468.41022
3825000000,-18.493658,-468.09488
3826000000,-18.33799,-468.26062
3827000000,-18.287468,-468.5983
3828000000,-18.24329,-468.86014
3829000000,-18.230145,-469.04184
3830000000,-18.17544,-469.56223
3831000000,-18.100342,-469.60315
3832000000,-18.012882,-469.98477
3833000000,-17.959423,-470.21835
3834000000,-17.923693,-470.16641
3835000000,-17.80003,-470.53098
3836000000,-17.77017,-471.13602
3837000000,-17.747108,-471.71747
3838000000,-17.717255,-472.00122
3839000000,-17.611881,-472.17044
3840000000,-17.584822,-471.9935
3841000000,-17.514797,-472.67911
3842000000,-17.489874,-472.56238
3843000000,-17.371082,-473.03464
3844000000,-17.351748,-473.21863
3845000000,-17.320465,-473.35965
3846000000,-17.209648,-473.97574
3847000000,-17.150215,-474.05502
3848000000,-17.067411,-474.48517
3849000000,-17.046871,-474.65762
3850000000,-17.054939,-474.60571
3851000000,-17.0165,-474.74191
3852000000,-16.85228,-474.86951
3853000000,-16.859907,-475.53079
3854000000,-16.778839,-476.01474
3855000000,-16.788996,-476.0574
3856000000,-16.713514,-476.43204
3857000000,-16.666014,-476.06567
3858000000,-16.588978,-476.92566
3859000000,-16.559601,-476.44061
3860000000,-16.52449,-477.45831
3861000000,-16.390203,-477.25412
3862000000,-16.426027,-477.63477
3863000000,-16.309601,-477.90616
3864000000,-16.287712,-478.13199
3865000000,-16.254995,-478.34909
3866000000,-16.128706,-478.13379
3867000000,-16.163952,-478.77475
3868000000,-16.07741,-479.09668
3869000000,-15.944513,-479.39874
3870000000,-15.98327,-479.64517
3871000000,-15.872705,-479.84851
3872000000,-15.901362,-479.93887
3873000000,-15.834942,-480.33344
3874000000,-15.800589,-480.25601
3875000000,-15.731329,-480.77078
3876000000,-15.664909,-480.8508
3877000000,-15.639043,-481.12808
3878000000,-15.612879,-481.27634
3879000000,-15.529483,-481.58572
3880000000,-15.462955,-481.74347
3881000000,-15.413333,-482.2019
3882000000,-15.412279,-482.30304
3883000000,-15.365492,-482.79346
3884000000,-15.271378,-482.60571
3885000000,-15.249548,-482.9104
3886000000,-15.265053,-482.87503
3887000000,-15.239993,-483.38281
3888000000,-15.137462,-483.48102
3889000000,-15.093721,-483.76541
3890000000,-15.125175,-483.5022
3891000000,-15.072086,-484.15726
3892000000,-15.01548,-484.47183
3893000000,-14.913646,-484.64948
3894000000,-14.921705,-484.85818
3895000000,-14.867357,-484.7706
3896000000,-14.847346,-485.1077
3897000000,-14.779527,-485.39462
3898000000,-14.793515,-485.30554
3899000000,-14.712151,-485.64645
3900000000,-14.71868,-486.24957
3901000000,-14.626215,-486.22217
3902000000,-14.615807,-486.67212
3903000000,-14.548658,-486.4964
3904000000,-14.550781,-487.04129
3905000000,-14.489087,-486.80414
3906000000,-14.429617,-487.3204
3907000000,-14.411623,-487.5571
3908000000,-14.382737,-487.80191
3909000000,-14.339024,-487.80295
3910000000,-14.304783,-488.4993
3911000000,-14.278398,-488.25574
3912000000,-14.200212,-488.35333
3913000000,-14.230008,-488.87878
3914000000,-14.148571,-489.01965
3915000000,-14.11384,-488.99734
3916000000,-14.088278,-489.35016
3917000000,-14.025845,-489.38699
3918000000,-14.035695,-489.60321
3919000000,-14.021781,-490.01645
3920000000,-13.992183,-490.38831
3921000000,-13.915212,-490.22928
3922000000,-13.878113,-490.4718
3923000000,-13.883819,-490.3176
3924000000,-13.815047,-490.86313
3925000000,-13.820808,-491.0564
3926000000,-13.734559,-491.41064
3927000000,-13.681268,-491.6149
3928000000,-13.701339,-491.616
3929000000,-13.671676,-491.80984
3930000000,-13.606544,-491.88934
3931000000,-13.631434,-492.1778
3932000000,-13.53965,-492.3627
3933000000,-13.535399,-492.3714
3934000000,-13.45823,-492.97711
3935000000,-13.482351,-492.8494
3936000000,-13.42616,-493.35501
3937000000,-13.406562,-493.302
3938000000,-13.382328,-493.69467
3939000000,-13.363623,-493.70465
3940000000,-13.322206,-493.96277
3941000000,-13.257823,-494.17136
3942000000,-13.244045,-494.31812
3943000000,-13.231803,-494.84311
3944000000,-13.187101,-495.00079
3945000000,-13.170495,-494.9111
3946000000,-13.138121,-495.27069
3947000000,-13.102245,-495.19669
3948000000,-13.064345,-495.59012
3949000000,-12.996764,-495.76028
3950000000,-12.975403,-495.95593
3951000000,-12.981464,-496.30093
3952000000,-13.002016,-496.51141
3953000000,-12.903982,-496.55273
3954000000,-12.898486,-496.86404
3955000000,-12.852299,-496.75272
3956000000,-12.849484,-497.09064
3957000000,-12.812027,-497.5481
3958000000,-12.767076,-497.87775
3959000000,-12.744116,-497.65836
3960000000,-12.726899,-498.01865
3961000000,-12.712658,-498.27591
3962000000,-12.717581,-498.39279
3963000000,-12.697713,-498.35947
3964000000,-12.599761,-498.72278
3965000000,-12.541097,-498.80472
3966000000,-12.547018,-498.94516
3967000000,-12.541014,-499.41788
3968000000,-12.51915,-499.48901
3969000000,-12.509632,-499.56021
3970000000,-12.494318,-499.80167
3971000000,-12.41119,-499.84659
3972000000,-12.412131,-500.14661
3973000000,-12.367041,-500.12384
3974000000,-12.339651,-500.10843
3975000000,-12.334552,-500.74304
3976000000,-12.304519,-500.92511
3977000000,-12.25998,-500.95099
3978000000,-12.214347,-501.07056
3979000000,-12.252141,-501.22858
3980000000,-12.204399,-501.556
3981000000,-12.119039,-501.79739
3982000000,-12.160822,-501.81024
3983000000,-12.134629,-501.85968
3984000000,-12.092264,-502.04736
3985000000,-12.094122,-502.44479
3986000000,-12.050197,-502.48239
3987000000,-12.020802,-502.57391
3988000000,-12.001529,-503.06476
3989000000,-11.938866,-502.97195
3990000000,-11.948869,-503.10031
3991000000,-11.930866,-503.48206
3992000000,-11.90269,-503.57663
3993000000,-11.8811,-503.90683
3994000000,-11.876582,-503.67505
3995000000,-11.854238,-504.04962
3996000000,-11.804449,-504.03741
3997000000,-11.780354,-504.61816
3998000000,-11.765454,-504.74344
3999000000,-11.727202,-504.86295
4000000000,-11.716335,-505.03333
4001000000,-11.695684,-505.24362
4002000000,-11.661783,-505.51721
4003000000,-11.681365,-505.51691
4004000000,-11.653912,-505.69092
4005000000,-11.61822,-506.01993
4006000000,-11.593659,-506.05582
4007000000,-11.566369,-506.23727
4008000000,-11.575414,-506.47476
4009000000,-11.557383,-506.6629
4010000000,-11.540592,-506.96124
4011000000,-11.463223,-506.98026
4012000000,-11.473668,-506.98636
4013000000,-11.439448,-507.40729
4014000000,-11.411785,-507.47586
4015000000,-11.401686,-507.81555
4016000000,-11.409837,-507.95374
4017000000,-11.32596,-508.1965
4018000000,-11.366188,-508.09451
4019000000,-11.327795,-508.4053
4020000000,-11.309162,-508.69595
4021000000,-11.298151,-508.77545
4022000000,-11.274268,-508.90286
4023000000,-11.245731,-509.22662
4024000000,-11.231644,-509.13083
4025000000,-11.236975,-509.63037
4026000000,-11.212868,-509.68002
4027000000,-11.199089,-509.58151
4028000000,-11.146024,-509.89111
4029000000,-11.14993,-510.30579
4030000000,-11.100555,-510.38025
4031000000,-11.050307,-510.36096
4032000000,-11.055743,-510.74222
4033000000,-11.015462,-510.9986
4034000000,-10.982599,-511.14474
4035000000,-10.989958,-511.19394
4036000000,-10.93167,-511.30664
4037000000,-10.927071,-511.56772
4038000000,-10.89714,-511.80887
4039000000,-10.916161,-511.79227
4040000000,-10.851616,-512.05823
4041000000,-10.858663,-512.1181
4042000000,-10.828046,-512.43323
4043000000,-10.81231,-512.48602
4044000000,-10.796975,-512.58154
4045000000,-10.774355,-512.99121
4046000000,-10.768408,-513.12921
4047000000,-10.71282,-512.98834
4048000000,-10.705758,-513.3645
4049000000,-10.723228,-513.39551
4050000000,-10.688004,-513.57373
4051000000,-10.646045,-513.9729
4052000000,-10.609707,-514.13074
4053000000,-10.631359,-514.18457
4054000000,-10.618905,-514.33142
4055000000,-10.61292,-514.41162
4056000000,-10.577922,-514.7193
4057000000,-10.560305,-514.81512
4058000000,-10.517034,-514.96533
4059000000,-10.528447,-515.15204
4060000000,-10.513313,-515.32635
4061000000,-10.474665,-515.25952
4062000000,-10.463393,-515.41681
4063000000,-10.457026,-515.71021
4064000000,-10.447237,-515.84418
4065000000,-10.376126,-515.94702
4066000000,-10.401741,-516.11847
4067000000,-10.367738,-516.47449
4068000000,-10.372066,-516.4892
4069000000,-10.322742,-516.74713
4070000000,-10.331712,-516.66119
4071000000,-10.31188,-517.03296
4072000000,-10.264915,-517.16534
4073000000,-10.296638,-517.23682
4074000000,-10.24071,-517.49213
4075000000,-10.23682,-517.45844
4076000000,-10.218519,-517.65955
4077000000,-10.194368,-517.82715
4078000000,-10.189852,-518.20807
4079000000,-10.173847,-518.37207
4080000000,-10.156759,-518.4118
4081000000,-10.172277,-518.50885
4082000000,-10.140189,-518.8299
4083000000,-10.066171,-519.25067
4084000000,-10.064178,-518.83801
4085000000,-10.062238,-519.25696
4086000000,-10.030372,-519.38977
4087000000,-10.078584,-519.40405
4088000000,-10.016654,-519.46417
4089000000,-10.013343,-520.01813
4090000000,-9.988843,-519.82666
4091000000,-9.9901619,-520.13934
4092000000,-9.9610729,-520.2688
4093000000,-9.9383907,-520.59241
4094000000,-9.9427586,-520.71344
4095000000,-9.9145393,-520.97821
4096000000,-9.9119339,-520.97516
4097000000,-9.8782158,-521.01208
4098000000,-9.866046,-521.40399
4099000000,-9.855691,-521.4505
4100000000,-9.8529501,-521.61676
4101000000,-9.8123636,-521.58136
4102000000,-9.7834892,-522.01691
4103000000,-9.8101959,-521.88824
4104000000,-9.7792034,-522.34155
4105000000,-9.7538996,-522.40662
4106000000,-9.7605696,-522.36774
4107000000,-9.7562265,-522.77649
4108000000,-9.7599144,-522.93848
4109000000,-9.7004051,-522.90643
4110000000,-9.6986294,-523.29645
4111000000,-9.6841335,-523.18695
4112000000,-9.6712275,-523.526
4113000000,-9.6551313,-523.67828
4114000000,-9.6469545,-523.9295
4115000000,-9.627162,-523.82715
4116000000,-9.6015892,-524.16443
4117000000,-9.608345,-524.25256
4118000000,-9.5912819,-524.45398
4119000000,-9.5618906,-524.53119
4120000000,-9.5604372,-524.591
4121000000,-9.5433378,-524.73431
4122000000,-9.4989395,-524.97327
4123000000,-9.5185471,-525.12726
4124000000,-9.4749756,-525.20715
4125000000,-9.4692154,-525.59796
4126000000,-9.466198,-525.66522
4127000000,-9.4473505,-525.71472
4128000000,-9.4196739,-525.8219
4129000000,-9.4154129,-526.14185
4130000000,-9.4113293,-526.30157
4131000000,-9.3763428,-526.35199
4132000000,-9.3746119,-526.55408
4133000000,-9.3753138,-526.64294
4134000000,-9.3287649,-526.89929
4135000000,-9.3348112,-526.96997
4136000000,-9.315774,-526.9903
4137000000,-9.3092537,-527.20892
4138000000,-9.3086023,-527.45776
4139000000,-9.285367,-527.71173
4140000000,-9.2901907,-527.77405
4141000000,-9.2605457,-527.7749
4142000000,-9.2433681,-527.93372
4143000000,-9.2517176,-527.93365
4144000000,-9.2286501,-528.33527
4145000000,-9.1880207,-528.37994
4146000000,-9.2083282,-528.6972
4147000000,-9.1657972,-528.65106
4148000000,-9.1843128,-528.81781
4149000000,-9.1783524,-528.92316
4150000000,-9.1549273,-529.11603
4151000000,-9.1251011,-529.38013
4152000000,-9.1454926,-529.34174
4153000000,-9.1180372,-529.45892
4154000000,-9.1117678,-529.75183
4155000000,-9.0979509,-529.72272
4156000000,-9.0989227,-529.82184
4157000000,-9.0631733,-530.04315
4158000000,-9.0297394,-530.31958
4159000000,-9.0204363,-530.60126
4160000000,-9.0353756,-530.7179
4161000000,-9.0289383,-530.85248
4162000000,-9.006546,-530.82599
4163000000,-9.0171309,-531.01306
4164000000,-8.9850483,-531.12756
4165000000,-8.9878168,-531.27161
4166000000,-8.9622784,-531.37256
4167000000,-8.9405098,-531.56897
4168000000,-8.9536533,-531.57611
4169000000,-8.9214668,-531.8338
4170000000,-8.9305048,-532.10468
4171000000,-8.9092159,-532.20917
4172000000,-8.8829575,-532.31207
4173000000,-8.8703451,-532.44989
4174000000,-8.8744392,-532.57153
4175000000,-8.8756142,-532.87109
4176000000,-8.845252,-532.93024
4177000000,-8.8496628,-533.0575
4178000000,-8.8274336,-533.13519
4179000000,-8.80404,-533.28729
4180000000,-8.8103323,-533.37146
4181000000,-8.8215981,-533.66754
4182000000,-8.7881413,-533.56989
4183000000,-8.7908926,-533.72009
4184000000,-8.8098249,-534.15521
4185000000,-8.7505913,-534.13
4186000000,-8.7639637,-534.36493
4187000000,-8.7303305,-534.60181
4188000000,-8.7212601,-534.617
4189000000,-8.7403831,-534.77521
4190000000,-8.6910429,-534.8316
4191000000,-8.7092819,-535.08344
4192000000,-8.7065182,-535.29395
4193000000,-8.6689062,-535.37787
4194000000,-8.6734743,-535.58472
4195000000,-8.6729546,-535.62787
4196000000,-8.6714973,-535.75708
4197000000,-8.6566248,-535.97797
4198000000,-8.6432009,-536.09204
4199000000,-8.6392517,-536.18903
4200000000,-8.6203709,-536.52417
4201000000,-8.6140909,-536.56665
4202000000,-8.5820866,-536.47839
4203000000,-8.5917759,-537.00208
4204000000,-8.5569582,-537.06616
4205000000,-8.5654402,-537.02991
4206000000,-8.564908,-537.25037
4207000000,-8.5367575,-537.42798
4208000000,-8.5235386,-537.66321
4209000000,-8.5053291,-537.54779
4210000000,-8.5066261,-537.77844
4211000000,-8.4804296,-537.84808
4212000000,-8.4911823,-537.97992
4213000000,-8.4905529,-538.20862
4214000000,-8.464467,-538.45557
4215000000,-8.4615564,-538.54718
4216000000,-8.4881506,-538.56744
4217000000,-8.4164143,-538.79041
4218000000,-8.4168482,-538.8183
4219000000,-8.4202137,-539.04578
4220000000,-8.4136,-539.2348
4221000000,-8.3947496,-539.43744
4222000000,-8.3717175,-539.36548
4223000000,-8.3651419,-539.59558
4224000000,-8.3825827,-539.9173
4225000000,-8.3601227,-539.91998
4226000000,-8.3540154,-539.94513
4227000000,-8.3447475,-540.15057
4228000000,-8.3249464,-540.3042
4229000000,-8.3230286,-540.45935
4230000000,-8.3027058,-540.71307
4231000000,-8.3180256,-540.88757
4232000000,-8.3128853,-540.72546
4233000000,-8.3280296,-540.96161
4234000000,-8.2791271,-540.99298
4235000000,-8.270484,-541.09155
4236000000,-8.2889462,-541.47858
4237000000,-8.2882214,-541.37921
4238000000,-8.2797346,-541.52045
4239000000,-8.257535,-541.7691
4240000000,-8.232398,-541.76959
4241000000,-8.2366304,-542.01715
4242000000,-8.2225847,-541.83423
4243000000,-8.2315092,-542.43994
4244000000,-8.218935,-542.45441
4245000000,-8.1920376,-542.64081
4246000000,-8.2175417,-542.69098
4247000000,-8.1789465,-542.61273
4248000000,-8.1919193,-542.9411
4249000000,-8.1780272,-543.00146
4250000000,-8.1465054,-543.07562
4251000000,-8.1680136,-543.25781
4252000000,-8.1816378,-543.54456
4253000000,-8.1388168,-543.64331
4254000000,-8.1257572,-543.66821
4255000000,-8.109127,-543.66022
4256000000,-8.1009617,-544.1701
4257000000,-8.1027994,-544.08673
4258000000,-8.1325493,-544.39661
4259000000,-8.0571012,-544.31097
4260000000,-8.0873518,-544.513
4261000000,-8.0594721,-544.62274
4262000000,-8.0476151,-544.69537
4263000000,-8.0657139,-544.74109
4264000000,-8.060215,-545.24597
4265000000,-8.0568504,-544.96442
4266000000,-8.040349,-545.36108
4267000000,-8.031868,-545.30341
4268000000,-8.0589399,-545.60168
4269000000,-7.9980707,-545.77191
4270000000,-7.9884138,-545.83344
4271000000,-8.0021696,-546.05023
4272000000,-7.9981236,-546.07776
4273000000,-7.9801927,-546.271
4274000000,-7.9985132,-546.42877
4275000000,-7.9736524,-546.36298
4276000000,-7.9350696,-546.67767
4277000000,-7.9309602,-546.80658
4278000000,-7.9476814,-547.07196
4279000000,-7.9346757,-547.08655
4280000000,-7.9318819,-547.30768
4281000000,-7.9398298,-547.4082
4282000000,-7.9279656,-547.62848
4283000000,-7.9014773,-547.4693
4284000000,-7.8930831,-547.63269
4285000000,-7.9061542,-547.77032
4286000000,-7.8888569,-548.00287
4287000000,-7.9032369,-548.02734
4288000000,-7.8888655,-548.21057
4289000000,-7.8796897,-548.25867
4290000000,-7.8586726,-548.4458
4291000000,-7.8572707,-548.55139
4292000000,-7.8440881,-548.79401
4293000000,-7.8282194,-548.74402
4294000000,-7.8276792,-549.04181
4295000000,-7.8345284,-549.17004
4296000000,-7.8117471,-549.1413
4297000000,-7.7846427,-549.32202
4298000000,-7.8051019,-549.46649
4299000000,-7.8061943,-549.55383
4300000000,-7.7640734,-549.5733
4301000000,-7.789053,-549.78418
4302000000,-7.7528362,-550.08691
4303000000,-7.729805,-550.07434
4304000000,-7.7531548,-550.22705
4305000000,-7.7423787,-550.36182
4306000000,-7.7368383,-550.40411
4307000000,-7.7121668,-550.41357
4308000000,-7.7022357,-550.67114
4309000000,-7.6896787,-550.70721
4310000000,-7.6867352,-551.06079
4311000000,-7.6878858,-550.98108
4312000000,-7.6769414,-550.99329
4313000000,-7.6646619,-551.2016
4314000000,-7.6545453,-551.48163
4315000000,-7.6569543,-551.68268
4316000000,-7.6440501,-551.66437
4317000000,-7.6375971,-551.76068
4318000000,-7.6231513,-551.6825
4319000000,-7.6091175,-552.2085
4320000000,-7.6045775,-552.30463
4321000000,-7.6089816,-552.35956
4322000000,-7.6223378,-552.35376
4323000000,-7.6433048,-552.38202
4324000000,-7.588872,-552.56671
4325000000,-7.5777564,-552.68652
4326000000,-7.587873,-553.00854
4327000000,-7.5475578,-552.92493
4328000000,-7.5628519,-553.00226
4329000000,-7.5672097,-553.22369
4330000000,-7.5674753,-553.19263
4331000000,-7.5551834,-553.68359
4332000000,-7.536767,-553.85071
4333000000,-7.5282826,-553.80676
4334000000,-7.5306311,-553.88129
4335000000,-7.5079122,-553.79657
4336000000,-7.505506,-554.15082
4337000000,-7.5084634,-554.20563
4338000000,-7.4853325,-554.37799
4339000000,-7.5155163,-554.29803
4340000000,-7.5134277,-554.46008
4341000000,-7.4759645,-554.59515
4342000000,-7.486413,-554.74774
4343000000,-7.474771,-554.81201
4344000000,-7.5063186,-555.10034
4345000000,-7.4777923,-555.17096
4346000000,-7.4574256,-555.15137
4347000000,-7.4600492,-555.28387
4348000000,-7.4389143,-555.58948
4349000000,-7.4373102,-555.63177
4350000000,-7.4250751,-555.77686
4351000000,-7.4258265,-555.85187
4352000000,-7.4431691,-555.95911
4353000000,-7.4256768,-556.20917
4354000000,-7.4061165,-556.33008
4355000000,-7.4204078,-556.4903
4356000000,-7.4258428,-556.49774
4357000000,-7.3945289,-556.51471
4358000000,-7.3887601,-556.76471
4359000000,-7.3795171,-556.88513
4360000000,-7.4070692,-557.008
4361000000,-7.3837953,-556.96082
4362000000,-7.3855524,-557.4212
4363000000,-7.3646712,-557.32166
4364000000,-7.3603301,-557.57709
4365000000,-7.3754635,-557.80212
4366000000,-7.3531575,-557.87054
4367000000,-7.3625255,-557.89227
4368000000,-7.3335514,-558.20795
4369000000,-7.3404589,-558.13989
4370000000,-7.2944422,-558.28314
4371000000,-7.3455138,-558.57977
4372000000,-7.321125,-558.61346
4373000000,-7.3306332,-558.56152
4374000000,-7.3210282,-558.65906
4375000000,-7.3215718,-558.81671
4376000000,-7.3043203,-558.93036
4377000000,-7.2726097,-559.24048
4378000000,-7.2895474,-559.2226
4379000000,-7.2836342,-559.3894
4380000000,-7.2843156,-559.50989
4381000000,-7.2654586,-559.61548
4382000000,-7.2964735,-559.85254
4383000000,-7.2529101,-559.76715
4384000000,-7.2566361,-559.87653
4385000000,-7.2399235,-560.22937
4386000000,-7.2596545,-560.22363
4387000000,-7.2335148,-560.53009
4388000000,-7.2516556,-560.45679
4389000000,-7.2593303,-560.47266
4390000000,-7.2333298,-560.84747
4391000000,-7.2314892,-560.88293
4392000000,-7.1925812,-561.11041
4393000000,-7.2009001,-561.17065
4394000000,-7.1885543,-561.16016
4395000000,-7.2304897,-561.3194
4396000000,-7.1985192,-561.46759
4397000000,-7.1937127,-561.51941
4398000000,-7.1675439,-561.74017
4399000000,-7.2069001,-561.70142
4400000000,-7.1797009,-562.00189
4401000000,-7.1708155,-562.14001
4402000000,-7.1996183,-562.17499
4403000000,-7.1674767,-562.17865
4404000000,-7.1779237,-562.48914
4405000000,-7.1815991,-562.27191
4406000000,-7.1585336,-562.47137
4407000000,-7.1267715,-562.71814
4408000000,-7.1206613,-563.00012
4409000000,-7.1052108,-563.08234
4410000000,-7.1403923,-563.13953
4411000000,-7.1513929,-563.36664
4412000000,-7.0931058,-563.5224
4413000000,-7.1111465,-563.534
4414000000,-7.1022224,-563.47113
4415000000,-7.1103745,-563.76294
4416000000,-7.0797434,-563.81439
4417000000,-7.1339521,-563.92682
4418000000,-7.14782,-564.10431
4419000000,-7.0991211,-564.08704
4420000000,-7.0898819,-564.20544
4421000000,-7.0929508,-564.17944
4422000000,-7.076005,-564.40247
4423000000,-7.0734997,-564.53772
4424000000,-7.0702858,-564.6189
4425000000,-7.0708594,-565.00067
4426000000,-7.0615292,-564.92639
4427000000,-7.0584817,-565.03381
4428000000,-7.064374,-565.07202
4429000000,-7.0500498,-565.2005
4430000000,-7.0440493,-565.3783
4431000000,-7.0527802,-565.44135
4432000000,-7.0625739,-565.6084
4433000000,-7.0134306,-565.66235
4434000000,-7.04072,-565.77502
4435000000,-7.0313692,-566.16608
4436000000,-7.043026,-566.06464
4437000000,-7.0398221,-566.13446
4438000000,-7.0180249,-566.39679
4439000000,-7.0237174,-566.43604
4440000000,-7.0368199,-566.59229
4441000000,-6.9805532,-566.72247
4442000000,-7.0090213,-566.96619
4443000000,-7.0149832,-566.86816
4444000000,-7.0233502,-567.01782
4445000000,-7.0235081,-567.23969
4446000000,-6.9919043,-567.32471
4447000000,-7.0138345,-567.43695
4448000000,-7.0113659,-567.63141
4449000000,-7.035182,-567.66956
4450000000,-7.0000558,-567.88678
4451000000,-7.0092053,-567.79138
4452000000,-6.9737506,-568.05194
4453000000,-6.9880672,-568.25006
4454000000,-7.0067396,-568.34247
4455000000,-6.9821124,-568.26538
4456000000,-6.9698982,-568.61407
4457000000,-6.9771791,-568.56561
4458000000,-6.9518471,-568.72388
4459000000,-7.00632,-569.065
4460000000,-6.9707222,-569.07056
4461000000,-6.9833841,-569.15784
4462000000,-6.9713392,-569.30585
4463000000,-6.9703403,-569.38507
4464000000,-6.9681931,-569.61285
4465000000,-6.9423213,-569.57037
4466000000,-6.9529037,-569.76398
4467000000,-6.9666681,-569.82935
4468000000,-6.9441605,-569.98395
4469000000,-6.9348087,-570.12744
4470000000,-6.9409752,-570.28467
4471000000,-6.937326,-570.29376
4472000000,-6.9433627,-570.61029
4473000000,-6.9311757,-570.57184
4474000000,-6.9176559,-570.79468
4475000000,-6.9303875,-570.96112
4476000000,-6.8976645,-570.97723
4477000000,-6.9097676,-571.06573
4478000000,-6.9178391,-571.25427
4479000000,-6.9281855,-571.36206
4480000000,-6.8897705,-571.35168
4481000000,-6.9123616,-571.65094
4482000000,-6.922195,-571.44574
4483000000,-6.883285,-571.56598
4484000000,-6.8979316,-571.87701
4485000000,-6.8746438,-572.04388
4486000000,-6.8732457,-572.06079
4487000000,-6.847415,-572.07983
4488000000,-6.8961048,-572.6925
4489000000,-6.8756862,-572.53912
4490000000,-6.864027,-572.57709
4491000000,-6.893517,-572.66107
4492000000,-6.8606687,-572.75891
4493000000,-6.8394046,-573.07483
4494000000,-6.8670259,-572.94537
4495000000,-6.8528972,-573.0163
4496000000,-6.8325386,-573.22241
4497000000,-6.8287592,-573.42267
4498000000,-6.8250823,-573.39734
4499000000,-6.8537192,-573.47504
4500000000,-6.8548594,-573.51593
4501000000,-6.859118,-573.75299
4502000000,-6.8022442,-573.75214
4503000000,-6.8218098,-574.13666
4504000000,-6.838891,-573.80951
4505000000,-6.8333483,-574.0368
4506000000,-6.8269,-574.25867
4507000000,-6.8447289,-574.51337
4508000000,-6.8561196,-574.45667
4509000000,-6.8401542,-574.74036
4510000000,-6.8414826,-574.71259
4511000000,-6.8367925,-574.77344
4512000000,-6.8491659,-574.83191
4513000000,-6.8208537,-574.9928
4514000000,-6.8046741,-575.40057
4515000000,-6.8302617,-575.27588
4516000000,-6.8593898,-575.45117
4517000000,-6.8061962,-575.41199
4518000000,-6.8648624,-575.47339
4519000000,-6.835773,-575.6532
4520000000,-6.802134,-575.70068
4521000000,-6.8451009,-575.83252
4522000000,-6.8183088,-576.03491
4523000000,-6.8255587,-576.13086
4524000000,-6.816844,-576.11328
4525000000,-6.821085,-576.35999
4526000000,-6.7854109,-576.51135
4527000000,-6.7920337,-576.61102
4528000000,-6.8430586,-576.56567
4529000000,-6.7844949,-576.88922
4530000000,-6.8268299,-576.97705
4531000000,-6.8144727,-577.25989
4532000000,-6.814455,-577.13037
4533000000,-6.7970805,-577.14502
4534000000,-6.8117867,-577.22174
4535000000,-6.7820544,-577.35046
4536000000,-6.8228073,-577.55542
4537000000,-6.8122377,-577.68433
4538000000,-6.8048453,-577.78955
4539000000,-6.8076186,-577.87433
4540000000,-6.7863483,-577.96393
4541000000,-6.7868209,-577.99225
4542000000,-6.8167973,-577.89081
4543000000,-6.815414,-578.43921
4544000000,-6.7742376,-578.40997
4545000000,-6.7776341,-578.37994
4546000000,-6.8084764,-578.83032
4547000000,-6.7667179,-578.61072
4548000000,-6.7895808,-578.92377
4549000000,-6.7869725,-579.09723
4550000000,-6.8130774,-578.98193
4551000000,-6.769887,-579.25
4552000000,-6.7926598,-579.13373
4553000000,-6.7678914,-579.44354
4554000000,-6.7949882,-579.49207
4555000000,-6.8228531,-579.56219
4556000000,-6.7675843,-579.60284
4557000000,-6.7957931,-579.66235
4558000000,-6.7910194,-579.77478
4559000000,-6.7741618,-580.03296
4560000000,-6.7747087,-580.03729
4561000000,-6.7825646,-580.31439
4562000000,-6.7623272,-580.32581
4563000000,-6.7964039,-580.24982
4564000000,-6.8009496,-580.44232
4565000000,-6.7516694,-580.55255
4566000000,-6.7774572,-580.60962
4567000000,-6.7425585,-580.89764
4568000000,-6.7566113,-580.93591
4569000000,-6.7675557,-580.94745
4570000000,-6.7626729,-580.93811
4571000000,-6.7439275,-580.93842
4572000000,-6.7537513,-581.00732
4573000000,-6.7615275,-581.29395
4574000000,-6.7837558,-581.47418
4575000000,-6.7746878,-581.34174
4576000000,-6.7632585,-581.48535
4577000000,-6.7802024,-581.49359
4578000000,-6.7668428,-581.73724
4579000000,-6.7419353,-581.81635
4580000000,-6.7413597,-582.05054
4581000000,-6.7718549,-582.22449
4582000000,-6.7581134,-582.12897
4583000000,-6.7485728,-582.15472
4584000000,-6.74436,-582.27454
4585000000,-6.7732301,-582.27142
4586000000,-6.7754564,-582.7196
4587000000,-6.7565346,-582.60242
4588000000,-6.7631431,-582.66467
4589000000,-6.769628,-582.87
4590000000,-6.7442145,-582.71686
4591000000,-6.7768631,-583.09784
4592000000,-6.7616615,-583.19891
4593000000,-6.7390857,-583.29822
4594000000,-6.7438979,-583.39392
4595000000,-6.7435207,-583.34167
4596000000,-6.7456388,-583.41931
4597000000,-6.7660584,-583.59155
4598000000,-6.7422237,-583.49524
4599000000,-6.7683668,-583.73962
4600000000,-6.7471809,-584.03339
4601000000,-6.7433233,-583.82483
4602000000,-6.7780061,-584.08081
4603000000,-6.7584367,-584.33966
4604000000,-6.7711835,-584.24609
4605000000,-6.7383552,-584.47699
4606000000,-6.7423134,-584.43268
4607000000,-6.7505493,-584.62964
4608000000,-6.7611408,-584.73187
4609000000,-6.7622371,-584.77985
4610000000,-6.7218499,-584.72772
4611000000,-6.7547493,-585.08014
4612000000,-6.7824664,-585.21417
4613000000,-6.7532415,-584.91168
4614000000,-6.7394829,-585.18579
4615000000,-6.7339463,-585.49622
4616000000,-6.7384548,-585.38959
4617000000,-6.8014269,-585.5965
4618000000,-6.7694993,-585.3526
4619000000,-6.7352982,-585.60266
4620000000,-6.7414513,-585.7583
4621000000,-6.7409639,-585.90784
4622000000,-6.7494335,-586.05609
4623000000,-6.7516999,-586.06311
4624000000,-6.7246199,-586.27783
4625000000,-6.7630954,-586.15363
4626000000,-6.7577538,-586.56848
4627000000,-6.7325521,-586.3468
4628000000,-6.7246232,-586.38904
4629000000,-6.7662902,-587.03271
4630000000,-6.7563906,-586.65948
4631000000,-6.7259803,-586.79309
4632000000,-6.7402196,-586.91559
4633000000,-6.7627611,-587.1701
4634000000,-6.7344837,-587.13428
4635000000,-6.7573843,-587.08008
4636000000,-6.7257009,-587.2215
4637000000,-6.7508078,-587.32916
4638000000,-6.7606707,-587.50403
4639000000,-6.7471738,-587.59271
4640000000,-6.7350597,-587.72229
4641000000,-6.7712202,-587.73816
4642000000,-6.7598233,-587.78357
4643000000,-6.7631817,-588.00525
4644000000,-6.7307715,-588.00964
4645000000,-6.727026,-588.08722
4646000000,-6.7281122,-588.19653
4647000000,-6.7339382,-588.27625
4648000000,-6.7323437,-588.57538
4649000000,-6.7151995,-588.44971
4650000000,-6.7468019,-588.79663
4651000000,-6.6873422,-588.70404
4652000000,-6.7522845,-589.01593
4653000000,-6.7293115,-588.89301
4654000000,-6.7579484,-588.8042
4655000000,-6.745862,-589.05872
4656000000,-6.6873732,-589.37878
4657000000,-6.7531652,-589.25568
4658000000,-6.7241278,-589.18976
4659000000,-6.7361321,-589.65442
4660000000,-6.7443523,-589.41278
4661000000,-6.7296133,-589.73584
4662000000,-6.713263,-589.74469
4663000000,-6.7494903,-589.8457
4664000000,-6.7234716,-589.82361
4665000000,-6.7448215,-590.06927
4666000000,-6.7271299,-590.15973
4667000000,-6.7358823,-590.15759
4668000000,-6.7162213,-590.17957
4669000000,-6.7467771,-590.33862
4670000000,-6.7391152,-590.40131
4671000000,-6.7137685,-590.69342
4672000000,-6.7397728,-590.54889
4673000000,-6.7477956,-590.71417
4674000000,-6.7440252,-590.68646
4675000000,-6.7359853,-590.99237
4676000000,-6.7144156,-591.19891
4677000000,-6.7595491,-591.11694
4678000000,-6.7421999,-591.05682
4679000000,-6.7478752,-591.13782
4680000000,-6.7481141,-591.22314
4681000000,-6.7371416,-591.24774
4682000000,-6.7177625,-591.35895
4683000000,-6.743896,-591.49457
4684000000,-6.721909,-591.56927
4685000000,-6.739809,-591.60083
4686000000,-6.7326384,-591.76953
4687000000,-6.7058353,-591.8009
4688000000,-6.7173791,-591.93176
4689000000,-6.7835484,-592.17975
4690000000,-6.7316766,-592.01947
4691000000,-6.7166319,-592.17474
4692000000,-6.7330823,-592.09479
4693000000,-6.741303,-592.50952
4694000000,-6.7464495,-592.60583
4695000000,-6.7362905,-592.55481
4696000000,-6.735085,-593.08862
4697000000,-6.7797422,-592.82349
4698000000,-6.7435222,-592.76715
4699000000,-6.7631602,-592.86102
4700000000,-6.7743964,-593.43726
4701000000,-6.7650084,-593.44818
4702000000,-6.7715645,-593.2229
4703000000,-6.7526779,-593.24103
4704000000,-6.7742934,-593.77679
4705000000,-6.7691755,-593.74805
4706000000,-6.767683,-593.72406
4707000000,-6.7648101,-594.00763
4708000000,-6.779151,-593.82562
4709000000,-6.7702885,-594.00873
4710000000,-6.7903552,-594.0365
4711000000,-6.8071008,-593.94415
4712000000,-6.7920475,-594.17426
4713000000,-6.8531709,-594.20422
4714000000,-6.8077831,-594.23004
4715000000,-6.8033724,-594.26819
4716000000,-6.7901659,-594.5097
4717000000,-6.8096499,-594.63397
4718000000,-6.8019085,-594.70721
4719000000,-6.7912436,-594.72534
4720000000,-6.8206334,-595.00079
4721000000,-6.8096128,-595.10992
4722000000,-6.7930522,-594.88324
4723000000,-6.7834597,-595.40179
4724000000,-6.7855978,-595.20282
4725000000,-6.7892122,-595.33624
4726000000,-6.7902412,-595.55353
4727000000,-6.8207593,-595.59204
4728000000,-6.8000994,-595.5332
4729000000,-6.802083,-595.77142
4730000000,-6.8041062,-595.74622
4731000000,-6.8001661,-595.84387
4732000000,-6.805634,-595.89923
4733000000,-6.7940488,-595.9436
4734000000,-6.8089204,-596.16718
4735000000,-6.8083286,-596.08881
4736000000,-6.8453822,-596.06964
4737000000,-6.8177614,-596.34326
4738000000,-6.7836294,-596.30035
4739000000,-6.7967467,-596.26489
4740000000,-6.8325834,-596.60498
4741000000,-6.8351564,-596.82758
4742000000,-6.821269,-596.57581
4743000000,-6.8624883,-596.88885
4744000000,-6.7808762,-596.83789
4745000000,-6.8494883,-597.00854
4746000000,-6.781177,-597.21741
4747000000,-6.8275666,-597.22675
4748000000,-6.782527,-597.39807
4749000000,-6.7988334,-597.48914
4750000000,-6.8218498,-597.27216
4751000000,-6.8545103,-597.43719
4752000000,-6.8032465,-597.72479
4753000000,-6.7912693,-597.521
4754000000,-6.7988582,-597.75439
4755000000,-6.8472686,-597.633
4756000000,-6.8359561,-597.883
4757000000,-6.8242674,-597.73218
4758000000,-6.8135285,-597.7854
4759000000,-6.8442473,-597.92065
4760000000,-6.8336835,-598.09503
4761000000,-6.8676782,-598.29358
4762000000,-6.8210602,-598.30835
4763000000,-6.8488355,-598.31525
4764000000,-6.8622246,-598.43591
4765000000,-6.8513961,-598.67444
4766000000,-6.8593535,-598.74207
4767000000,-6.8990908,-598.54761
4768000000,-6.8826718,-598.82635
4769000000,-6.857048,-599.15497
4770000000,-6.8726263,-598.86725
4771000000,-6.8577476,-599.11902
4772000000,-6.8684807,-599.18488
4773000000,-6.8739147,-599.23291
4774000000,-6.8811393,-599.31775
4775000000,-6.8573241,-599.23328
4776000000,-6.8544092,-599.23395
4777000000,-6.8855491,-599.47046
4778000000,-6.871129,-599.58569
4779000000,-6.8529625,-599.40417
4780000000,-6.8950472,-599.94702
4781000000,-6.8705316,-599.82068
4782000000,-6.8809552,-599.79883
4783000000,-6.8556814,-599.77924
4784000000,-6.8993983,-599.84894
4785000000,-6.9036026,-599.8208
4786000000,-6.8928175,-600.24432
4787000000,-6.8467069,-600.14063
4788000000,-6.873076,-600.23914
4789000000,-6.918365,-600.38495
4790000000,-6.8932328,-600.1662
4791000000,-6.8872342,-600.42334
4792000000,-6.9120803,-600.40967
4793000000,-6.9151812,-600.56097
4794000000,-6.917408,-600.672
4795000000,-6.8972726,-600.65326
4796000000,-6.9209599,-600.66571
4797000000,-6.915729,-600.85699
4798000000,-6.9149194,-600.7796
4799000000,-6.9120302,-601.12372
4800000000,-6.8922329,-601.12372
4801000000,-6.9518509,-601.22711
4802000000,-6.9221973,-601.17493
4803000000,-6.9242177,-601.43323
4804000000,-6.9376836,-601.66681
4805000000,-6.9423094,-601.39606
4806000000,-6.9239359,-601.55865
4807000000,-6.9274244,-601.5769
4808000000,-6.9210382,-601.69531
4809000000,-6.9315143,-601.7135
4810000000,-6.9535432,-601.72998
4811000000,-6.8889451,-601.94562
4812000000,-6.9411964,-601.94403
4813000000,-6.9553604,-602.00323
4814000000,-6.9110966,-602.10297
4815000000,-6.9212394,-602.12854
4816000000,-6.9653502,-602.36481
4817000000,-6.9313664,-602.48285
4818000000,-6.9641461,-602.36383
4819000000,-6.9426813,-602.80804
4820000000,-6.9695139,-602.5097
4821000000,-6.9205127,-602.74371
4822000000,-6.9531741,-602.84058
4823000000,-6.9108601,-602.93329
4824000000,-6.9345856,-603.06616
4825000000,-6.9790845,-602.82196
4826000000,-6.9225063,-603.25769
4827000000,-6.9630961,-603.19244
4828000000,-6.9562879,-603.31323
4829000000,-6.9646482,-603.46875
4830000000,-6.9258614,-603.36273
4831000000,-6.9281583,-603.51367
4832000000,-6.9232516,-603.39648
4833000000,-6.9652176,-603.67499
4834000000,-6.9077535,-603.78351
4835000000,-6.964499,-603.63495
4836000000,-6.9500103,-603.88971
4837000000,-6.9641552,-603.97211
4838000000,-6.9100943,-603.87744
4839000000,-6.9600148,-604.19714
4840000000,-6.9515095,-604.01013
4841000000,-6.9435887,-604.3208
4842000000,-6.9793801,-604.17828
4843000000,-6.959805,-604.32257
4844000000,-6.9394121,-604.33997
4845000000,-6.9519005,-604.75806
4846000000,-6.955647,-604.62305
4847000000,-6.9792428,-604.76581
4848000000,-7.0031028,-604.93469
4849000000,-6.9724011,-604.68207
4850000000,-6.9758959,-605.06567
4851000000,-6.9839754,-605.1131
4852000000,-6.9847903,-604.96436
4853000000,-6.9326105,-605.37128
4854000000,-6.9655652,-605.17999
4855000000,-6.9051571,-605.04016
4856000000,-6.976265,-605.37152
4857000000,-6.9730258,-605.45068
4858000000,-6.9630914,-605.68427
4859000000,-6.9870667,-605.49652
4860000000,-7.0149994,-605.57623
4861000000,-6.9757867,-605.81232
4862000000,-6.9769998,-605.79901
4863000000,-6.9704461,-605.85437
4864000000,-6.9448276,-605.63483
4865000000,-7.0216403,-605.87921
4866000000,-7.0005851,-605.79266
4867000000,-6.9954171,-606.06427
4868000000,-6.9784031,-606.01691
4869000000,-7.0033865,-606.2464
4870000000,-7.0031099,-606.42346
4871000000,-6.9862156,-606.24512
4872000000,-7.0183082,-606.48486
4873000000,-6.9950442,-606.47937
4874000000,-6.9829025,-606.70947
4875000000,-7.0036073,-606.64917
4876000000,-6.9646821,-606.61664
4877000000,-7.0139894,-606.88257
4878000000,-7.0292706,-607.06567
4879000000,-7.0110044,-606.92004
4880000000,-7.0032053,-607.04596
4881000000,-7.0195518,-607.18073
4882000000,-7.0251031,-607.11548
4883000000,-7.0630665,-607.23822
4884000000,-7.0306797,-607.34778
4885000000,-7.0403061,-607.23651
4886000000,-7.0677433,-607.6134
4887000000,-7.0436783,-607.81909
4888000000,-7.0369186,-607.90247
4889000000,-7.0581555,-607.85138
4890000000,-7.0196624,-607.82855
4891000000,-7.0486088,-607.72687
4892000000,-7.0385146,-608.08246
4893000000,-7.0237679,-608.19305
4894000000,-7.0493865,-608.25958
4895000000,-7.0009594,-608.4433
4896000000,-7.052361,-608.44543
4897000000,-7.030396,-608.48315
4898000000,-7.0458202,-608.53064
4899000000,-7.0373044,-608.59729
4900000000,-7.0466819,-608.67218
4901000000,-7.0638371,-608.86072
4902000000,-7.0584197,-608.82581
4903000000,-7.0339541,-609.05005
4904000000,-7.0809236,-608.82605
4905000000,-7.0837526,-608.92255
4906000000,-7.1046491,-608.86096
4907000000,-7.0718808,-609.2146
4908000000,-7.0773668,-609.27606
4909000000,-7.0887833,-609.2381
4910000000,-7.0384588,-609.30957
4911000000,-7.1005645,-609.33539
4912000000,-7.1125984,-609.59814
4913000000,-7.1154885,-609.55835
4914000000,-7.0673599,-609.65863
4915000000,-7.1310797,-609.83173
4916000000,-7.1429396,-609.8692
4917000000,-7.1302309,-609.74957
4918000000,-7.1129069,-609.547
4919000000,-7.0940647,-609.88495
4920000000,-7.0925608,-610.15704
4921000000,-7.1444826,-610.1521
4922000000,-7.0932298,-610.35687
4923000000,-7.1048975,-610.37238
4924000000,-7.1032577,-610.64764
4925000000,-7.0831151,-610.35059
4926000000,-7.1145668,-610.57074
4927000000,-7.1179595,-610.62775
4928000000,-7.1141486,-610.66193
4929000000,-7.1428695,-610.72327
4930000000,-7.1503839,-610.72589
4931000000,-7.0840783,-611.01508
4932000000,-7.117835,-610.79297
4933000000,-7.1301107,-611.01257
4934000000,-7.1116843,-610.9375
4935000000,-7.1461992,-611.25256
4936000000,-7.1508765,-611.20697
4937000000,-7.1545548,-611.14722
4938000000,-7.1751628,-611.15717
4939000000,-7.1644745,-611.56757
4940000000,-7.1928549,-611.31268
4941000000,-7.1371112,-611.52081
4942000000,-7.186872,-611.56763
4943000000,-7.1433649,-611.39868
4944000000,-7.1755495,-611.55286
4945000000,-7.1743336,-611.80231
4946000000,-7.1227269,-611.50574
4947000000,-7.1692772,-611.90472
4948000000,-7.1801357,-611.78192
4949000000,-7.200542,-612.06128
4950000000,-7.1963649,-612.13055
4951000000,-7.1890564,-612.31958
4952000000,-7.1973395,-611.86865
4953000000,-7.1581211,-612.39697
4954000000,-7.2012653,-612.25323
4955000000,-7.1637273,-612.51099
4956000000,-7.2035856,-612.49176
4957000000,-7.1585112,-612.79443
4958000000,-7.181303,-612.58331
4959000000,-7.2138638,-612.75446
4960000000,-7.2097769,-612.9895
4961000000,-7.2113781,-612.76563
4962000000,-7.1932206,-612.80084
4963000000,-7.251349,-612.90381
4964000000,-7.2221551,-612.96149
4965000000,-7.2127051,-613.13428
4966000000,-7.2221599,-613.13385
4967000000,-7.2015963,-613.18311
4968000000,-7.228137,-613.35321
4969000000,-7.221612,-613.42053
4970000000,-7.2135334,-613.3548
4971000000,-7.2763257,-613.36139
4972000000,-7.1829128,-613.66943
4973000000,-7.2516365,-613.58167
4974000000,-7.2760086,-613.56525
4975000000,-7.2625179,-613.71259
4976000000,-7.2347827,-613.56757
4977000000,-7.2170739,-613.96124
4978000000,-7.2100992,-614.22516
4979000000,-7.2869716,-613.97211
4980000000,-7.2266169,-613.99841
4981000000,-7.2392569,-614.44
4982000000,-7.2550435,-614.27606
4983000000,-7.2760921,-614.19989
4984000000,-7.2447743,-614.23932
4985000000,-7.2391839,-614.63226
4986000000,-7.2561584,-614.39923
4987000000,-7.2787075,-614.83856
4988000000,-7.2974682,-614.88477
4989000000,-7.2829728,-614.67255
4990000000,-7.3095808,-615.04529
4991000000,-7.3114061,-615.05652
4992000000,-7.276279,-615.06689
4993000000,-7.279242,-614.90839
4994000000,-7.2872605,-615.38702
4995000000,-7.2954116,-615.19446
4996000000,-7.3029814,-615.22516
4997000000,-7.2903709,-615.23962
4998000000,-7.3091426,-615.15668
4999000000,-7.3103433,-615.34125
5000000000,-7.2553973,-615.46222
END

