!CSV A.01.01
!Agilent Technologies,E8362C,MY49020225,A.09.42.22
!Agilent E8362C: A.09.42.22
!Date: Tuesday, March 08, 2016 15:28:26
!Source: Standard

BEGIN CH1_DATA
Freq(Hz),S21 Log Mag(dB),S21 Phase(°)
1000000000,-6.0803132,-59.050762
1001000000,-6.081975,-58.999722
1002000000,-6.0823746,-58.906174
1003000000,-6.083322,-59.109966
1004000000,-6.0577722,-59.175686
1005000000,-6.1299753,-59.170147
1006000000,-6.0875311,-59.391762
1007000000,-6.0900817,-59.567398
1008000000,-6.0716038,-59.525291
1009000000,-6.0978217,-59.650684
1010000000,-6.0782437,-59.729614
1011000000,-6.1084962,-59.825382
1012000000,-6.1556325,-59.837566
1013000000,-6.0958195,-59.968002
1014000000,-6.1164384,-59.954494
1015000000,-6.1072249,-60.203434
1016000000,-6.0977945,-60.090168
1017000000,-6.1017203,-60.230152
1018000000,-6.1323071,-60.288563
1019000000,-6.1360512,-60.466328
1020000000,-6.1308694,-60.271576
1021000000,-6.1176391,-60.496719
1022000000,-6.1384573,-60.600212
1023000000,-6.1672297,-60.746727
1024000000,-6.1739788,-60.676231
1025000000,-6.1791677,-60.808334
1026000000,-6.1671886,-60.698254
1027000000,-6.1527462,-60.965191
1028000000,-6.1710911,-61.051338
1029000000,-6.1701899,-61.107716
1030000000,-6.1650395,-61.188229
1031000000,-6.1497884,-61.118084
1032000000,-6.2082343,-61.2752
1033000000,-6.1942787,-61.309246
1034000000,-6.2080626,-61.389038
1035000000,-6.2052994,-61.419678
1036000000,-6.1917605,-61.727287
1037000000,-6.2031446,-61.773289
1038000000,-6.1856456,-61.629086
1039000000,-6.2160244,-61.813717
1040000000,-6.1939182,-61.85461
1041000000,-6.2261291,-61.978046
1042000000,-6.2472796,-61.905434
1043000000,-6.1988082,-61.914867
1044000000,-6.2014947,-61.983921
1045000000,-6.2358036,-62.172714
1046000000,-6.2214627,-62.736694
1047000000,-6.2418451,-62.209785
1048000000,-6.2523718,-62.234375
1049000000,-6.2530184,-62.49477
1050000000,-6.2627668,-62.42437
1051000000,-6.2834358,-62.713036
1052000000,-6.2649398,-62.851517
1053000000,-6.285378,-62.827633
1054000000,-6.2623892,-62.914944
1055000000,-6.2717066,-62.755573
1056000000,-6.2500081,-62.925713
1057000000,-6.2795429,-63.122246
1058000000,-6.3123431,-63.0783
1059000000,-6.2992387,-63.40242
1060000000,-6.2919998,-63.422131
1061000000,-6.3344584,-63.412018
1062000000,-6.3109884,-63.511894
1063000000,-6.2893596,-63.640213
1064000000,-6.3331132,-63.751205
1065000000,-6.299788,-63.775192
1066000000,-6.3106418,-63.924767
1067000000,-6.3143148,-63.961773
1068000000,-6.3228636,-63.954014
1069000000,-6.3426299,-64.034332
1070000000,-6.3427186,-64.105583
1071000000,-6.3108931,-64.132011
1072000000,-6.3417253,-64.178421
1073000000,-6.3627534,-64.243126
1074000000,-6.351738,-64.290878
1075000000,-6.3850641,-64.640533
1076000000,-6.3728504,-64.648674
1077000000,-6.3874073,-64.707939
1078000000,-6.363028,-64.697769
1079000000,-6.3705134,-64.724892
1080000000,-6.3600473,-64.995186
1081000000,-6.3710427,-64.927414
1082000000,-6.38976,-65.13707
1083000000,-6.3983788,-65.152954
1084000000,-6.3703523,-65.106438
1085000000,-6.4015956,-65.220718
1086000000,-6.4241424,-65.429665
1087000000,-6.4012351,-65.266495
1088000000,-6.4309874,-65.590614
1089000000,-6.4318542,-65.74456
1090000000,-6.4155135,-65.688072
1091000000,-6.4386029,-65.547379
1092000000,-6.4280915,-65.907043
1093000000,-6.4509449,-65.903732
1094000000,-6.4639454,-65.866524
1095000000,-6.450242,-66.078499
1096000000,-6.4654012,-66.069031
1097000000,-6.4619031,-66.332466
1098000000,-6.4588108,-66.178375
1099000000,-6.4661012,-66.368515
1100000000,-6.4645929,-66.378555
1101000000,-6.4948173,-66.591461
1102000000,-6.4987688,-66.467926
1103000000,-6.5015993,-66.616562
1104000000,-6.4974236,-66.741882
1105000000,-6.5328922,-66.932571
1106000000,-6.5118752,-67.03994
1107000000,-6.5265865,-66.992874
1108000000,-6.5391603,-67.230042
1109000000,-6.4972472,-67.200417
1110000000,-6.541708,-67.212296
1111000000,-6.5656033,-67.156357
1112000000,-6.5409074,-67.470886
1113000000,-6.5517564,-67.325058
1114000000,-6.5754247,-67.451767
1115000000,-6.5497212,-67.417007
1116000000,-6.576335,-67.582115
1117000000,-6.5709376,-67.759026
1118000000,-6.5863857,-67.679939
1119000000,-6.5681491,-67.908188
1120000000,-6.5967703,-67.8311
1121000000,-6.6145902,-68.087624
1122000000,-6.6020265,-68.165169
1123000000,-6.6000652,-67.955597
1124000000,-6.5902553,-68.315628
1125000000,-6.6047168,-68.274376
1126000000,-6.6232662,-68.350784
1127000000,-6.6492453,-68.304878
1128000000,-6.666872,-68.560143
1129000000,-6.6722922,-68.881157
1130000000,-6.6665955,-68.510124
1131000000,-6.635169,-68.779221
1132000000,-6.6745229,-68.710159
1133000000,-6.6613474,-68.963516
1134000000,-6.6696229,-68.81221
1135000000,-6.7256665,-68.875061
1136000000,-6.7004352,-69.243202
1137000000,-6.7358274,-69.232834
1138000000,-6.6822157,-69.424255
1139000000,-6.6879458,-69.271202
1140000000,-6.7298646,-69.457489
1141000000,-6.7427402,-69.464966
1142000000,-6.7310538,-69.737221
1143000000,-6.7292418,-69.773926
1144000000,-6.7661529,-70.035194
1145000000,-6.7529535,-69.863594
1146000000,-6.7487864,-69.737297
1147000000,-6.7774277,-69.931076
1148000000,-6.7765179,-70.015076
1149000000,-6.7809424,-70.055115
1150000000,-6.7850952,-70.177551
1151000000,-6.785831,-70.153839
1152000000,-6.8104701,-70.394516
1153000000,-6.7985725,-70.284004
1154000000,-6.8168597,-70.445618
1155000000,-6.855834,-70.624771
1156000000,-6.8289886,-70.852898
1157000000,-6.8447967,-70.63279
1158000000,-6.8273034,-70.736504
1159000000,-6.8686156,-70.950836
1160000000,-6.8457847,-70.880096
1161000000,-6.8789148,-70.976158
1162000000,-6.8648853,-71.059807
1163000000,-6.9080505,-71.155685
1164000000,-6.8941622,-71.24501
1165000000,-6.8942747,-71.077591
1166000000,-6.8920751,-71.475906
1167000000,-6.8908968,-71.457352
1168000000,-6.9324598,-71.541321
1169000000,-6.9108052,-71.412781
1170000000,-6.9359164,-71.636787
1171000000,-6.9395924,-71.860542
1172000000,-6.938447,-71.631027
1173000000,-6.9636908,-71.956696
1174000000,-6.9802494,-71.685043
1175000000,-6.9473705,-72.26403
1176000000,-6.9722166,-72.099022
1177000000,-7.0093532,-72.211243
1178000000,-6.9833431,-72.272133
1179000000,-7.009315,-72.472061
1180000000,-6.9801426,-72.446022
1181000000,-7.0273724,-72.491905
1182000000,-7.0160151,-72.542534
1183000000,-7.0338435,-72.581474
1184000000,-7.0776196,-72.698967
1185000000,-7.059134,-72.694298
1186000000,-7.0878496,-72.720985
1187000000,-7.0649958,-72.916344
1188000000,-7.0622187,-73.072311
1189000000,-7.1108022,-73.12735
1190000000,-7.0602059,-73.182495
1191000000,-7.1142564,-73.093018
1192000000,-7.1035204,-73.481918
1193000000,-7.0990038,-73.284485
1194000000,-7.1179781,-73.357773
1195000000,-7.160996,-73.472412
1196000000,-7.1580181,-73.64492
1197000000,-7.145153,-73.825058
1198000000,-7.1373615,-73.858902
1199000000,-7.1520667,-73.816956
1200000000,-7.1722102,-74.017403
1201000000,-7.1863713,-73.893631
1202000000,-7.1921086,-74.055115
1203000000,-7.208354,-74.044983
1204000000,-7.223145,-74.259705
1205000000,-7.2147827,-74.124756
1206000000,-7.253479,-74.216942
1207000000,-7.2192287,-74.210632
1208000000,-7.2591043,-74.482475
1209000000,-7.2528687,-74.496017
1210000000,-7.2905927,-74.698074
1211000000,-7.2997856,-74.515373
1212000000,-7.2815995,-74.666992
1213000000,-7.2968836,-74.84211
1214000000,-7.3054833,-74.662056
1215000000,-7.3049707,-74.86972
1216000000,-7.3179064,-74.94854
1217000000,-7.3296003,-75.076477
1218000000,-7.3053741,-75.198936
1219000000,-7.3291211,-75.141663
1220000000,-7.3561568,-75.091019
1221000000,-7.3741331,-75.333199
1222000000,-7.3874321,-75.548332
1223000000,-7.3981681,-75.472855
1224000000,-7.3838911,-75.332199
1225000000,-7.4111447,-75.460907
1226000000,-7.4167504,-75.662888
1227000000,-7.4363976,-75.868919
1228000000,-7.4519644,-75.886261
1229000000,-7.4340811,-75.826332
1230000000,-7.4410157,-75.875313
1231000000,-7.4769616,-76.066612
1232000000,-7.5155449,-75.929428
1233000000,-7.4649687,-76.278389
1234000000,-7.5239177,-76.192909
1235000000,-7.4931021,-76.158066
1236000000,-7.5147161,-76.344475
1237000000,-7.5431566,-76.388252
1238000000,-7.5230951,-76.504875
1239000000,-7.5579844,-76.615067
1240000000,-7.5697937,-76.81884
1241000000,-7.5643377,-76.659615
1242000000,-7.588542,-76.632446
1243000000,-7.5885553,-76.758858
1244000000,-7.6118016,-76.863602
1245000000,-7.6315131,-77.05027
1246000000,-7.6288776,-77.025818
1247000000,-7.636682,-77.220284
1248000000,-7.6381516,-77.12471
1249000000,-7.6649652,-77.130928
1250000000,-7.6900029,-77.331841
1251000000,-7.679049,-77.240791
1252000000,-7.6695757,-77.517654
1253000000,-7.7152267,-77.551331
1254000000,-7.7408037,-77.704887
1255000000,-7.7198958,-77.591202
1256000000,-7.7432156,-77.580795
1257000000,-7.7231202,-77.784561
1258000000,-7.7474155,-77.744926
1259000000,-7.7816229,-77.928261
1260000000,-7.8221254,-77.814682
1261000000,-7.7982273,-77.846184
1262000000,-7.8296432,-78.279327
1263000000,-7.8168249,-78.182373
1264000000,-7.8518658,-78.12207
1265000000,-7.8363824,-77.980812
1266000000,-7.8640628,-78.255035
1267000000,-7.8541212,-78.382462
1268000000,-7.8759198,-78.591354
1269000000,-7.9015212,-78.509796
1270000000,-7.9368162,-78.624397
1271000000,-7.9390273,-78.601677
1272000000,-7.935607,-78.736183
1273000000,-7.9385929,-78.607567
1274000000,-7.9558325,-78.736061
1275000000,-7.9675035,-78.974968
1276000000,-7.9855862,-78.928459
1277000000,-7.9874043,-78.808632
1278000000,-7.9810753,-78.872276
1279000000,-8.0166931,-79.162941
1280000000,-8.0439463,-79.258278
1281000000,-8.073348,-79.089691
1282000000,-8.078577,-79.278076
1283000000,-8.0841932,-79.41098
1284000000,-8.0709429,-79.421608
1285000000,-8.0911016,-79.396164
1286000000,-8.1130362,-79.447372
1287000000,-8.1235847,-79.552933
1288000000,-8.1282568,-79.442436
1289000000,-8.1929226,-79.694023
1290000000,-8.168664,-79.774681
1291000000,-8.1655798,-79.655746
1292000000,-8.2175417,-79.917274
1293000000,-8.2074862,-79.779961
1294000000,-8.2067623,-79.816101
1295000000,-8.2272978,-79.903549
1296000000,-8.2474499,-79.735237
1297000000,-8.2582254,-80.151329
1298000000,-8.3119268,-80.253464
1299000000,-8.2966967,-79.856308
1300000000,-8.2702961,-80.275002
1301000000,-8.327508,-80.221779
1302000000,-8.303628,-80.118469
1303000000,-8.3465033,-80.362373
1304000000,-8.3879147,-80.338867
1305000000,-8.3640289,-80.344063
1306000000,-8.3761044,-80.469612
1307000000,-8.4250813,-80.626411
1308000000,-8.4436579,-80.39328
1309000000,-8.4286299,-80.731956
1310000000,-8.4457407,-80.743172
1311000000,-8.4558964,-80.722588
1312000000,-8.4649286,-80.759689
1313000000,-8.4888144,-80.859253
1314000000,-8.5290127,-81.003082
1315000000,-8.5078888,-81.069916
1316000000,-8.5570421,-80.836243
1317000000,-8.5359831,-80.92173
1318000000,-8.5409498,-81.001442
1319000000,-8.5865879,-81.269539
1320000000,-8.5927143,-81.245216
1321000000,-8.6215887,-81.262665
1322000000,-8.6413288,-81.094505
1323000000,-8.6301765,-81.398705
1324000000,-8.6567669,-81.170334
1325000000,-8.6445417,-81.198181
1326000000,-8.689785,-81.206268
1327000000,-8.7091665,-81.264259
1328000000,-8.7054377,-81.39946
1329000000,-8.7471809,-81.511589
1330000000,-8.7545767,-81.347
1331000000,-8.7599049,-81.611847
1332000000,-8.7618513,-81.649261
1333000000,-8.8170671,-81.733299
1334000000,-8.8391218,-81.69413
1335000000,-8.8446569,-81.724815
1336000000,-8.8617706,-81.774338
1337000000,-8.8611012,-81.875008
1338000000,-8.8562679,-81.765793
1339000000,-8.8922853,-81.921669
1340000000,-8.9325705,-81.88652
1341000000,-8.9562864,-81.774872
1342000000,-8.9466248,-82.021309
1343000000,-8.9752893,-82.174545
1344000000,-8.984128,-82.128525
1345000000,-9.0117722,-82.271568
1346000000,-9.0323353,-82.051544
1347000000,-9.046361,-82.247841
1348000000,-9.0602646,-82.072838
1349000000,-9.0792627,-82.244713
1350000000,-9.092453,-82.161133
1351000000,-9.0927534,-82.154961
1352000000,-9.1315479,-82.214333
1353000000,-9.1153316,-82.341507
1354000000,-9.1539574,-82.355965
1355000000,-9.2076607,-82.228745
1356000000,-9.2206717,-82.406441
1357000000,-9.2290468,-82.341248
1358000000,-9.2200642,-82.349205
1359000000,-9.2348099,-82.476074
1360000000,-9.2486286,-82.413269
1361000000,-9.3003016,-82.453415
1362000000,-9.3001633,-82.557251
1363000000,-9.3183069,-82.55751
1364000000,-9.3382444,-82.34903
1365000000,-9.3498554,-82.48613
1366000000,-9.3450899,-82.409775
1367000000,-9.3698111,-82.491081
1368000000,-9.398674,-82.467987
1369000000,-9.4026098,-82.533287
1370000000,-9.4316492,-82.550941
1371000000,-9.4682455,-82.551247
1372000000,-9.4532995,-82.59742
1373000000,-9.4909143,-82.553223
1374000000,-9.4968548,-82.634834
1375000000,-9.5419645,-82.621429
1376000000,-9.5321541,-82.371124
1377000000,-9.5607538,-82.762428
1378000000,-9.5918112,-82.478554
1379000000,-9.6040611,-82.721016
1380000000,-9.6510286,-82.754723
1381000000,-9.6885195,-82.686241
1382000000,-9.7027025,-82.8013
1383000000,-9.6894388,-82.465874
1384000000,-9.701417,-82.523056
1385000000,-9.7349977,-82.632881
1386000000,-9.7315521,-82.674904
1387000000,-9.7997837,-82.478951
1388000000,-9.8088331,-82.615227
1389000000,-9.8307095,-82.569061
1390000000,-9.834569,-82.689781
1391000000,-9.863822,-82.529037
1392000000,-9.8799725,-82.520317
1393000000,-9.8963547,-82.432831
1394000000,-9.9038754,-82.527039
1395000000,-9.9245186,-82.399681
1396000000,-9.933157,-82.655281
1397000000,-9.9728661,-82.514366
1398000000,-9.9939775,-82.480133
1399000000,-10.001968,-82.357216
1400000000,-10.047019,-82.495338
1401000000,-10.016568,-82.479736
1402000000,-10.073272,-82.025581
1403000000,-10.068015,-82.48082
1404000000,-10.118459,-82.406509
1405000000,-10.157509,-82.228836
1406000000,-10.144697,-82.367241
1407000000,-10.185628,-82.165352
1408000000,-10.20092,-82.361313
1409000000,-10.185548,-82.137482
1410000000,-10.218645,-82.242874
1411000000,-10.249259,-82.243614
1412000000,-10.253161,-82.129532
1413000000,-10.270856,-82.048744
1414000000,-10.311792,-82.020531
1415000000,-10.299409,-81.959312
1416000000,-10.30415,-82.072159
1417000000,-10.318679,-81.72979
1418000000,-10.365077,-81.666557
1419000000,-10.374229,-81.899872
1420000000,-10.437607,-81.791786
1421000000,-10.423934,-81.783089
1422000000,-10.454189,-81.605713
1423000000,-10.469524,-81.630096
1424000000,-10.517919,-81.387848
1425000000,-10.509468,-81.588562
1426000000,-10.541393,-81.271172
1427000000,-10.562401,-81.366257
1428000000,-10.541084,-81.436836
1429000000,-10.585356,-81.250412
1430000000,-10.628235,-81.21843
1431000000,-10.610495,-81.320564
1432000000,-10.659279,-81.193878
1433000000,-10.697412,-81.150581
1434000000,-10.692783,-81.069672
1435000000,-10.706177,-80.976913
1436000000,-10.723311,-80.789032
1437000000,-10.758068,-80.927719
1438000000,-10.743957,-80.777588
1439000000,-10.807427,-80.799805
1440000000,-10.800882,-80.532364
1441000000,-10.841773,-80.48674
1442000000,-10.881661,-80.418846
1443000000,-10.856282,-80.551407
1444000000,-10.884468,-80.345436
1445000000,-10.915565,-80.138702
1446000000,-10.909199,-80.254395
1447000000,-10.915181,-79.929184
1448000000,-10.942144,-80.026566
1449000000,-10.976846,-79.981133
1450000000,-11.015478,-79.815178
1451000000,-11.010084,-79.747231
1452000000,-11.031065,-79.665466
1453000000,-11.064035,-79.775841
1454000000,-11.060504,-79.58168
1455000000,-11.119779,-79.416245
1456000000,-11.124587,-79.268127
1457000000,-11.137829,-79.0495
1458000000,-11.166413,-79.103661
1459000000,-11.15648,-79.076424
1460000000,-11.165722,-78.766289
1461000000,-11.207842,-78.851791
1462000000,-11.190736,-78.90522
1463000000,-11.231462,-78.631859
1464000000,-11.247059,-78.395309
1465000000,-11.287651,-78.583885
1466000000,-11.290456,-78.344101
1467000000,-11.305526,-78.101318
1468000000,-11.293468,-77.866913
1469000000,-11.29474,-78.08091
1470000000,-11.337575,-77.988724
1471000000,-11.364523,-77.798782
1472000000,-11.359555,-77.664162
1473000000,-11.389511,-77.634636
1474000000,-11.408053,-77.551338
1475000000,-11.451854,-77.335426
1476000000,-11.425848,-77.053917
1477000000,-11.463819,-76.83326
1478000000,-11.480848,-76.772163
1479000000,-11.501731,-76.803505
1480000000,-11.488562,-76.758408
1481000000,-11.507524,-76.508034
1482000000,-11.502177,-76.456375
1483000000,-11.537665,-76.145798
1484000000,-11.554183,-76.007576
1485000000,-11.55523,-75.921623
1486000000,-11.58237,-75.831108
1487000000,-11.612557,-75.814453
1488000000,-11.60995,-75.375351
1489000000,-11.624518,-75.36396
1490000000,-11.622684,-75.290802
1491000000,-11.626512,-75.133812
1492000000,-11.6523,-74.969788
1493000000,-11.665453,-74.813286
1494000000,-11.719614,-74.947563
1495000000,-11.698545,-74.454597
1496000000,-11.69646,-74.331055
1497000000,-11.751267,-74.21801
1498000000,-11.750092,-74.095016
1499000000,-11.744794,-73.985115
1500000000,-11.752484,-74.00898
1501000000,-11.756764,-73.794853
1502000000,-11.797424,-73.497978
1503000000,-11.775133,-73.307747
1504000000,-11.772886,-73.169807
1505000000,-11.805268,-73.142975
1506000000,-11.824788,-72.826981
1507000000,-11.828421,-72.56041
1508000000,-11.824057,-72.581863
1509000000,-11.839525,-72.225388
1510000000,-11.850352,-72.104416
1511000000,-11.843756,-71.918518
1512000000,-11.834044,-71.691856
1513000000,-11.872827,-71.488556
1514000000,-11.837647,-71.538155
1515000000,-11.89558,-71.225975
1516000000,-11.897102,-71.315239
1517000000,-11.903631,-71.02478
1518000000,-11.875857,-70.684456
1519000000,-11.89751,-70.398796
1520000000,-11.910224,-70.562958
1521000000,-11.924026,-70.222214
1522000000,-11.898111,-70.227814
1523000000,-11.910944,-70.031807
1524000000,-11.920103,-69.850655
1525000000,-11.916443,-69.574486
1526000000,-11.92294,-69.491806
1527000000,-11.929853,-69.360123
1528000000,-11.923079,-68.984718
1529000000,-11.936525,-68.92437
1530000000,-11.925702,-68.692032
1531000000,-11.914886,-68.556801
1532000000,-11.926545,-68.397697
1533000000,-11.929953,-68.217934
1534000000,-11.909963,-67.952927
1535000000,-11.918183,-67.893326
1536000000,-11.91057,-67.766609
1537000000,-11.935866,-67.514725
1538000000,-11.92707,-67.405334
1539000000,-11.950021,-67.055878
1540000000,-11.938048,-66.95256
1541000000,-11.921186,-66.732712
1542000000,-11.929832,-66.684357
1543000000,-11.933311,-66.258965
1544000000,-11.90872,-66.114685
1545000000,-11.961093,-66.070068
1546000000,-11.879869,-65.815369
1547000000,-11.889613,-65.702629
1548000000,-11.887624,-65.203651
1549000000,-11.899815,-65.204109
1550000000,-11.952181,-65.201576
1551000000,-11.875435,-64.942307
1552000000,-11.870111,-64.92382
1553000000,-11.852146,-64.59729
1554000000,-11.855957,-64.225586
1555000000,-11.846652,-64.155289
1556000000,-11.849763,-63.912395
1557000000,-11.848013,-63.949074
1558000000,-11.813732,-63.74501
1559000000,-11.81187,-63.315033
1560000000,-11.82418,-63.511124
1561000000,-11.775123,-63.205013
1562000000,-11.828706,-63.095478
1563000000,-11.810059,-62.647636
1564000000,-11.761738,-62.753422
1565000000,-11.749352,-62.516209
1566000000,-11.737922,-62.052261
1567000000,-11.724863,-62.249264
1568000000,-11.743673,-62.032078
1569000000,-11.719616,-61.71983
1570000000,-11.725319,-61.644547
1571000000,-11.686077,-61.687004
1572000000,-11.677615,-61.455132
1573000000,-11.652833,-61.362511
1574000000,-11.697686,-60.735332
1575000000,-11.630548,-60.877655
1576000000,-11.598848,-60.628399
1577000000,-11.589437,-60.478062
1578000000,-11.592222,-60.405716
1579000000,-11.594875,-60.342323
1580000000,-11.567269,-60.105209
1581000000,-11.552243,-59.94717
1582000000,-11.530974,-59.991287
1583000000,-11.498965,-59.720722
1584000000,-11.497746,-59.559208
1585000000,-11.500704,-59.034767
1586000000,-11.484103,-59.287388
1587000000,-11.448915,-59.083153
1588000000,-11.463928,-58.880608
1589000000,-11.427197,-58.794704
1590000000,-11.414238,-58.686291
1591000000,-11.389236,-58.555103
1592000000,-11.393802,-58.319168
1593000000,-11.367923,-58.183998
1594000000,-11.358021,-58.062901
1595000000,-11.332652,-57.713924
1596000000,-11.288422,-57.633034
1597000000,-11.31618,-57.623512
1598000000,-11.2429,-57.251575
1599000000,-11.248407,-57.50798
1600000000,-11.205971,-57.144432
1601000000,-11.181605,-57.174202
1602000000,-11.175827,-56.989685
1603000000,-11.200562,-56.742813
1604000000,-11.149012,-56.856136
1605000000,-11.11601,-56.557053
1606000000,-11.120129,-56.483452
1607000000,-11.102221,-56.578484
1608000000,-11.083025,-56.117428
1609000000,-11.023646,-56.381462
1610000000,-11.02326,-56.07275
1611000000,-11.012273,-55.969948
1612000000,-10.97698,-55.838001
1613000000,-10.944759,-55.695137
1614000000,-10.933922,-55.58424
1615000000,-10.889332,-55.446587
1616000000,-10.874821,-55.170517
1617000000,-10.886724,-55.233425
1618000000,-10.847872,-55.310688
1619000000,-10.818751,-55.092175
1620000000,-10.810052,-55.055912
1621000000,-10.752104,-54.754356
1622000000,-10.755975,-54.792149
1623000000,-10.727298,-54.869953
1624000000,-10.698444,-54.607311
1625000000,-10.701852,-54.453972
1626000000,-10.691145,-54.212551
1627000000,-10.618162,-54.335728
1628000000,-10.652077,-54.121727
1629000000,-10.625202,-54.318913
1630000000,-10.584494,-54.327408
1631000000,-10.590917,-54.085983
1632000000,-10.498719,-54.003147
1633000000,-10.503479,-53.805031
1634000000,-10.486774,-53.772839
1635000000,-10.447263,-53.836174
1636000000,-10.426276,-53.781925
1637000000,-10.405919,-53.431652
1638000000,-10.370603,-53.548119
1639000000,-10.345067,-53.457287
1640000000,-10.340229,-53.282757
1641000000,-10.3183,-53.330063
1642000000,-10.297663,-53.310684
1643000000,-10.256875,-53.272621
1644000000,-10.230892,-53.286522
1645000000,-10.222141,-53.051338
1646000000,-10.206408,-53.108627
1647000000,-10.163607,-52.887466
1648000000,-10.124753,-52.915646
1649000000,-10.128433,-53.024803
1650000000,-10.079688,-52.814449
1651000000,-10.07936,-52.739159
1652000000,-10.039876,-52.897308
1653000000,-10.004627,-52.702682
1654000000,-10.015563,-52.667419
1655000000,-9.9632196,-52.61253
1656000000,-9.9297924,-52.405434
1657000000,-9.9196672,-52.363876
1658000000,-9.9025536,-52.312355
1659000000,-9.8751373,-52.476665
1660000000,-9.8234749,-52.436863
1661000000,-9.7920275,-52.426243
1662000000,-9.7766771,-52.344112
1663000000,-9.7729273,-52.017113
1664000000,-9.7399073,-52.059746
1665000000,-9.7193432,-52.056793
1666000000,-9.6721888,-52.42392
1667000000,-9.6446934,-52.124714
1668000000,-9.6650419,-51.987225
1669000000,-9.6257505,-52.182205
1670000000,-9.6112928,-52.089897
1671000000,-9.5493689,-52.109272
1672000000,-9.5406504,-52.116344
1673000000,-9.5299644,-52.026794
1674000000,-9.4841003,-52.167881
1675000000,-9.4585323,-51.913517
1676000000,-9.4499359,-52.029884
1677000000,-9.3886347,-52.099285
1678000000,-9.38305,-51.918556
1679000000,-9.3835611,-52.131519
1680000000,-9.3627691,-51.806534
1681000000,-9.3286715,-51.689461
1682000000,-9.3053579,-51.918087
1683000000,-9.267066,-52.014233
1684000000,-9.2421589,-51.710701
1685000000,-9.2302771,-51.743912
1686000000,-9.2123804,-52.065392
1687000000,-9.1666546,-51.8232
1688000000,-9.1376448,-52.066845
1689000000,-9.1298227,-51.851593
1690000000,-9.0921488,-51.817108
1691000000,-9.0700197,-51.850403
1692000000,-9.047822,-51.819008
1693000000,-9.0472851,-51.835999
1694000000,-8.9904966,-52.081387
1695000000,-8.9862146,-52.107849
1696000000,-8.9216747,-51.945499
1697000000,-8.956315,-51.978188
1698000000,-8.8801107,-52.061241
1699000000,-8.8555002,-51.942677
1700000000,-8.8837004,-51.859989
1701000000,-8.828619,-51.953274
1702000000,-8.8201981,-52.160458
1703000000,-8.7967358,-52.091396
1704000000,-8.7620573,-51.839024
1705000000,-8.7581701,-52.049534
1706000000,-8.7001915,-52.138874
1707000000,-8.7194939,-52.225418
1708000000,-8.6529493,-52.285015
1709000000,-8.6550045,-52.297829
1710000000,-8.621707,-52.253834
1711000000,-8.6137877,-52.094242
1712000000,-8.5776691,-52.045658
1713000000,-8.5618954,-52.260174
1714000000,-8.5486574,-52.335617
1715000000,-8.4958954,-52.501015
1716000000,-8.5139112,-52.498051
1717000000,-8.474781,-52.430336
1718000000,-8.4487839,-52.39669
1719000000,-8.4398956,-52.46685
1720000000,-8.4115362,-52.354942
1721000000,-8.358181,-52.365978
1722000000,-8.3517361,-52.623482
1723000000,-8.3441925,-52.319279
1724000000,-8.2963476,-52.651424
1725000000,-8.2974701,-52.540852
1726000000,-8.2531214,-52.651932
1727000000,-8.2449141,-52.541386
1728000000,-8.2289963,-52.644875
1729000000,-8.2130566,-52.678867
1730000000,-8.1691532,-52.845871
1731000000,-8.1132889,-52.992096
1732000000,-8.0721035,-53.065506
1733000000,-8.0940599,-53.017258
1734000000,-8.0755768,-52.891338
1735000000,-8.0711899,-52.879852
1736000000,-8.0441132,-53.080338
1737000000,-8.0290871,-53.13847
1738000000,-7.9927902,-53.176392
1739000000,-7.9546633,-53.115002
1740000000,-7.9751515,-53.258926
1741000000,-7.9545612,-53.227642
1742000000,-7.9347997,-53.507236
1743000000,-7.9182611,-53.546482
1744000000,-7.8653927,-53.420059
1745000000,-7.8382788,-53.625706
1746000000,-7.8445935,-53.756382
1747000000,-7.8183665,-53.790127
1748000000,-7.8062367,-53.842312
1749000000,-7.7844186,-53.819645
1750000000,-7.7449436,-53.952454
1751000000,-7.7494731,-53.804482
1752000000,-7.7212925,-53.952328
1753000000,-7.6872067,-53.798649
1754000000,-7.6647625,-54.159084
1755000000,-7.6594381,-54.125458
1756000000,-7.645575,-54.143372
1757000000,-7.6260314,-54.354546
1758000000,-7.5953331,-54.36245
1759000000,-7.5753193,-54.455448
1760000000,-7.5598402,-54.313942
1761000000,-7.5205607,-54.449039
1762000000,-7.4853592,-54.493828
1763000000,-7.4999914,-54.61171
1764000000,-7.487257,-54.621841
1765000000,-7.4457402,-54.747505
1766000000,-7.463696,-54.458855
1767000000,-7.419621,-54.741013
1768000000,-7.3830223,-54.768211
1769000000,-7.3717508,-54.836067
1770000000,-7.3444796,-54.946159
1771000000,-7.3606801,-55.21328
1772000000,-7.2878814,-55.272602
1773000000,-7.2814393,-55.226887
1774000000,-7.294662,-55.465679
1775000000,-7.2413387,-55.22731
1776000000,-7.2351933,-55.429661
1777000000,-7.2032781,-55.534058
1778000000,-7.2096939,-55.618107
1779000000,-7.1762228,-55.634609
1780000000,-7.172307,-55.673203
1781000000,-7.1523681,-55.769321
1782000000,-7.1380382,-55.947636
1783000000,-7.1158762,-55.959469
1784000000,-7.1009278,-56.02866
1785000000,-7.0803709,-55.903835
1786000000,-7.0422611,-56.063919
1787000000,-7.0475492,-56.235962
1788000000,-7.0302324,-56.208385
1789000000,-7.0084791,-56.297836
1790000000,-6.9840674,-56.47567
1791000000,-6.9814916,-56.532249
1792000000,-6.9608307,-56.720715
1793000000,-6.9400702,-56.477924
1794000000,-6.8831124,-56.574398
1795000000,-6.8940363,-56.984016
1796000000,-6.8906322,-57.012604
1797000000,-6.8659525,-56.886559
1798000000,-6.8899422,-57.058167
1799000000,-6.8291545,-57.177788
1800000000,-6.8095493,-57.236263
1801000000,-6.8053527,-57.219852
1802000000,-6.7822852,-57.390537
1803000000,-6.7715106,-57.470325
1804000000,-6.7577496,-57.559772
1805000000,-6.7485704,-57.585079
1806000000,-6.716527,-57.806595
1807000000,-6.7211227,-57.726444
1808000000,-6.6793361,-57.822681
1809000000,-6.6984434,-58.010906
1810000000,-6.6824703,-57.879658
1811000000,-6.6632552,-58.083138
1812000000,-6.6020379,-58.103245
1813000000,-6.6425447,-58.182617
1814000000,-6.5982065,-58.382027
1815000000,-6.5947022,-58.51593
1816000000,-6.5923982,-58.438076
1817000000,-6.5481095,-58.560177
1818000000,-6.5093932,-58.615898
1819000000,-6.5479698,-58.696728
1820000000,-6.5188241,-58.7855
1821000000,-6.5040717,-58.833263
1822000000,-6.4815874,-59.11731
1823000000,-6.4709425,-59.135601
1824000000,-6.4303608,-58.901714
1825000000,-6.3984036,-59.194416
1826000000,-6.4140968,-59.262184
1827000000,-6.3938828,-59.285435
1828000000,-6.3722053,-59.390995
1829000000,-6.3659158,-59.437325
1830000000,-6.3619771,-59.716202
1831000000,-6.3396578,-59.532852
1832000000,-6.3518043,-59.740093
1833000000,-6.3362732,-59.901031
1834000000,-6.2852674,-59.821449
1835000000,-6.2551713,-59.94215
1836000000,-6.2551174,-60.055874
1837000000,-6.2531867,-60.211418
1838000000,-6.2244811,-60.4104
1839000000,-6.2152376,-60.279091
1840000000,-6.2233577,-60.533009
1841000000,-6.1964235,-60.519581
1842000000,-6.1687741,-60.514069
1843000000,-6.1695952,-60.680584
1844000000,-6.1837893,-60.913029
1845000000,-6.1428328,-60.866882
1846000000,-6.1007581,-61.104675
1847000000,-6.1149263,-61.174099
1848000000,-6.1165562,-61.289665
1849000000,-6.0650401,-61.24231
1850000000,-6.0863037,-61.226841
1851000000,-6.0640178,-61.288147
1852000000,-6.0482044,-61.498615
1853000000,-6.0326533,-61.868797
1854000000,-6.0366488,-61.655468
1855000000,-6.0132508,-61.970135
1856000000,-6.0076356,-61.80822
1857000000,-5.9687696,-62.198776
1858000000,-5.9815102,-62.134327
1859000000,-5.9743018,-62.180622
1860000000,-5.9418325,-62.423271
1861000000,-5.9389091,-62.460033
1862000000,-5.9287934,-62.528053
1863000000,-5.867703,-62.555428
1864000000,-5.889667,-62.354534
1865000000,-5.8930316,-62.747173
1866000000,-5.8640494,-62.814976
1867000000,-5.8410554,-62.845924
1868000000,-5.8901052,-62.835209
1869000000,-5.8226142,-62.948463
1870000000,-5.8206325,-63.147339
1871000000,-5.794836,-63.082001
1872000000,-5.788136,-63.370087
1873000000,-5.7811475,-63.3568
1874000000,-5.7781801,-63.411076
1875000000,-5.7756639,-63.572369
1876000000,-5.7360849,-63.772297
1877000000,-5.7320743,-63.669106
1878000000,-5.7095833,-64.007172
1879000000,-5.7088504,-64.02243
1880000000,-5.6990027,-64.184982
1881000000,-5.6569152,-64.022659
1882000000,-5.6681809,-64.381821
1883000000,-5.6604795,-64.336906
1884000000,-5.671536,-64.367714
1885000000,-5.6312022,-64.616508
1886000000,-5.635828,-64.707619
1887000000,-5.6185818,-64.843155
1888000000,-5.5956874,-64.797699
1889000000,-5.560668,-64.987495
1890000000,-5.5931659,-65.045387
1891000000,-5.5524516,-65.15284
1892000000,-5.5658298,-65.34845
1893000000,-5.5157852,-65.089294
1894000000,-5.531455,-65.38987
1895000000,-5.5024657,-65.591507
1896000000,-5.488771,-65.667168
1897000000,-5.5123982,-65.762505
1898000000,-5.5053706,-65.782761
1899000000,-5.4981413,-66.013329
1900000000,-5.4723668,-66.12748
1901000000,-5.4859481,-66.15155
1902000000,-5.4602413,-66.036858
1903000000,-5.408083,-66.442932
1904000000,-5.4115882,-66.447495
1905000000,-5.4344206,-66.591347
1906000000,-5.4027061,-66.651978
1907000000,-5.396081,-66.743683
1908000000,-5.3908648,-66.688591
1909000000,-5.3720322,-66.761391
1910000000,-5.3904319,-66.941612
1911000000,-5.3460546,-67.158791
1912000000,-5.3633084,-67.22686
1913000000,-5.3511395,-67.274536
1914000000,-5.3587914,-67.381371
1915000000,-5.3006449,-67.419785
1916000000,-5.3096428,-67.498016
1917000000,-5.297658,-67.714951
1918000000,-5.297873,-67.746788
1919000000,-5.2847748,-67.79567
1920000000,-5.2766037,-67.890747
1921000000,-5.2718158,-68.144691
1922000000,-5.2482777,-68.210823
1923000000,-5.2596402,-68.401497
1924000000,-5.2225065,-68.357628
1925000000,-5.2221003,-68.48893
1926000000,-5.206471,-68.596458
1927000000,-5.1997619,-68.703979
1928000000,-5.1990857,-68.679955
1929000000,-5.1988869,-68.732574
1930000000,-5.168036,-68.832809
1931000000,-5.1464672,-69.034813
1932000000,-5.1584349,-69.029648
1933000000,-5.1303329,-69.041016
1934000000,-5.1306524,-69.024414
1935000000,-5.1339221,-69.235512
1936000000,-5.1095071,-69.572998
1937000000,-5.0932798,-69.614296
1938000000,-5.1204219,-69.763626
1939000000,-5.0991769,-69.762306
1940000000,-5.0980744,-69.966934
1941000000,-5.0723243,-70.116539
1942000000,-5.0428166,-69.885651
1943000000,-5.0379715,-70.15033
1944000000,-5.0522408,-70.226746
1945000000,-5.0111299,-70.482796
1946000000,-5.005167,-70.687698
1947000000,-4.9977498,-70.688011
1948000000,-5.0330849,-70.688835
1949000000,-5.0007539,-70.816437
1950000000,-4.9550567,-70.934761
1951000000,-4.9865136,-71.042496
1952000000,-4.9760971,-71.034935
1953000000,-4.9666009,-71.072716
1954000000,-4.9443202,-71.319397
1955000000,-4.9240441,-71.161621
1956000000,-4.941185,-71.326065
1957000000,-4.9678216,-71.61908
1958000000,-4.932806,-71.741028
1959000000,-4.9283414,-71.695045
1960000000,-4.9217682,-71.932709
1961000000,-4.899538,-72.003113
1962000000,-4.8711662,-72.156433
1963000000,-4.8945284,-72.227486
1964000000,-4.8571377,-72.133018
1965000000,-4.8517275,-72.347733
1966000000,-4.8654904,-72.411713
1967000000,-4.8359399,-72.636887
1968000000,-4.8672185,-72.618301
1969000000,-4.8301134,-72.893661
1970000000,-4.829917,-72.791138
1971000000,-4.8160625,-73.031113
1972000000,-4.7925301,-73.128296
1973000000,-4.7848949,-73.059341
1974000000,-4.7872052,-73.164612
1975000000,-4.7841311,-73.356529
1976000000,-4.7700949,-73.443604
1977000000,-4.7842774,-73.391167
1978000000,-4.7461319,-73.472427
1979000000,-4.7750077,-73.707504
1980000000,-4.7425961,-73.687294
1981000000,-4.7350245,-73.872101
1982000000,-4.7396541,-74.020332
1983000000,-4.7176757,-74.121468
1984000000,-4.73417,-74.178345
1985000000,-4.695621,-74.367325
1986000000,-4.7085285,-74.522346
1987000000,-4.6850967,-74.427757
1988000000,-4.6784692,-74.604416
1989000000,-4.675292,-74.812386
1990000000,-4.7036486,-74.731628
1991000000,-4.6524215,-74.916077
1992000000,-4.6693792,-75.182648
1993000000,-4.6755414,-75.163383
1994000000,-4.6328158,-75.220795
1995000000,-4.6245923,-75.248901
1996000000,-4.6232195,-75.470528
1997000000,-4.6206932,-75.514259
1998000000,-4.6244922,-75.593834
1999000000,-4.6271615,-75.710938
2000000000,-4.6058078,-75.688988
2001000000,-4.5968957,-75.856148
2002000000,-4.5828013,-75.776855
2003000000,-4.6029353,-76.105408
2004000000,-4.5920939,-76.095558
2005000000,-4.5386643,-76.322464
2006000000,-4.5401793,-76.397133
2007000000,-4.5442777,-76.35096
2008000000,-4.5673575,-76.415337
2009000000,-4.5251336,-76.433029
2010000000,-4.5141444,-76.682198
2011000000,-4.5146298,-76.537682
2012000000,-4.526536,-76.61393
2013000000,-4.5483007,-76.864876
2014000000,-4.4805479,-77.014381
2015000000,-4.5221462,-76.979904
2016000000,-4.5261974,-77.424988
2017000000,-4.4696808,-77.729843
2018000000,-4.4749718,-77.467377
2019000000,-4.4902959,-77.621262
2020000000,-4.4769497,-77.840141
2021000000,-4.4754024,-77.824005
2022000000,-4.4848213,-78.034302
2023000000,-4.4732075,-77.979523
2024000000,-4.441134,-78.279388
2025000000,-4.4510102,-78.248955
2026000000,-4.4508996,-78.194061
2027000000,-4.4391317,-78.388901
2028000000,-4.4333382,-78.427872
2029000000,-4.4155183,-78.455177
2030000000,-4.395453,-78.872482
2031000000,-4.4061475,-78.814644
2032000000,-4.4215918,-78.852104
2033000000,-4.3838849,-79.006058
2034000000,-4.4044266,-78.961189
2035000000,-4.3830557,-79.081673
2036000000,-4.3726687,-79.248283
2037000000,-4.3847113,-79.298553
2038000000,-4.3518538,-79.583076
2039000000,-4.3460288,-79.413139
2040000000,-4.3850193,-79.727661
2041000000,-4.35256,-79.588463
2042000000,-4.3256917,-79.882545
2043000000,-4.3363481,-79.899796
2044000000,-4.3225646,-80.123581
2045000000,-4.3492756,-80.026299
2046000000,-4.3108234,-80.165146
2047000000,-4.3169966,-80.336761
2048000000,-4.3176708,-80.478104
2049000000,-4.3248534,-80.620651
2050000000,-4.3238425,-80.787727
2051000000,-4.2886701,-80.561691
2052000000,-4.2886515,-80.987556
2053000000,-4.2631922,-80.880188
2054000000,-4.2566252,-81.064201
2055000000,-4.2479668,-81.158836
2056000000,-4.2527952,-81.092918
2057000000,-4.2604971,-81.367218
2058000000,-4.2626886,-81.499878
2059000000,-4.2574978,-81.683884
2060000000,-4.2113428,-81.845848
2061000000,-4.2154865,-81.686333
2062000000,-4.2364388,-81.800552
2063000000,-4.236043,-81.726021
2064000000,-4.198565,-81.991615
2065000000,-4.2328711,-82.007416
2066000000,-4.2044744,-82.04454
2067000000,-4.2045188,-82.226761
2068000000,-4.1892838,-82.681931
2069000000,-4.2240124,-82.425346
2070000000,-4.1678987,-82.494629
2071000000,-4.196672,-82.581367
2072000000,-4.1631389,-82.76461
2073000000,-4.1840005,-82.898079
2074000000,-4.1666026,-82.730286
2075000000,-4.1808934,-82.92144
2076000000,-4.1706243,-83.13858
2077000000,-4.1433024,-83.262428
2078000000,-4.1397901,-83.181053
2079000000,-4.1592503,-83.410065
2080000000,-4.1527605,-83.596573
2081000000,-4.130331,-83.70134
2082000000,-4.1207256,-83.871689
2083000000,-4.139327,-83.953354
2084000000,-4.1419549,-83.874306
2085000000,-4.1262627,-84.084
2086000000,-4.1345353,-84.085472
2087000000,-4.0984726,-84.21122
2088000000,-4.0662689,-84.33149
2089000000,-4.0864892,-84.195839
2090000000,-4.0742869,-84.543457
2091000000,-4.0951996,-84.470909
2092000000,-4.0758214,-84.717293
2093000000,-4.099659,-84.769035
2094000000,-4.0412211,-84.580956
2095000000,-4.0734539,-84.971863
2096000000,-4.0374608,-85.100563
2097000000,-4.065824,-85.070267
2098000000,-4.0673842,-85.096382
2099000000,-4.0373044,-85.214317
2100000000,-4.0358996,-85.398567
2101000000,-4.0516081,-85.524155
2102000000,-4.0455365,-85.455109
2103000000,-4.035418,-85.80027
2104000000,-4.0252876,-86.083305
2105000000,-4.0122514,-85.813263
2106000000,-4.0399613,-85.824486
2107000000,-4.0348477,-86.02697
2108000000,-3.9989491,-86.305603
2109000000,-3.9509566,-86.092979
2110000000,-4.0043135,-86.46888
2111000000,-4.0083113,-86.506042
2112000000,-3.9933593,-86.581635
2113000000,-3.9955225,-86.746407
2114000000,-3.9879389,-86.588776
2115000000,-4.0037122,-86.845612
2116000000,-3.9957564,-87.027893
2117000000,-3.9734881,-87.059875
2118000000,-3.9354484,-87.159897
2119000000,-3.9604366,-87.380768
2120000000,-3.97349,-87.206879
2121000000,-3.9847071,-87.374817
2122000000,-3.9672732,-87.276741
2123000000,-3.9220164,-87.575279
2124000000,-3.9290364,-87.94558
2125000000,-3.9585221,-87.933464
2126000000,-3.9212234,-87.89019
2127000000,-3.9379909,-87.905617
2128000000,-3.9285376,-88.025543
2129000000,-3.927104,-88.341553
2130000000,-3.9225914,-88.090782
2131000000,-3.8883848,-88.499123
2132000000,-3.9307215,-88.593132
2133000000,-3.8848283,-88.398178
2134000000,-3.9151995,-88.605446
2135000000,-3.8917983,-88.734421
2136000000,-3.8921578,-88.936295
2137000000,-3.8914974,-88.868568
2138000000,-3.8897495,-88.90271
2139000000,-3.8906903,-89.132454
2140000000,-3.871906,-89.167923
2141000000,-3.915452,-89.138039
2142000000,-3.8702176,-89.442085
2143000000,-3.9132957,-89.402428
2144000000,-3.8695257,-89.456078
2145000000,-3.8850024,-89.594276
2146000000,-3.8745365,-89.959686
2147000000,-3.892087,-90.027939
2148000000,-3.8241634,-89.877022
2149000000,-3.8601491,-90.134789
2150000000,-3.8215287,-90.232399
2151000000,-3.8458717,-90.252922
2152000000,-3.8107162,-90.295204
2153000000,-3.8472054,-90.427315
2154000000,-3.8236713,-90.547318
2155000000,-3.8615105,-90.822334
2156000000,-3.8358641,-90.58493
2157000000,-3.7951128,-90.86953
2158000000,-3.8179944,-90.874321
2159000000,-3.801939,-90.824287
2160000000,-3.7942464,-91.121681
2161000000,-3.820509,-91.150764
2162000000,-3.7933342,-91.524414
2163000000,-3.8182418,-91.444641
2164000000,-3.8074241,-91.404991
2165000000,-3.7904322,-91.593559
2166000000,-3.7938299,-91.740822
2167000000,-3.7826264,-91.75666
2168000000,-3.7780306,-91.873528
2169000000,-3.8061025,-91.879013
2170000000,-3.7610795,-92.092766
2171000000,-3.7707324,-92.11628
2172000000,-3.7557302,-92.08107
2173000000,-3.7655709,-92.481171
2174000000,-3.7749436,-92.47509
2175000000,-3.7443819,-92.43605
2176000000,-3.7355909,-92.889275
2177000000,-3.7599652,-92.617233
2178000000,-3.7323465,-92.917648
2179000000,-3.7388864,-92.807014
2180000000,-3.7564459,-92.925438
2181000000,-3.7215755,-93.203781
2182000000,-3.7154434,-93.200439
2183000000,-3.7567341,-93.090355
2184000000,-3.7205505,-93.28051
2185000000,-3.7075686,-93.406319
2186000000,-3.7145898,-93.577812
2187000000,-3.7238622,-93.73613
2188000000,-3.7316353,-93.899734
2189000000,-3.7240376,-93.861298
2190000000,-3.7073548,-93.713203
2191000000,-3.7054768,-93.940285
2192000000,-3.6988325,-93.938614
2193000000,-3.6978986,-94.277199
2194000000,-3.6989796,-94.314522
2195000000,-3.700331,-94.257072
2196000000,-3.6806042,-94.587662
2197000000,-3.6710467,-94.685783
2198000000,-3.6643395,-94.763016
2199000000,-3.6772349,-94.814514
2200000000,-3.6945081,-95.013542
2201000000,-3.6688504,-95.065247
2202000000,-3.6595984,-95.179001
2203000000,-3.6674778,-95.215714
2204000000,-3.6505499,-95.432335
2205000000,-3.6633725,-95.401398
2206000000,-3.6888394,-95.290466
2207000000,-3.6421905,-95.470139
2208000000,-3.6325283,-95.58799
2209000000,-3.6699674,-95.760971
2210000000,-3.6533566,-95.840775
2211000000,-3.6904392,-95.884468
2212000000,-3.6634531,-95.999992
2213000000,-3.629174,-95.91864
2214000000,-3.6601586,-96.164482
2215000000,-3.6413758,-96.169724
2216000000,-3.6633611,-96.434753
2217000000,-3.5831466,-96.449333
2218000000,-3.6337676,-96.589127
2219000000,-3.6126149,-96.769966
2220000000,-3.6446171,-96.684631
2221000000,-3.6258519,-96.58934
2222000000,-3.6298201,-96.888542
2223000000,-3.6320853,-97.088669
2224000000,-3.6030796,-97.174667
2225000000,-3.636781,-96.988815
2226000000,-3.5939479,-97.164574
2227000000,-3.645633,-97.403648
2228000000,-3.5844009,-97.612488
2229000000,-3.6228395,-97.553726
2230000000,-3.6261277,-97.797112
2231000000,-3.5780118,-97.946579
2232000000,-3.6037693,-97.873474
2233000000,-3.5990613,-98.153381
2234000000,-3.5920622,-97.827583
2235000000,-3.5828516,-98.277802
2236000000,-3.5919728,-98.284119
2237000000,-3.5996027,-98.378448
2238000000,-3.5605497,-98.379646
2239000000,-3.6010518,-98.484131
2240000000,-3.5895112,-98.573402
2241000000,-3.5903792,-98.670395
2242000000,-3.5901861,-98.719536
2243000000,-3.55638,-98.563828
2244000000,-3.5765758,-98.967979
2245000000,-3.5445213,-98.844955
2246000000,-3.574573,-99.052505
2247000000,-3.5522656,-99.137871
2248000000,-3.5276582,-99.208015
2249000000,-3.5432498,-99.2892
2250000000,-3.5583878,-99.47274
2251000000,-3.5537777,-99.559456
2252000000,-3.5224538,-99.696472
2253000000,-3.5641031,-99.759369
2254000000,-3.5175309,-99.964775
2255000000,-3.5418966,-99.877594
2256000000,-3.5363009,-100.07813
2257000000,-3.5348997,-100.0365
2258000000,-3.5382938,-100.10229
2259000000,-3.5124586,-100.38512
2260000000,-3.5229595,-100.4666
2261000000,-3.5134227,-100.31271
2262000000,-3.5392687,-100.50826
2263000000,-3.533922,-100.58628
2264000000,-3.5213628,-100.61552
2265000000,-3.5175366,-100.75457
2266000000,-3.5310173,-100.97272
2267000000,-3.4931345,-100.94537
2268000000,-3.5084741,-101.12641
2269000000,-3.5164363,-101.07876
2270000000,-3.4840143,-101.32508
2271000000,-3.5177808,-101.25393
2272000000,-3.5224433,-101.53096
2273000000,-3.5032158,-101.60071
2274000000,-3.5183659,-101.77911
2275000000,-3.4948816,-101.63071
2276000000,-3.4850609,-101.96589
2277000000,-3.4942617,-102.02935
2278000000,-3.5118237,-102.05148
2279000000,-3.5009215,-102.0508
2280000000,-3.4803357,-102.21947
2281000000,-3.5190325,-102.31622
2282000000,-3.475435,-102.49205
2283000000,-3.4942496,-102.45338
2284000000,-3.5015507,-102.5598
2285000000,-3.492465,-102.83659
2286000000,-3.4649794,-102.97546
2287000000,-3.4528131,-102.89905
2288000000,-3.4759839,-103.01446
2289000000,-3.4612644,-103.08913
2290000000,-3.4796326,-103.15828
2291000000,-3.4629157,-103.20426
2292000000,-3.4782879,-103.10757
2293000000,-3.462599,-103.55855
2294000000,-3.44154,-103.4791
2295000000,-3.4730191,-103.5267
2296000000,-3.4472075,-103.79855
2297000000,-3.4288697,-103.82595
2298000000,-3.4555268,-103.91997
2299000000,-3.4470971,-103.84752
2300000000,-3.4305625,-104.00829
2301000000,-3.4737701,-104.38106
2302000000,-3.4386475,-104.32008
2303000000,-3.4501016,-104.40513
2304000000,-3.4731281,-104.14434
2305000000,-3.419867,-104.32845
2306000000,-3.4517472,-104.55759
2307000000,-3.4549084,-104.78728
2308000000,-3.4156439,-104.72673
2309000000,-3.4215572,-104.60315
2310000000,-3.4468975,-104.77055
2311000000,-3.4069448,-104.80612
2312000000,-3.4451087,-105.10006
2313000000,-3.4140639,-105.29647
2314000000,-3.4535949,-105.25612
2315000000,-3.4185202,-105.48006
2316000000,-3.4045622,-105.52144
2317000000,-3.4269865,-105.41481
2318000000,-3.4072316,-105.70575
2319000000,-3.394362,-105.829
2320000000,-3.4111867,-105.9425
2321000000,-3.4314132,-105.77943
2322000000,-3.3887053,-106.01256
2323000000,-3.393918,-106.1459
2324000000,-3.3927002,-106.22319
2325000000,-3.3971694,-106.40926
2326000000,-3.4241502,-106.34351
2327000000,-3.3980536,-106.47549
2328000000,-3.4253635,-106.7559
2329000000,-3.4050257,-106.74781
2330000000,-3.4089777,-106.64591
2331000000,-3.3799455,-106.84888
2332000000,-3.3989568,-107.05096
2333000000,-3.4347334,-107.18111
2334000000,-3.3645399,-106.99782
2335000000,-3.3788474,-107.42305
2336000000,-3.3680792,-107.31121
2337000000,-3.4145727,-107.37527
2338000000,-3.3925159,-107.37543
2339000000,-3.422261,-107.7795
2340000000,-3.3415978,-107.68872
2341000000,-3.3969197,-107.87245
2342000000,-3.3569326,-107.87743
2343000000,-3.3542652,-108.15939
2344000000,-3.3935325,-108.03301
2345000000,-3.3549318,-107.87987
2346000000,-3.3887975,-108.25375
2347000000,-3.372951,-108.22687
2348000000,-3.3429437,-108.45647
2349000000,-3.3599091,-108.4075
2350000000,-3.3594189,-108.42377
2351000000,-3.3821721,-108.61655
2352000000,-3.3567169,-108.7062
2353000000,-3.3661377,-108.8355
2354000000,-3.3558149,-108.88187
2355000000,-3.3291726,-108.92152
2356000000,-3.3635302,-109.05293
2357000000,-3.3657115,-109.20219
2358000000,-3.3616371,-109.26135
2359000000,-3.3783181,-109.3427
2360000000,-3.3455043,-109.49686
2361000000,-3.3518343,-109.47143
2362000000,-3.3711374,-109.53155
2363000000,-3.3242061,-109.57412
2364000000,-3.3131142,-109.83096
2365000000,-3.360261,-109.85737
2366000000,-3.3197014,-109.98835
2367000000,-3.3461592,-110.22057
2368000000,-3.3271232,-109.98817
2369000000,-3.3497922,-110.27784
2370000000,-3.3387377,-110.24622
2371000000,-3.3453591,-110.21934
2372000000,-3.3315146,-110.60719
2373000000,-3.3229628,-110.77229
2374000000,-3.3502448,-110.62708
2375000000,-3.3345156,-110.8509
2376000000,-3.3197622,-110.78465
2377000000,-3.3188033,-111.23718
2378000000,-3.3496096,-111.20671
2379000000,-3.3356812,-111.26524
2380000000,-3.3366387,-111.41081
2381000000,-3.3243797,-111.32427
2382000000,-3.3410859,-111.47579
2383000000,-3.3422878,-111.65852
2384000000,-3.3243129,-111.56814
2385000000,-3.3212919,-111.59878
2386000000,-3.2951493,-111.94522
2387000000,-3.2965281,-111.9801
2388000000,-3.3019731,-111.81624
2389000000,-3.3159792,-111.89306
2390000000,-3.3213174,-112.09354
2391000000,-3.3360953,-112.3807
2392000000,-3.2786119,-112.40901
2393000000,-3.3239458,-112.52826
2394000000,-3.3307002,-112.28414
2395000000,-3.3187189,-112.47327
2396000000,-3.3320351,-112.84566
2397000000,-3.3131208,-112.68417
2398000000,-3.329376,-112.69876
2399000000,-3.3291214,-112.86179
2400000000,-3.311831,-113.18515
2401000000,-3.28736,-113.09037
2402000000,-3.310169,-112.9987
2403000000,-3.3283074,-113.30521
2404000000,-3.2986765,-113.49537
2405000000,-3.308147,-113.49689
2406000000,-3.3201702,-113.481
2407000000,-3.2947361,-113.85145
2408000000,-3.3098042,-113.88618
2409000000,-3.2737055,-113.6329
2410000000,-3.3046556,-114.07272
2411000000,-3.3023179,-114.05919
2412000000,-3.3128772,-114.13049
2413000000,-3.3285692,-114.21654
2414000000,-3.2825739,-114.56235
2415000000,-3.3121209,-114.53611
2416000000,-3.2859938,-114.54536
2417000000,-3.3236077,-114.42316
2418000000,-3.2828233,-114.87887
2419000000,-3.314631,-114.67655
2420000000,-3.2935448,-114.71353
2421000000,-3.2663884,-115.00916
2422000000,-3.268455,-115.02522
2423000000,-3.2985556,-115.04696
2424000000,-3.2903886,-115.22314
2425000000,-3.2852256,-115.47433
2426000000,-3.2936928,-115.19708
2427000000,-3.2554557,-115.61845
2428000000,-3.2488883,-115.55877
2429000000,-3.2421486,-115.5999
2430000000,-3.2843444,-115.6024
2431000000,-3.2754371,-115.71979
2432000000,-3.3017709,-115.82961
2433000000,-3.2660644,-116.09553
2434000000,-3.2654028,-116.10591
2435000000,-3.2943916,-116.08665
2436000000,-3.2927427,-116.27193
2437000000,-3.2926171,-116.47804
2438000000,-3.2693219,-116.49135
2439000000,-3.2676282,-116.46504
2440000000,-3.2541041,-116.76682
2441000000,-3.2302558,-116.7121
2442000000,-3.2733152,-116.93451
2443000000,-3.2839954,-116.84097
2444000000,-3.2733033,-116.93873
2445000000,-3.2793195,-117.10962
2446000000,-3.2711697,-117.06272
2447000000,-3.2733958,-117.20043
2448000000,-3.2936521,-117.5192
2449000000,-3.2810328,-117.57119
2450000000,-3.2543802,-117.63442
2451000000,-3.2463481,-117.39561
2452000000,-3.2797003,-117.9156
2453000000,-3.2483246,-117.6929
2454000000,-3.2396255,-117.81268
2455000000,-3.2816415,-118.05839
2456000000,-3.2667332,-117.8539
2457000000,-3.2920563,-118.13766
2458000000,-3.2541666,-118.23511
2459000000,-3.2771909,-118.25161
2460000000,-3.2393451,-118.47888
2461000000,-3.2491708,-118.50942
2462000000,-3.2660823,-118.61416
2463000000,-3.2679334,-118.92554
2464000000,-3.2743943,-118.73972
2465000000,-3.2631505,-119.01445
2466000000,-3.2415147,-118.90488
2467000000,-3.2694068,-118.96896
2468000000,-3.2223754,-118.97524
2469000000,-3.2212155,-119.30163
2470000000,-3.2428801,-119.48534
2471000000,-3.2320063,-119.41925
2472000000,-3.2451458,-119.5582
2473000000,-3.2470498,-119.46236
2474000000,-3.2687247,-119.63143
2475000000,-3.2610664,-119.95581
2476000000,-3.2701902,-120.01855
2477000000,-3.260622,-119.89169
2478000000,-3.2293828,-120.07748
2479000000,-3.271935,-120.20448
2480000000,-3.246835,-120.18588
2481000000,-3.2679152,-120.26795
2482000000,-3.2431722,-120.47003
2483000000,-3.2464149,-120.63875
2484000000,-3.2412896,-120.58467
2485000000,-3.2513468,-120.68578
2486000000,-3.2397335,-120.66749
2487000000,-3.2477875,-120.76773
2488000000,-3.2440715,-120.88529
2489000000,-3.2453961,-121.13824
2490000000,-3.2160518,-121.09603
2491000000,-3.2530625,-121.31756
2492000000,-3.2581244,-121.25951
2493000000,-3.2524447,-121.39352
2494000000,-3.2621851,-121.38074
2495000000,-3.2523234,-121.51692
2496000000,-3.2469804,-121.7339
2497000000,-3.2545495,-121.7882
2498000000,-3.2461307,-121.78757
2499000000,-3.2289162,-121.82739
2500000000,-3.2502286,-121.96501
2501000000,-3.2430236,-122.08066
2502000000,-3.2277596,-122.38449
2503000000,-3.2497067,-122.53834
2504000000,-3.2679074,-122.36121
2505000000,-3.2501235,-122.41361
2506000000,-3.2331717,-122.61221
2507000000,-3.249501,-122.82448
2508000000,-3.2513549,-122.61123
2509000000,-3.2153041,-122.72083
2510000000,-3.2261775,-123.09445
2511000000,-3.2373238,-122.93831
2512000000,-3.2525408,-122.97433
2513000000,-3.2087522,-123.04105
2514000000,-3.2296996,-123.3415
2515000000,-3.242115,-123.28773
2516000000,-3.2270324,-123.40878
2517000000,-3.21576,-123.68332
2518000000,-3.2506881,-123.46864
2519000000,-3.2510278,-123.86485
2520000000,-3.243602,-123.75833
2521000000,-3.2186978,-123.84984
2522000000,-3.2765555,-124.00685
2523000000,-3.2238748,-124.05076
2524000000,-3.2359734,-124.20911
2525000000,-3.221081,-123.98257
2526000000,-3.2520971,-124.26492
2527000000,-3.2419643,-124.25274
2528000000,-3.2429731,-124.50211
2529000000,-3.2311759,-124.47726
2530000000,-3.2348561,-124.63532
2531000000,-3.2590563,-124.9229
2532000000,-3.2444592,-124.82111
2533000000,-3.2707,-124.91644
2534000000,-3.2539933,-124.97803
2535000000,-3.2349489,-125.25249
2536000000,-3.2522731,-125.17263
2537000000,-3.2481687,-125.18758
2538000000,-3.2272248,-125.55486
2539000000,-3.2445979,-125.57829
2540000000,-3.2399805,-125.47192
2541000000,-3.2570519,-125.69109
2542000000,-3.2321231,-125.63412
2543000000,-3.2394392,-125.78038
2544000000,-3.219629,-126.03527
2545000000,-3.251606,-126.04801
2546000000,-3.2422922,-126.07571
2547000000,-3.2763093,-126.22047
2548000000,-3.2329071,-126.26006
2549000000,-3.2468257,-126.55995
2550000000,-3.2337747,-126.28397
2551000000,-3.2447116,-126.68679
2552000000,-3.2583027,-126.79457
2553000000,-3.2164593,-126.5944
2554000000,-3.2215769,-126.65429
2555000000,-3.1889307,-126.85986
2556000000,-3.2181296,-127.15453
2557000000,-3.2350657,-126.99816
2558000000,-3.2490611,-127.07722
2559000000,-3.236702,-127.27099
2560000000,-3.2352872,-127.32895
2561000000,-3.2613409,-127.17206
2562000000,-3.240314,-127.39434
2563000000,-3.2265236,-127.80198
2564000000,-3.2631943,-127.56422
2565000000,-3.2559834,-127.91499
2566000000,-3.2571411,-127.74168
2567000000,-3.2651448,-128.18672
2568000000,-3.2337627,-127.80865
2569000000,-3.2319176,-128.25926
2570000000,-3.2202663,-128.29288
2571000000,-3.2523258,-128.20831
2572000000,-3.2598751,-128.65593
2573000000,-3.2522221,-128.64821
2574000000,-3.2244973,-128.53903
2575000000,-3.2249787,-128.52899
2576000000,-3.2522559,-128.94473
2577000000,-3.2670689,-128.90465
2578000000,-3.2523227,-128.84135
2579000000,-3.2121603,-129.01418
2580000000,-3.238591,-129.0598
2581000000,-3.2446787,-129.28596
2582000000,-3.2509873,-129.3183
2583000000,-3.222918,-129.05801
2584000000,-3.2181001,-129.6282
2585000000,-3.2349489,-129.58575
2586000000,-3.2584658,-129.66499
2587000000,-3.2380011,-129.57321
2588000000,-3.2519584,-129.87215
2589000000,-3.2564142,-130.05235
2590000000,-3.2791712,-130.08884
2591000000,-3.2486522,-130.22395
2592000000,-3.2605333,-130.19716
2593000000,-3.2413421,-130.27324
2594000000,-3.2609532,-130.35909
2595000000,-3.2432153,-130.59924
2596000000,-3.2087843,-130.37817
2597000000,-3.2328191,-130.73016
2598000000,-3.2294054,-130.76305
2599000000,-3.2856004,-131.17854
2600000000,-3.2682202,-131.01387
2601000000,-3.2388644,-131.03726
2602000000,-3.2558222,-131.23399
2603000000,-3.2484524,-131.11487
2604000000,-3.2424169,-131.36749
2605000000,-3.2784786,-131.50851
2606000000,-3.2284553,-131.46767
2607000000,-3.2748735,-131.51068
2608000000,-3.2230294,-131.69318
2609000000,-3.2736566,-131.7858
2610000000,-3.2303209,-131.80533
2611000000,-3.2317488,-131.92526
2612000000,-3.2395682,-131.93794
2613000000,-3.272646,-132.35831
2614000000,-3.2652006,-132.2001
2615000000,-3.2402132,-132.14087
2616000000,-3.2681119,-132.10405
2617000000,-3.2748241,-132.29828
2618000000,-3.3104224,-132.60493
2619000000,-3.2857203,-132.50392
2620000000,-3.2307396,-132.76736
2621000000,-3.254915,-132.86284
2622000000,-3.2858875,-132.96237
2623000000,-3.2486663,-132.89836
2624000000,-3.243067,-132.89531
2625000000,-3.2956064,-133.15346
2626000000,-3.2355804,-133.1498
2627000000,-3.2332227,-133.21747
2628000000,-3.2530026,-133.39546
2629000000,-3.2333465,-133.28871
2630000000,-3.2890384,-133.56825
2631000000,-3.2529805,-133.70998
2632000000,-3.2880926,-133.55098
2633000000,-3.3042059,-133.85767
2634000000,-3.2714314,-133.94177
2635000000,-3.2534122,-133.98544
2636000000,-3.2386868,-134.43578
2637000000,-3.2884278,-134.33894
2638000000,-3.2663219,-134.27222
2639000000,-3.2679627,-134.31429
2640000000,-3.2780247,-134.51692
2641000000,-3.3000777,-134.63412
2642000000,-3.2895381,-134.8343
2643000000,-3.2692392,-134.85153
2644000000,-3.2682929,-134.69612
2645000000,-3.2732544,-134.98837
2646000000,-3.2985706,-134.98587
2647000000,-3.2987294,-135.1573
2648000000,-3.249413,-135.07848
2649000000,-3.308363,-135.30882
2650000000,-3.289222,-135.36536
2651000000,-3.2877018,-135.47086
2652000000,-3.2562931,-135.56343
2653000000,-3.2816212,-135.73355
2654000000,-3.2832265,-135.83212
2655000000,-3.2687454,-135.75441
2656000000,-3.2961562,-135.98846
2657000000,-3.2975576,-136.06668
2658000000,-3.3022332,-136.12936
2659000000,-3.2642615,-136.05717
2660000000,-3.3467972,-136.20921
2661000000,-3.3024089,-136.34842
2662000000,-3.3292193,-136.40457
2663000000,-3.2920339,-136.56078
2664000000,-3.2999499,-136.63075
2665000000,-3.2932422,-136.64136
2666000000,-3.298975,-136.83313
2667000000,-3.2798111,-137.06464
2668000000,-3.2851267,-137.15054
2669000000,-3.323837,-136.94409
2670000000,-3.2797384,-137.1563
2671000000,-3.3328311,-137.34543
2672000000,-3.2535076,-137.28758
2673000000,-3.3142145,-137.40015
2674000000,-3.328202,-137.66029
2675000000,-3.2954779,-137.5959
2676000000,-3.2921381,-137.65808
2677000000,-3.3007724,-137.702
2678000000,-3.3129153,-137.75876
2679000000,-3.2910044,-138.00137
2680000000,-3.309164,-137.87447
2681000000,-3.3083072,-138.09064
2682000000,-3.3237512,-138.16592
2683000000,-3.3677566,-138.30881
2684000000,-3.3098357,-138.5489
2685000000,-3.2993782,-138.63036
2686000000,-3.3322747,-138.4527
2687000000,-3.3455141,-138.81339
2688000000,-3.3454454,-138.79395
2689000000,-3.3608243,-138.84128
2690000000,-3.3713138,-138.9259
2691000000,-3.3019004,-139.265
2692000000,-3.3028905,-139.23235
2693000000,-3.3478715,-139.11333
2694000000,-3.2916572,-139.23474
2695000000,-3.338583,-139.30225
2696000000,-3.3533397,-139.63853
2697000000,-3.3576229,-139.54001
2698000000,-3.3307297,-139.73882
2699000000,-3.3738217,-139.67133
2700000000,-3.3580396,-139.84145
2701000000,-3.3498461,-139.92404
2702000000,-3.3049285,-140.0542
2703000000,-3.3278236,-140.16792
2704000000,-3.3460777,-140.13437
2705000000,-3.324795,-140.21217
2706000000,-3.3349135,-140.12746
2707000000,-3.3435802,-140.47762
2708000000,-3.3419132,-140.51659
2709000000,-3.3236949,-140.84142
2710000000,-3.3604553,-140.84082
2711000000,-3.3540146,-140.74599
2712000000,-3.3428156,-140.90459
2713000000,-3.3267798,-140.98412
2714000000,-3.3622501,-141.14191
2715000000,-3.3635011,-141.10716
2716000000,-3.3679619,-141.44211
2717000000,-3.3795259,-141.19191
2718000000,-3.3618982,-141.38837
2719000000,-3.3524864,-141.76353
2720000000,-3.3870175,-141.52838
2721000000,-3.3604045,-141.85318
2722000000,-3.3588345,-141.83582
2723000000,-3.3746333,-141.89227
2724000000,-3.3531084,-141.84837
2725000000,-3.3807352,-141.9817
2726000000,-3.3908288,-142.2066
2727000000,-3.3778486,-142.28355
2728000000,-3.3920348,-142.19031
2729000000,-3.3743567,-142.46098
2730000000,-3.3598769,-142.42091
2731000000,-3.3838077,-142.66125
2732000000,-3.3613977,-142.83191
2733000000,-3.4168129,-142.9062
2734000000,-3.3704758,-142.91072
2735000000,-3.3822584,-143.13219
2736000000,-3.4101148,-142.98422
2737000000,-3.373023,-143.06303
2738000000,-3.4181993,-143.15366
2739000000,-3.3579767,-143.4472
2740000000,-3.3848069,-143.44167
2741000000,-3.3933215,-143.29982
2742000000,-3.3989227,-143.32233
2743000000,-3.3723488,-143.73097
2744000000,-3.3839815,-143.81325
2745000000,-3.3655591,-143.6452
2746000000,-3.4264493,-144.00957
2747000000,-3.3915339,-143.98146
2748000000,-3.4084506,-144.18726
2749000000,-3.4279633,-144.18295
2750000000,-3.3995016,-144.31215
2751000000,-3.4120305,-144.65005
2752000000,-3.4078152,-144.56273
2753000000,-3.4179568,-144.33492
2754000000,-3.3989193,-144.73277
2755000000,-3.4286058,-144.75197
2756000000,-3.436851,-144.66469
2757000000,-3.4106274,-144.96123
2758000000,-3.4175537,-145.07661
2759000000,-3.4214828,-145.18636
2760000000,-3.4174376,-145.0522
2761000000,-3.4392951,-145.45885
2762000000,-3.4475868,-145.43538
2763000000,-3.437016,-145.62672
2764000000,-3.4462609,-145.46065
2765000000,-3.4387734,-145.64926
2766000000,-3.3964417,-145.84894
2767000000,-3.4072752,-145.93457
2768000000,-3.4344819,-146.01801
2769000000,-3.422107,-146.04604
2770000000,-3.4465692,-146.07712
2771000000,-3.4703403,-146.30269
2772000000,-3.461503,-146.30951
2773000000,-3.4633071,-146.12286
2774000000,-3.451251,-146.57285
2775000000,-3.4207861,-146.37555
2776000000,-3.4733613,-146.68938
2777000000,-3.4723504,-146.8653
2778000000,-3.4883976,-146.79614
2779000000,-3.4546885,-146.83095
2780000000,-3.4570272,-147.06447
2781000000,-3.4901233,-147.16928
2782000000,-3.467711,-147.1263
2783000000,-3.5020778,-147.12309
2784000000,-3.4728112,-147.39708
2785000000,-3.4855545,-147.44182
2786000000,-3.4347126,-147.51201
2787000000,-3.4996235,-147.61632
2788000000,-3.4798989,-147.67657
2789000000,-3.4596276,-147.81535
2790000000,-3.4653249,-148.05869
2791000000,-3.469841,-147.90012
2792000000,-3.4500329,-148.01665
2793000000,-3.4808004,-148.27075
2794000000,-3.4788523,-148.24933
2795000000,-3.474237,-148.41331
2796000000,-3.480741,-148.36862
2797000000,-3.4710112,-148.61287
2798000000,-3.5144372,-148.59181
2799000000,-3.4770012,-148.51776
2800000000,-3.5297465,-148.83885
2801000000,-3.5148168,-148.85066
2802000000,-3.495986,-149.11343
2803000000,-3.4988732,-149.00642
2804000000,-3.5270355,-149.09186
2805000000,-3.5326543,-149.22789
2806000000,-3.5464699,-149.31026
2807000000,-3.5439312,-149.46985
2808000000,-3.5115128,-149.4167
2809000000,-3.5161529,-149.58716
2810000000,-3.5068107,-149.82701
2811000000,-3.5257673,-149.84579
2812000000,-3.5243316,-149.98993
2813000000,-3.5517957,-150.0538
2814000000,-3.5152211,-149.91566
2815000000,-3.5155773,-150.23752
2816000000,-3.5305555,-150.07851
2817000000,-3.503495,-150.36794
2818000000,-3.5492263,-150.07829
2819000000,-3.5156965,-150.27963
2820000000,-3.557018,-150.62769
2821000000,-3.5407529,-150.57266
2822000000,-3.5406451,-150.77641
2823000000,-3.5417893,-150.9776
2824000000,-3.5589631,-150.99156
2825000000,-3.5157211,-150.96654
2826000000,-3.5380182,-151.14552
2827000000,-3.5709543,-151.22478
2828000000,-3.5405185,-151.27061
2829000000,-3.5569715,-151.21814
2830000000,-3.5505776,-151.45938
2831000000,-3.5577824,-151.78766
2832000000,-3.5460646,-151.79692
2833000000,-3.5721908,-151.6312
2834000000,-3.5683069,-151.61407
2835000000,-3.5617146,-151.85063
2836000000,-3.5714905,-152.06763
2837000000,-3.5740364,-152.03549
2838000000,-3.5736535,-152.07053
2839000000,-3.5952487,-152.3624
2840000000,-3.5941415,-152.20682
2841000000,-3.5879641,-152.4528
2842000000,-3.5771468,-152.70705
2843000000,-3.5641124,-152.48102
2844000000,-3.5967126,-152.76744
2845000000,-3.5943909,-152.94771
2846000000,-3.5967774,-152.86935
2847000000,-3.598748,-153.17897
2848000000,-3.589267,-153.07573
2849000000,-3.6164165,-153.23001
2850000000,-3.6017311,-153.16672
2851000000,-3.6004095,-153.38617
2852000000,-3.61059,-153.45966
2853000000,-3.6095843,-153.65288
2854000000,-3.6194363,-153.86407
2855000000,-3.6445634,-153.85246
2856000000,-3.6222506,-153.79332
2857000000,-3.6237423,-153.88358
2858000000,-3.6380985,-154.06387
2859000000,-3.6083117,-154.12566
2860000000,-3.6270361,-154.28137
2861000000,-3.6313033,-154.15843
2862000000,-3.6244452,-154.27567
2863000000,-3.6456861,-154.3976
2864000000,-3.6504862,-154.42148
2865000000,-3.619122,-154.45442
2866000000,-3.6199319,-154.82413
2867000000,-3.6520739,-154.75046
2868000000,-3.6359122,-155.20197
2869000000,-3.6576478,-155.21999
2870000000,-3.6348829,-155.08704
2871000000,-3.6962385,-155.1571
2872000000,-3.6568758,-155.34631
2873000000,-3.6342928,-155.4501
2874000000,-3.6565993,-155.51031
2875000000,-3.6710587,-155.44456
2876000000,-3.6703966,-155.58354
2877000000,-3.6904926,-155.59117
2878000000,-3.6742029,-155.82956
2879000000,-3.6859701,-156.0648
2880000000,-3.7128954,-156.19031
2881000000,-3.6821229,-156.05724
2882000000,-3.6728382,-156.21936
2883000000,-3.7071662,-156.17569
2884000000,-3.708627,-156.3107
2885000000,-3.6889069,-156.64436
2886000000,-3.7010469,-156.767
2887000000,-3.695205,-156.69209
2888000000,-3.7371387,-156.94817
2889000000,-3.6940591,-156.84987
2890000000,-3.7006741,-156.86201
2891000000,-3.7151718,-156.94583
2892000000,-3.7051194,-157.21295
2893000000,-3.7026062,-157.13472
2894000000,-3.7342207,-157.21529
2895000000,-3.7172213,-157.31313
2896000000,-3.7444785,-157.48465
2897000000,-3.7184625,-157.57675
2898000000,-3.7387514,-157.55409
2899000000,-3.6933107,-157.65656
2900000000,-3.735074,-157.90663
2901000000,-3.7303834,-158.0898
2902000000,-3.7476857,-157.96715
2903000000,-3.7709723,-158.16399
2904000000,-3.7461891,-158.20898
2905000000,-3.7285352,-158.27188
2906000000,-3.7452588,-158.39149
2907000000,-3.7725544,-158.6452
2908000000,-3.7818987,-158.53476
2909000000,-3.779984,-158.52098
2910000000,-3.7779253,-158.8922
2911000000,-3.7743158,-158.93585
2912000000,-3.7846725,-159.0114
2913000000,-3.7719297,-158.9301
2914000000,-3.7515666,-159.05128
2915000000,-3.7836263,-159.12366
2916000000,-3.7961602,-159.49719
2917000000,-3.7851093,-159.31093
2918000000,-3.8107491,-159.4873
2919000000,-3.7974892,-159.71724
2920000000,-3.7737021,-159.68008
2921000000,-3.7762592,-159.72586
2922000000,-3.8218379,-159.77742
2923000000,-3.7871029,-159.89203
2924000000,-3.7998796,-160.0731
2925000000,-3.8421652,-160.12976
2926000000,-3.8291304,-160.16272
2927000000,-3.8275368,-160.468
2928000000,-3.8521454,-160.53825
2929000000,-3.8463104,-160.61861
2930000000,-3.840605,-160.50789
2931000000,-3.8528755,-160.74934
2932000000,-3.8397193,-160.75713
2933000000,-3.8567917,-160.82858
2934000000,-3.8119841,-161.02139
2935000000,-3.8605232,-161.19272
2936000000,-3.840569,-161.17207
2937000000,-3.8503473,-161.30377
2938000000,-3.8597713,-161.05632
2939000000,-3.8676128,-161.48914
2940000000,-3.9033034,-161.40788
2941000000,-3.8640831,-161.50177
2942000000,-3.9063175,-161.83493
2943000000,-3.8894877,-161.86063
2944000000,-3.8567011,-161.7852
2945000000,-3.8833165,-162.16867
2946000000,-3.9053733,-162.15498
2947000000,-3.8747344,-162.18567
2948000000,-3.9075127,-162.375
2949000000,-3.9011443,-162.37973
2950000000,-3.8915677,-162.67709
2951000000,-3.9613159,-162.45262
2952000000,-3.9521787,-162.59959
2953000000,-3.90907,-162.77435
2954000000,-3.9436245,-162.93423
2955000000,-3.9639058,-162.97581
2956000000,-3.9231369,-162.91385
2957000000,-3.9311259,-163.3425
2958000000,-3.936801,-163.15974
2959000000,-3.9478452,-163.30377
2960000000,-3.941792,-163.36032
2961000000,-3.9365606,-163.61559
2962000000,-3.9625299,-163.55122
2963000000,-3.9430625,-163.67563
2964000000,-3.9480143,-163.80417
2965000000,-3.9836469,-163.91325
2966000000,-3.9374385,-163.72296
2967000000,-3.9716918,-163.92914
2968000000,-3.9771235,-164.24019
2969000000,-3.9780536,-164.34232
2970000000,-4.0162721,-164.43092
2971000000,-3.9809179,-164.43066
2972000000,-3.9741497,-164.44778
2973000000,-3.9733663,-164.65195
2974000000,-3.9868319,-164.94165
2975000000,-4.0140476,-164.74409
2976000000,-3.9960158,-164.90804
2977000000,-4.0179491,-164.98161
2978000000,-4.0189109,-165.15677
2979000000,-4.0156741,-165.36922
2980000000,-4.0029984,-165.26289
2981000000,-4.0181723,-165.39185
2982000000,-4.0239673,-165.5945
2983000000,-4.0278196,-165.62717
2984000000,-4.0147595,-165.6777
2985000000,-4.0414076,-165.93144
2986000000,-4.0470619,-165.88858
2987000000,-4.0685587,-166.02264
2988000000,-4.0428171,-166.07401
2989000000,-4.0507245,-166.265
2990000000,-4.0603375,-166.26436
2991000000,-4.0477295,-166.23264
2992000000,-4.0668492,-166.47231
2993000000,-4.0885811,-166.56697
2994000000,-4.0932717,-166.55246
2995000000,-4.1150012,-166.7849
2996000000,-4.0857821,-166.94095
2997000000,-4.0957961,-167.14311
2998000000,-4.0851493,-167.09521
2999000000,-4.1260161,-167.07571
3000000000,-4.1312251,-167.17894
3001000000,-4.1255403,-167.24402
3002000000,-4.1338878,-167.34268
3003000000,-4.1205683,-167.49751
3004000000,-4.1429734,-167.57413
3005000000,-4.1461186,-167.6907
3006000000,-4.1537848,-167.76906
3007000000,-4.1379995,-167.84323
3008000000,-4.1670356,-167.99684
3009000000,-4.1647596,-168.05171
3010000000,-4.1810908,-168.17537
3011000000,-4.1619272,-168.18353
3012000000,-4.1484656,-168.25809
3013000000,-4.2078681,-168.47772
3014000000,-4.1843204,-168.64894
3015000000,-4.1866803,-168.4084
3016000000,-4.1993685,-168.73692
3017000000,-4.2170749,-168.95004
3018000000,-4.2174811,-169.15968
3019000000,-4.24017,-169.01982
3020000000,-4.1942945,-169.07689
3021000000,-4.2226629,-169.17978
3022000000,-4.232626,-169.47723
3023000000,-4.2217484,-169.41731
3024000000,-4.2270603,-169.50282
3025000000,-4.2524748,-169.64966
3026000000,-4.2727442,-169.78316
3027000000,-4.2510338,-169.58377
3028000000,-4.2550106,-169.84193
3029000000,-4.2384152,-169.88608
3030000000,-4.2596698,-170.18922
3031000000,-4.2486329,-170.295
3032000000,-4.2968554,-170.41151
3033000000,-4.2758179,-170.34523
3034000000,-4.2813883,-170.4957
3035000000,-4.2671323,-170.46523
3036000000,-4.2944951,-170.34024
3037000000,-4.3090677,-170.91397
3038000000,-4.3311915,-170.72684
3039000000,-4.2898154,-170.96294
3040000000,-4.3164401,-171.16795
3041000000,-4.3219342,-170.98041
3042000000,-4.3438087,-171.05624
3043000000,-4.3446007,-171.35663
3044000000,-4.346693,-171.36275
3045000000,-4.3403244,-171.30954
3046000000,-4.3499937,-171.74332
3047000000,-4.3847218,-171.82082
3048000000,-4.339273,-171.97112
3049000000,-4.3558016,-171.93523
3050000000,-4.3615813,-171.8705
3051000000,-4.3992324,-172.0899
3052000000,-4.3943868,-172.13232
3053000000,-4.4002123,-172.12494
3054000000,-4.3929343,-172.5542
3055000000,-4.3896999,-172.34419
3056000000,-4.4288425,-172.54053
3057000000,-4.4394379,-172.48514
3058000000,-4.4319048,-172.79198
3059000000,-4.4016509,-172.71507
3060000000,-4.4558363,-172.76318
3061000000,-4.4287705,-173.0276
3062000000,-4.4813895,-173.11783
3063000000,-4.459877,-173.10756
3064000000,-4.4485526,-173.17427
3065000000,-4.4676633,-173.51945
3066000000,-4.4542298,-173.44772
3067000000,-4.486012,-173.34583
3068000000,-4.4873304,-173.6553
3069000000,-4.5223403,-173.71005
3070000000,-4.5150347,-173.88272
3071000000,-4.5124259,-173.8405
3072000000,-4.5357981,-174.02289
3073000000,-4.524158,-174.04419
3074000000,-4.5217767,-174.04688
3075000000,-4.5167713,-174.2316
3076000000,-4.5366645,-174.53052
3077000000,-4.552165,-174.53419
3078000000,-4.5660801,-174.55824
3079000000,-4.5592589,-174.67719
3080000000,-4.5517387,-174.78894
3081000000,-4.5623794,-174.99573
3082000000,-4.5986753,-175.07344
3083000000,-4.5842071,-175.08557
3084000000,-4.5750299,-175.00671
3085000000,-4.6311579,-175.0472
3086000000,-4.5681515,-175.4838
3087000000,-4.6134868,-175.38901
3088000000,-4.6475878,-175.3889
3089000000,-4.6175556,-175.44389
3090000000,-4.6296697,-175.8618
3091000000,-4.6455655,-175.94264
3092000000,-4.6324482,-175.99318
3093000000,-4.6550012,-176.1554
3094000000,-4.6216259,-176.16107
3095000000,-4.6624122,-176.36476
3096000000,-4.6840253,-176.32974
3097000000,-4.6602588,-176.57339
3098000000,-4.6912804,-176.34122
3099000000,-4.6899962,-176.53668
3100000000,-4.7105417,-176.73967
3101000000,-4.7301331,-176.77583
3102000000,-4.7129769,-176.8439
3103000000,-4.7170811,-176.87022
3104000000,-4.7411351,-177.20207
3105000000,-4.7131343,-177.14815
3106000000,-4.7425127,-177.34084
3107000000,-4.7460327,-177.32466
3108000000,-4.7447348,-177.51721
3109000000,-4.7511401,-177.42
3110000000,-4.7784185,-177.51236
3111000000,-4.7909908,-177.6954
3112000000,-4.7601037,-177.81857
3113000000,-4.8361659,-177.88997
3114000000,-4.7635198,-178.14281
3115000000,-4.8088174,-178.05144
3116000000,-4.7962666,-178.21045
3117000000,-4.817451,-178.15205
3118000000,-4.8644047,-178.49318
3119000000,-4.8080459,-178.28049
3120000000,-4.83462,-178.52736
3121000000,-4.8541141,-178.53015
3122000000,-4.8684926,-178.67621
3123000000,-4.8561716,-178.93268
3124000000,-4.8586164,-178.87155
3125000000,-4.8795748,-179.05879
3126000000,-4.902741,-179.28194
3127000000,-4.9159069,-179.28363
3128000000,-4.9349518,-179.2861
3129000000,-4.95471,-179.47256
3130000000,-4.9110818,-179.62064
3131000000,-4.9310012,-179.72575
3132000000,-4.9457097,-179.71527
3133000000,-4.9651995,-179.71338
3134000000,-4.9482989,-179.96852
3135000000,-4.9550891,-180.19466
3136000000,-4.9698668,-180.14691
3137000000,-4.9566827,-180.1299
3138000000,-4.9775238,-180.19189
3139000000,-4.970468,-180.48457
3140000000,-4.9977336,-180.47337
3141000000,-5.0286245,-180.43192
3142000000,-4.9891548,-180.57045
3143000000,-5.0151653,-180.82056
3144000000,-5.0440145,-180.95598
3145000000,-5.0622354,-180.92813
3146000000,-5.036293,-181.04077
3147000000,-5.0351195,-181.14665
3148000000,-5.0820537,-180.97458
3149000000,-5.07653,-181.22142
3150000000,-5.0654693,-181.4312
3151000000,-5.1051049,-181.63249
3152000000,-5.1457334,-181.48938
3153000000,-5.1331773,-181.74432
3154000000,-5.1328468,-181.7753
3155000000,-5.1377649,-181.79039
3156000000,-5.1562939,-181.66527
3157000000,-5.1724777,-182.24011
3158000000,-5.2061305,-182.1387
3159000000,-5.1728005,-182.05589
3160000000,-5.2116675,-182.38739
3161000000,-5.2026672,-182.29608
3162000000,-5.1955609,-182.57716
3163000000,-5.2010803,-182.72316
3164000000,-5.2396946,-182.66792
3165000000,-5.2388563,-182.79811
3166000000,-5.24541,-183.01849
3167000000,-5.2946324,-182.85074
3168000000,-5.2466011,-183.10655
3169000000,-5.2682295,-183.1274
3170000000,-5.2591047,-183.2876
3171000000,-5.2812781,-183.31706
3172000000,-5.2768335,-183.22475
3173000000,-5.280005,-183.58131
3174000000,-5.3318734,-183.62534
3175000000,-5.3063049,-183.64035
3176000000,-5.3491349,-183.89775
3177000000,-5.3244309,-183.95363
3178000000,-5.3589864,-184.01073
3179000000,-5.3535829,-184.09657
3180000000,-5.3671741,-183.97462
3181000000,-5.3845568,-184.24713
3182000000,-5.3940797,-184.34351
3183000000,-5.4121141,-184.42934
3184000000,-5.4109912,-184.37398
3185000000,-5.426723,-184.60216
3186000000,-5.4293995,-184.50937
3187000000,-5.4263606,-184.88329
3188000000,-5.4549217,-184.76083
3189000000,-5.4542379,-184.95056
3190000000,-5.4877076,-185.03247
3191000000,-5.5154939,-185.4005
3192000000,-5.5251079,-185.09953
3193000000,-5.5233445,-185.40196
3194000000,-5.5157561,-185.38065
3195000000,-5.5399723,-185.47978
3196000000,-5.5416794,-185.73329
3197000000,-5.5562577,-185.68849
3198000000,-5.5432162,-185.60426
3199000000,-5.5699759,-185.63808
3200000000,-5.5416875,-185.99205
3201000000,-5.5778098,-186.0032
3202000000,-5.5794973,-186.14224
3203000000,-5.6061621,-186.17105
3204000000,-5.5873623,-186.37956
3205000000,-5.6564946,-186.31882
3206000000,-5.653605,-186.5125
3207000000,-5.6668863,-186.4666
3208000000,-5.6324553,-186.46205
3209000000,-5.6679792,-186.70377
3210000000,-5.6697149,-186.67465
3211000000,-5.6937499,-186.73425
3212000000,-5.7081509,-186.91473
3213000000,-5.7573557,-187.08566
3214000000,-5.7050629,-187.20177
3215000000,-5.725275,-187.26204
3216000000,-5.7205162,-187.4388
3217000000,-5.7627649,-187.48383
3218000000,-5.7903109,-187.43187
3219000000,-5.7469878,-187.59479
3220000000,-5.7744355,-187.61357
3221000000,-5.7790084,-187.78314
3222000000,-5.8330736,-187.76114
3223000000,-5.8193164,-187.94728
3224000000,-5.8433366,-187.91258
3225000000,-5.83846,-188.09926
3226000000,-5.8685918,-188.24109
3227000000,-5.8704214,-188.15027
3228000000,-5.9039083,-188.41037
3229000000,-5.8970437,-188.64499
3230000000,-5.9121199,-188.47238
3231000000,-5.9112015,-188.64282
3232000000,-5.9236417,-188.6922
3233000000,-5.9586053,-188.85193
3234000000,-5.9251623,-189.06189
3235000000,-5.9954381,-188.83742
3236000000,-6.0009151,-188.93954
3237000000,-5.989409,-188.88591
3238000000,-5.9986653,-189.25894
3239000000,-6.0593843,-189.23521
3240000000,-6.0371113,-189.28874
3241000000,-6.0953946,-189.48692
3242000000,-6.0438013,-189.64191
3243000000,-6.0720749,-189.63353
3244000000,-6.0987453,-189.54321
3245000000,-6.1134887,-189.73009
3246000000,-6.1441455,-189.53255
3247000000,-6.145164,-189.69444
3248000000,-6.1704068,-189.99986
3249000000,-6.1464491,-190.01979
3250000000,-6.177609,-190.10135
3251000000,-6.1754408,-190.28674
3252000000,-6.2068324,-190.31526
3253000000,-6.2181005,-190.36188
3254000000,-6.2333512,-190.27283
3255000000,-6.2463636,-190.35478
3256000000,-6.2829208,-190.48888
3257000000,-6.2560673,-190.65204
3258000000,-6.2836123,-190.80168
3259000000,-6.3056459,-190.63432
3260000000,-6.2910542,-191.06587
3261000000,-6.3175116,-190.95126
3262000000,-6.2997851,-190.87885
3263000000,-6.3738618,-191.15846
3264000000,-6.3702235,-191.25021
3265000000,-6.3480468,-191.26022
3266000000,-6.3890781,-191.26888
3267000000,-6.3956203,-191.52654
3268000000,-6.4173379,-191.43692
3269000000,-6.4042311,-191.37135
3270000000,-6.4235225,-191.46898
3271000000,-6.4571819,-191.73868
3272000000,-6.4701319,-191.7565
3273000000,-6.4848871,-192.00458
3274000000,-6.4637074,-191.72238
3275000000,-6.506783,-191.92572
3276000000,-6.5208068,-192.15768
3277000000,-6.5274529,-192.41498
3278000000,-6.5619793,-192.27728
3279000000,-6.5894508,-192.29831
3280000000,-6.5948458,-192.24434
3281000000,-6.5868402,-192.41441
3282000000,-6.614696,-192.74127
3283000000,-6.5984726,-192.72571
3284000000,-6.6225257,-192.55409
3285000000,-6.6281538,-192.61369
3286000000,-6.6691957,-192.63965
3287000000,-6.6925526,-192.7699
3288000000,-6.6737809,-193.1541
3289000000,-6.7517586,-192.8826
3290000000,-6.7639999,-193.01335
3291000000,-6.7422242,-193.07883
3292000000,-6.7584043,-193.0817
3293000000,-6.7916379,-193.2547
3294000000,-6.8053885,-193.52431
3295000000,-6.8076072,-193.30093
3296000000,-6.8288417,-193.3997
3297000000,-6.8170657,-193.48705
3298000000,-6.8493814,-193.61819
3299000000,-6.891448,-193.68037
3300000000,-6.8679352,-193.88519
3301000000,-6.9127769,-193.91034
3302000000,-6.9034348,-193.6474
3303000000,-6.9329314,-193.84584
3304000000,-6.9441848,-194.03317
3305000000,-6.957562,-194.00598
3306000000,-6.9517426,-194.22011
3307000000,-6.9888926,-194.07671
3308000000,-7.0125046,-194.23396
3309000000,-7.004355,-194.15108
3310000000,-7.0305142,-194.35767
3311000000,-7.068728,-194.39059
3312000000,-7.0749989,-194.64809
3313000000,-7.1016145,-194.76736
3314000000,-7.0886111,-194.50026
3315000000,-7.1044383,-194.65471
3316000000,-7.0895686,-194.5096
3317000000,-7.134985,-194.70888
3318000000,-7.1730647,-194.80312
3319000000,-7.1969075,-194.89656
3320000000,-7.1932073,-194.53123
3321000000,-7.2434773,-194.96887
3322000000,-7.2124357,-195.03214
3323000000,-7.2545977,-195.17863
3324000000,-7.2637801,-195.00136
3325000000,-7.2901649,-195.40634
3326000000,-7.3065634,-195.42195
3327000000,-7.2785096,-195.36882
3328000000,-7.3113241,-195.17368
3329000000,-7.3177066,-195.35846
3330000000,-7.3758817,-195.23413
3331000000,-7.36724,-195.63637
3332000000,-7.4091897,-195.4968
3333000000,-7.4313765,-195.75238
3334000000,-7.467608,-195.62849
3335000000,-7.4882159,-195.60349
3336000000,-7.4928584,-195.88469
3337000000,-7.4996843,-195.78249
3338000000,-7.5082879,-195.91885
3339000000,-7.5461917,-195.97626
3340000000,-7.5402632,-195.91931
3341000000,-7.5494375,-195.85905
3342000000,-7.5503631,-196.06595
3343000000,-7.5926743,-196.05656
3344000000,-7.5829153,-196.34067
3345000000,-7.6268811,-196.16353
3346000000,-7.6448231,-196.09146
3347000000,-7.6780558,-196.11784
3348000000,-7.6819367,-196.33238
3349000000,-7.6918035,-196.38953
3350000000,-7.7045307,-196.5031
3351000000,-7.7468348,-196.33395
3352000000,-7.731781,-196.53178
3353000000,-7.7346148,-196.59831
3354000000,-7.7811723,-196.57887
3355000000,-7.8176937,-196.5928
3356000000,-7.8028722,-196.55962
3357000000,-7.8216863,-196.55559
3358000000,-7.8738327,-196.54044
3359000000,-7.901741,-196.56178
3360000000,-7.8692718,-196.67445
3361000000,-7.8791952,-196.77104
3362000000,-7.9378324,-196.87074
3363000000,-7.9561019,-197.00575
3364000000,-7.9598842,-196.74345
3365000000,-8.0194921,-196.80241
3366000000,-7.9950957,-197.02347
3367000000,-8.0155964,-196.95622
3368000000,-8.008028,-196.8143
3369000000,-8.0597172,-197.12196
3370000000,-8.0507069,-197.14423
3371000000,-8.096427,-196.99489
3372000000,-8.1194143,-197.20406
3373000000,-8.1310205,-197.14008
3374000000,-8.1349211,-197.26106
3375000000,-8.2221889,-197.04068
3376000000,-8.2005539,-197.43768
3377000000,-8.2243147,-197.06508
3378000000,-8.2198982,-197.22771
3379000000,-8.2284269,-197.15082
3380000000,-8.2530298,-197.20329
3381000000,-8.2743587,-197.16031
3382000000,-8.2735252,-197.4248
3383000000,-8.3085194,-197.45523
3384000000,-8.3333597,-197.36214
3385000000,-8.3342571,-197.33867
3386000000,-8.3688097,-197.49007
3387000000,-8.4052639,-197.44447
3388000000,-8.4459667,-197.34676
3389000000,-8.4059849,-197.53313
3390000000,-8.4402828,-197.52275
3391000000,-8.4491348,-197.46361
3392000000,-8.474781,-197.51308
3393000000,-8.4832907,-197.37634
3394000000,-8.5244513,-197.52698
3395000000,-8.534997,-197.55965
3396000000,-8.5414028,-197.37749
3397000000,-8.5630865,-197.59627
3398000000,-8.6418304,-197.58922
3399000000,-8.6187181,-197.63298
3400000000,-8.5861206,-197.71596
3401000000,-8.6321344,-197.55533
3402000000,-8.6586847,-197.39868
3403000000,-8.7159843,-197.43657
3404000000,-8.7481728,-197.73549
3405000000,-8.7286034,-197.69846
3406000000,-8.7335386,-197.56055
3407000000,-8.7598619,-197.44254
3408000000,-8.743412,-197.51976
3409000000,-8.8234568,-197.75272
3410000000,-8.8272009,-197.62135
3411000000,-8.8434057,-197.66695
3412000000,-8.8630009,-197.43842
3413000000,-8.8876829,-197.59932
3414000000,-8.9029999,-197.51297
3415000000,-8.9277744,-197.5119
3416000000,-8.9282761,-197.58096
3417000000,-8.9632998,-197.51505
3418000000,-8.9943962,-197.73172
3419000000,-9.0074196,-197.67159
3420000000,-8.9884892,-197.44994
3421000000,-9.0633945,-197.33754
3422000000,-9.0463209,-197.46761
3423000000,-9.0969667,-197.47453
3424000000,-9.0753698,-197.46738
3425000000,-9.1298132,-197.22705
3426000000,-9.1265221,-197.38124
3427000000,-9.13692,-197.40974
3428000000,-9.1543121,-197.29825
3429000000,-9.1625814,-197.44554
3430000000,-9.2089138,-197.29123
3431000000,-9.208847,-197.22702
3432000000,-9.2724123,-197.17659
3433000000,-9.2243071,-197.3141
3434000000,-9.2563715,-197.12881
3435000000,-9.3099289,-197.17668
3436000000,-9.2955284,-197.08418
3437000000,-9.3509235,-197.22643
3438000000,-9.363678,-197.11514
3439000000,-9.3723106,-197.05598
3440000000,-9.386035,-197.06474
3441000000,-9.3992367,-197.1404
3442000000,-9.4143438,-196.92697
3443000000,-9.4427776,-196.93976
3444000000,-9.4661551,-196.8119
3445000000,-9.5009823,-196.70001
3446000000,-9.5150547,-197.02222
3447000000,-9.4943295,-196.72823
3448000000,-9.5384521,-196.59599
3449000000,-9.5624065,-196.64371
3450000000,-9.577075,-196.72115
3451000000,-9.6155539,-196.6779
3452000000,-9.6322575,-196.5441
3453000000,-9.6341581,-196.66805
3454000000,-9.6334028,-196.51353
3455000000,-9.6761951,-196.41878
3456000000,-9.7084246,-196.38931
3457000000,-9.6493425,-196.27061
3458000000,-9.7207289,-196.32706
3459000000,-9.7351255,-196.27585
3460000000,-9.7308254,-196.0629
3461000000,-9.7440243,-196.2068
3462000000,-9.7932863,-196.23586
3463000000,-9.8004513,-196.09029
3464000000,-9.8099585,-195.98164
3465000000,-9.8248119,-195.79921
3466000000,-9.8903418,-195.74077
3467000000,-9.8508224,-195.82156
3468000000,-9.8862619,-195.68912
3469000000,-9.9222155,-195.7032
3470000000,-9.9256792,-195.73476
3471000000,-9.9430971,-195.68692
3472000000,-9.9374733,-195.4471
3473000000,-9.950614,-195.52095
3474000000,-9.9918604,-195.05078
3475000000,-9.9873047,-195.22491
3476000000,-10.028709,-195.39445
3477000000,-10.022073,-195.18251
3478000000,-10.049997,-195.158
3479000000,-10.072211,-194.99017
3480000000,-10.094878,-194.86784
3481000000,-10.138614,-194.95013
3482000000,-10.118503,-194.81311
3483000000,-10.147171,-194.896
3484000000,-10.165245,-194.82367
3485000000,-10.15462,-194.58444
3486000000,-10.170966,-194.55344
3487000000,-10.221648,-194.6037
3488000000,-10.20472,-194.17326
3489000000,-10.232302,-194.24037
3490000000,-10.229774,-194.28627
3491000000,-10.236944,-194.24352
3492000000,-10.293058,-193.95576
3493000000,-10.29217,-193.92059
3494000000,-10.28364,-193.65276
3495000000,-10.310938,-193.77275
3496000000,-10.312156,-193.71336
3497000000,-10.361477,-193.6433
3498000000,-10.342976,-193.64069
3499000000,-10.3425,-193.32411
3500000000,-10.335367,-193.1774
3501000000,-10.385312,-193.26089
3502000000,-10.376746,-193.01059
3503000000,-10.399196,-193.03
3504000000,-10.418619,-192.97333
3505000000,-10.433344,-192.91579
3506000000,-10.436262,-192.73094
3507000000,-10.428967,-192.49937
3508000000,-10.473166,-192.69115
3509000000,-10.477894,-192.35114
3510000000,-10.464401,-192.30449
3511000000,-10.510804,-192.28076
3512000000,-10.525016,-191.97334
3513000000,-10.526587,-192.13147
3514000000,-10.521806,-192.05783
3515000000,-10.524632,-191.70844
3516000000,-10.541896,-191.82611
3517000000,-10.529003,-191.52972
3518000000,-10.552814,-191.57776
3519000000,-10.587457,-191.72716
3520000000,-10.591354,-191.43115
3521000000,-10.619577,-191.20839
3522000000,-10.606243,-191.00047
3523000000,-10.613591,-191.07303
3524000000,-10.639006,-190.88824
3525000000,-10.64427,-190.8777
3526000000,-10.640397,-190.74281
3527000000,-10.643592,-190.51204
3528000000,-10.663642,-190.54222
3529000000,-10.698701,-190.21474
3530000000,-10.683653,-190.04167
3531000000,-10.650484,-190.30022
3532000000,-10.704598,-190.08347
3533000000,-10.716041,-189.87541
3534000000,-10.697175,-189.77711
3535000000,-10.697098,-189.6497
3536000000,-10.712541,-189.57884
3537000000,-10.736706,-189.30479
3538000000,-10.726098,-189.58118
3539000000,-10.744027,-189.52943
3540000000,-10.756886,-189.20944
3541000000,-10.703719,-189.21974
3542000000,-10.728205,-188.83015
3543000000,-10.726322,-188.63239
3544000000,-10.740568,-188.48732
3545000000,-10.726266,-188.73097
3546000000,-10.733713,-188.29512
3547000000,-10.752166,-188.35547
3548000000,-10.784637,-188.30394
3549000000,-10.766361,-188.44809
3550000000,-10.790559,-187.88474
3551000000,-10.796117,-187.91147
3552000000,-10.756184,-187.69446
3553000000,-10.763301,-187.31331
3554000000,-10.786907,-187.55237
3555000000,-10.794494,-187.64909
3556000000,-10.797386,-187.23512
3557000000,-10.795692,-187.30305
3558000000,-10.794511,-186.96423
3559000000,-10.758414,-187.10207
3560000000,-10.811569,-186.94005
3561000000,-10.748609,-186.81757
3562000000,-10.800845,-186.94688
3563000000,-10.804324,-186.69716
3564000000,-10.794462,-186.3306
3565000000,-10.772215,-186.45845
3566000000,-10.777203,-186.1593
3567000000,-10.789972,-186.38911
3568000000,-10.825302,-186.01308
3569000000,-10.797262,-185.92477
3570000000,-10.822677,-185.71957
3571000000,-10.779101,-185.66689
3572000000,-10.804102,-185.38211
3573000000,-10.81499,-185.30241
3574000000,-10.787139,-185.3421
3575000000,-10.753369,-185.3674
3576000000,-10.781272,-185.14777
3577000000,-10.801219,-184.90944
3578000000,-10.79152,-185.01244
3579000000,-10.799124,-184.76956
3580000000,-10.778329,-184.64171
3581000000,-10.773643,-184.41594
3582000000,-10.797112,-184.27728
3583000000,-10.777344,-184.2262
3584000000,-10.773471,-183.95277
3585000000,-10.752883,-184.09723
3586000000,-10.772264,-184.04207
3587000000,-10.703671,-183.84055
3588000000,-10.748991,-183.64091
3589000000,-10.723329,-183.54713
3590000000,-10.72534,-183.81488
3591000000,-10.732769,-183.36771
3592000000,-10.739192,-183.16685
3593000000,-10.708881,-183.10365
3594000000,-10.719634,-183.10687
3595000000,-10.725541,-182.94351
3596000000,-10.710217,-183.13292
3597000000,-10.703409,-182.96056
3598000000,-10.671629,-182.68622
3599000000,-10.666856,-182.66971
3600000000,-10.65324,-182.41098
3601000000,-10.658276,-182.35286
3602000000,-10.644623,-182.36497
3603000000,-10.647161,-182.46553
3604000000,-10.617691,-182.42496
3605000000,-10.672379,-182.09682
3606000000,-10.620489,-181.90849
3607000000,-10.606731,-182.10161
3608000000,-10.594446,-181.73375
3609000000,-10.586531,-181.7765
3610000000,-10.625673,-181.75453
3611000000,-10.562192,-181.46089
3612000000,-10.595275,-181.41757
3613000000,-10.532695,-181.60049
3614000000,-10.563432,-181.34853
3615000000,-10.568729,-181.37985
3616000000,-10.561385,-181.14481
3617000000,-10.537227,-180.87299
3618000000,-10.509476,-181.18016
3619000000,-10.490624,-180.9491
3620000000,-10.496119,-180.88284
3621000000,-10.503403,-180.92831
3622000000,-10.508158,-180.66646
3623000000,-10.491437,-180.70706
3624000000,-10.467481,-180.30211
3625000000,-10.479196,-180.29146
3626000000,-10.452333,-180.30737
3627000000,-10.414154,-179.86423
3628000000,-10.421729,-180.02908
3629000000,-10.405163,-179.9364
3630000000,-10.40771,-179.97343
3631000000,-10.363604,-180.0179
3632000000,-10.375159,-179.6356
3633000000,-10.346077,-179.70677
3634000000,-10.353128,-179.59848
3635000000,-10.370655,-179.63657
3636000000,-10.311626,-179.38316
3637000000,-10.338033,-179.69066
3638000000,-10.308226,-179.44057
3639000000,-10.29156,-179.23465
3640000000,-10.322588,-179.46808
3641000000,-10.281818,-179.21379
3642000000,-10.276361,-179.02692
3643000000,-10.25156,-179.10991
3644000000,-10.24618,-178.87253
3645000000,-10.20628,-178.99359
3646000000,-10.203176,-178.96223
3647000000,-10.202364,-178.78659
3648000000,-10.173577,-178.91939
3649000000,-10.176885,-178.96112
3650000000,-10.152084,-178.66586
3651000000,-10.165133,-178.64983
3652000000,-10.131465,-178.59264
3653000000,-10.120118,-178.56779
3654000000,-10.112723,-178.47926
3655000000,-10.09234,-178.44749
3656000000,-10.071916,-178.38116
3657000000,-10.069991,-178.18907
3658000000,-10.026859,-178.44032
3659000000,-10.034669,-178.39055
3660000000,-10.02924,-178.31912
3661000000,-10.033595,-178.21095
3662000000,-9.9869671,-177.95856
3663000000,-9.9678955,-178.02008
3664000000,-10.000945,-177.91289
3665000000,-9.9709883,-177.84724
3666000000,-9.9479656,-177.88499
3667000000,-9.9496279,-177.90085
3668000000,-9.9203911,-177.75772
3669000000,-9.895874,-177.70161
3670000000,-9.8982935,-177.75839
3671000000,-9.85425,-177.69398
3672000000,-9.8599186,-177.46696
3673000000,-9.8432159,-177.65076
3674000000,-9.8150673,-177.65179
3675000000,-9.7987881,-177.69623
3676000000,-9.7728291,-177.64964
3677000000,-9.7758436,-177.45886
3678000000,-9.7502441,-177.57852
3679000000,-9.7593279,-177.43596
3680000000,-9.7338724,-177.46494
3681000000,-9.7577152,-177.4592
3682000000,-9.6860046,-177.32727
3683000000,-9.678195,-177.23637
3684000000,-9.6791039,-177.43207
3685000000,-9.6687994,-177.287
3686000000,-9.6247625,-177.38437
3687000000,-9.6502714,-177.33331
3688000000,-9.613987,-177.17258
3689000000,-9.5906973,-177.25562
3690000000,-9.5859394,-177.48604
3691000000,-9.5452929,-177.08832
3692000000,-9.5766029,-177.13898
3693000000,-9.5190783,-177.2766
3694000000,-9.5282192,-177.28975
3695000000,-9.5395441,-177.25485
3696000000,-9.4641085,-177.45897
3697000000,-9.4978447,-177.21867
3698000000,-9.4867458,-177.12524
3699000000,-9.4239511,-177.15169
3700000000,-9.4236031,-177.28107
3701000000,-9.4336977,-177.03426
3702000000,-9.4353733,-177.29462
3703000000,-9.3964825,-177.06474
3704000000,-9.4048233,-177.40189
3705000000,-9.3684435,-177.10423
3706000000,-9.3380356,-176.99074
3707000000,-9.3469763,-177.17984
3708000000,-9.3332319,-177.17924
3709000000,-9.2981911,-177.01532
3710000000,-9.3223267,-176.99701
3711000000,-9.2687521,-176.94585
3712000000,-9.2659407,-177.26337
3713000000,-9.2431059,-177.16113
3714000000,-9.2489691,-177.10791
3715000000,-9.1991634,-177.26366
3716000000,-9.2070198,-176.99548
3717000000,-9.1804619,-177.18332
3718000000,-9.1697884,-177.06264
3719000000,-9.1532993,-177.1701
3720000000,-9.1367159,-177.18059
3721000000,-9.1345625,-177.03302
3722000000,-9.1163998,-177.1823
3723000000,-9.1278687,-177.19794
3724000000,-9.0804129,-177.26448
3725000000,-9.0523481,-177.22562
3726000000,-9.0490685,-177.17783
3727000000,-9.0412626,-177.22498
3728000000,-8.9913235,-177.42542
3729000000,-8.9954977,-177.37039
3730000000,-8.9908018,-177.11832
3731000000,-8.9429388,-177.27385
3732000000,-8.9722786,-177.44327
3733000000,-8.9459076,-177.22618
3734000000,-8.9598007,-177.42726
3735000000,-8.9190559,-177.242
3736000000,-8.9138632,-177.41945
3737000000,-8.9298553,-177.62222
3738000000,-8.8947477,-177.51443
3739000000,-8.8818254,-177.35893
3740000000,-8.8662176,-177.38051
3741000000,-8.8132429,-177.45085
3742000000,-8.8215971,-177.4493
3743000000,-8.8318043,-177.53488
3744000000,-8.7952309,-177.71973
3745000000,-8.7654371,-177.55183
3746000000,-8.7829924,-177.61061
3747000000,-8.7629843,-177.87753
3748000000,-8.7287045,-177.785
3749000000,-8.734026,-177.6291
3750000000,-8.7173815,-177.80002
3751000000,-8.702857,-177.82936
3752000000,-8.6670942,-177.99109
3753000000,-8.6486769,-177.86588
3754000000,-8.6568289,-177.83069
3755000000,-8.6458378,-178.04378
3756000000,-8.6442013,-177.88145
3757000000,-8.6131554,-177.93584
3758000000,-8.6397076,-177.93619
3759000000,-8.5943909,-177.96582
3760000000,-8.5703516,-178.16846
3761000000,-8.5889311,-178.07408
3762000000,-8.5716972,-178.14285
3763000000,-8.548377,-178.18442
3764000000,-8.5353403,-178.32704
3765000000,-8.4999485,-178.12137
3766000000,-8.4832573,-178.23062
3767000000,-8.4788113,-178.17984
3768000000,-8.4551716,-178.51089
3769000000,-8.4254971,-178.53639
3770000000,-8.436656,-178.66373
3771000000,-8.4524908,-178.31705
3772000000,-8.4257603,-178.67006
3773000000,-8.4094448,-178.54013
3774000000,-8.405097,-178.69089
3775000000,-8.4004488,-178.99162
3776000000,-8.3498077,-178.72469
3777000000,-8.3446102,-178.75206
3778000000,-8.3756952,-179.03423
3779000000,-8.3261948,-179.01141
3780000000,-8.3173714,-179.13226
3781000000,-8.3295174,-179.10718
3782000000,-8.2977762,-178.88805
3783000000,-8.3045416,-179.02571
3784000000,-8.2816191,-179.05304
3785000000,-8.2259216,-179.18217
3786000000,-8.2396355,-179.29774
3787000000,-8.2545118,-179.1032
3788000000,-8.2287302,-179.43726
3789000000,-8.2097015,-179.38318
3790000000,-8.2199965,-179.2758
3791000000,-8.1805973,-179.44102
3792000000,-8.1982307,-179.5891
3793000000,-8.1628656,-179.44638
3794000000,-8.1603775,-179.49998
3795000000,-8.1680679,-179.64035
3796000000,-8.1567678,-179.83589
3797000000,-8.1426401,-179.56696
3798000000,-8.0761452,-179.6404
3799000000,-8.0971966,-179.81479
3800000000,-8.0525198,-179.85291
3801000000,-8.0538197,-179.87274
3802000000,-8.0702963,-180.1049
3803000000,-8.0422058,-180.05281
3804000000,-8.0259504,-180.08398
3805000000,-8.0293722,-180.1516
3806000000,-8.0091562,-180.22838
3807000000,-8.0196657,-180.29073
3808000000,-7.9898171,-180.39284
3809000000,-7.9518933,-180.41988
3810000000,-7.9564028,-180.56848
3811000000,-7.9330258,-180.73532
3812000000,-7.9127059,-180.63002
3813000000,-7.9384341,-180.49718
3814000000,-7.9058046,-180.93575
3815000000,-7.9081516,-180.70857
3816000000,-7.9031448,-181.00343
3817000000,-7.8992639,-181.10229
3818000000,-7.9094386,-180.91553
3819000000,-7.88307,-180.96475
3820000000,-7.8615603,-181.31165
3821000000,-7.8495016,-181.21393
3822000000,-7.860229,-181.14064
3823000000,-7.8654637,-181.3214
3824000000,-7.8284802,-181.47601
3825000000,-7.8150892,-181.3875
3826000000,-7.8012562,-181.55919
3827000000,-7.782773,-181.43773
3828000000,-7.7749181,-181.52254
3829000000,-7.7580414,-181.79308
3830000000,-7.7798319,-181.79716
3831000000,-7.7613587,-181.92545
3832000000,-7.7325783,-181.85925
3833000000,-7.7346745,-181.84895
3834000000,-7.7054291,-181.91466
3835000000,-7.7093172,-182.05492
3836000000,-7.7330012,-182.18875
3837000000,-7.6921353,-182.11195
3838000000,-7.6650143,-182.02242
3839000000,-7.6822433,-182.52666
3840000000,-7.6301789,-182.37823
3841000000,-7.6539917,-182.64934
3842000000,-7.6545458,-182.53427
3843000000,-7.6592779,-182.68391
3844000000,-7.6475511,-182.63777
3845000000,-7.6347165,-182.7805
3846000000,-7.6169491,-182.91074
3847000000,-7.5968232,-182.95416
3848000000,-7.5739202,-182.99881
3849000000,-7.5512729,-182.98509
3850000000,-7.5677342,-183.07927
3851000000,-7.5719762,-183.13673
3852000000,-7.5418377,-183.31836
3853000000,-7.5630693,-183.43633
3854000000,-7.5373259,-183.48424
3855000000,-7.5250206,-183.37718
3856000000,-7.5168381,-183.49576
3857000000,-7.5377088,-183.67207
3858000000,-7.5011735,-183.74617
3859000000,-7.5230708,-183.68254
3860000000,-7.4940429,-183.88289
3861000000,-7.4816489,-184.01208
3862000000,-7.4724808,-183.99277
3863000000,-7.4695182,-183.9904
3864000000,-7.4643259,-184.10985
3865000000,-7.4660888,-184.13002
3866000000,-7.4146185,-184.32959
3867000000,-7.4411473,-184.27963
3868000000,-7.437655,-184.40334
3869000000,-7.4273238,-184.85225
3870000000,-7.406496,-184.5089
3871000000,-7.427206,-184.5554
3872000000,-7.4085307,-184.66641
3873000000,-7.4041696,-184.55551
3874000000,-7.3944221,-184.85587
3875000000,-7.4081869,-185.01414
3876000000,-7.3707175,-185.02432
3877000000,-7.3410344,-184.89911
3878000000,-7.3908982,-185.15909
3879000000,-7.3230782,-185.21786
3880000000,-7.3466406,-185.4081
3881000000,-7.3519282,-185.45833
3882000000,-7.329597,-185.35573
3883000000,-7.3219118,-185.49245
3884000000,-7.3198767,-185.66801
3885000000,-7.3317394,-185.71414
3886000000,-7.3163958,-185.70447
3887000000,-7.317234,-185.69197
3888000000,-7.2833619,-185.97235
3889000000,-7.2843275,-185.95723
3890000000,-7.2559094,-185.87866
3891000000,-7.2822614,-186.08171
3892000000,-7.2567267,-186.07843
3893000000,-7.2557726,-186.34314
3894000000,-7.2276554,-186.25157
3895000000,-7.252316,-186.46098
3896000000,-7.2479758,-186.50237
3897000000,-7.2308254,-186.53688
3898000000,-7.2313752,-186.59676
3899000000,-7.215714,-186.78848
3900000000,-7.2164845,-186.68028
3901000000,-7.223208,-186.93576
3902000000,-7.1988468,-186.8979
3903000000,-7.2131581,-187.10155
3904000000,-7.1949525,-187.09068
3905000000,-7.1593976,-187.39641
3906000000,-7.1732564,-187.12531
3907000000,-7.1877208,-187.23367
3908000000,-7.182992,-187.43243
3909000000,-7.1600447,-187.45317
3910000000,-7.1432161,-187.70081
3911000000,-7.16044,-187.6021
3912000000,-7.135386,-187.81383
3913000000,-7.1366334,-187.71434
3914000000,-7.1264429,-187.85738
3915000000,-7.1334057,-187.91168
3916000000,-7.1218195,-188.0069
3917000000,-7.0940042,-188.02898
3918000000,-7.1027446,-187.92433
3919000000,-7.1144209,-188.21483
3920000000,-7.1084142,-188.39143
3921000000,-7.0824943,-188.215
3922000000,-7.0749683,-188.47983
3923000000,-7.0700951,-188.38646
3924000000,-7.0637817,-188.42969
3925000000,-7.1029105,-188.45099
3926000000,-7.0770359,-188.87009
3927000000,-7.0976133,-188.9147
3928000000,-7.0537076,-188.62398
3929000000,-7.0455551,-188.80017
3930000000,-7.0622282,-188.93402
3931000000,-7.0561099,-189.01915
3932000000,-7.0326543,-189.14423
3933000000,-7.0216832,-189.31595
3934000000,-7.0457492,-189.12927
3935000000,-7.0100136,-189.27637
3936000000,-7.0092521,-189.47482
3937000000,-7.001586,-189.73338
3938000000,-6.98172,-189.81958
3939000000,-7.04633,-189.73897
3940000000,-7.0072045,-190.04581
3941000000,-7.0186377,-189.86282
3942000000,-6.9805775,-189.83124
3943000000,-6.9989018,-190.12074
3944000000,-6.9852014,-190.16261
3945000000,-6.988174,-190.34038
3946000000,-6.9712353,-190.34862
3947000000,-6.9743304,-190.2471
3948000000,-6.9629941,-190.55817
3949000000,-6.9478502,-190.60782
3950000000,-6.9591479,-190.44255
3951000000,-6.9312205,-190.81972
3952000000,-6.9302216,-190.37943
3953000000,-6.9500589,-190.7043
3954000000,-6.9416895,-190.94159
3955000000,-6.9357743,-190.85719
3956000000,-6.9112101,-190.80443
3957000000,-6.9319258,-190.95668
3958000000,-6.9061451,-191.21678
3959000000,-6.8792872,-191.32063
3960000000,-6.9361892,-191.39294
3961000000,-6.9238777,-191.44081
3962000000,-6.9131455,-191.55962
3963000000,-6.8948011,-191.66489
3964000000,-6.902657,-191.53012
3965000000,-6.8787365,-191.51497
3966000000,-6.8931627,-191.64963
3967000000,-6.8929152,-191.74281
3968000000,-6.8917327,-192.007
3969000000,-6.9139829,-191.75339
3970000000,-6.8964481,-192.14291
3971000000,-6.8558226,-192.17705
3972000000,-6.9032717,-192.05687
3973000000,-6.8769488,-192.38791
3974000000,-6.8410783,-192.4174
3975000000,-6.8835974,-192.57858
3976000000,-6.8425436,-192.35867
3977000000,-6.8434329,-192.68869
3978000000,-6.8652706,-192.53136
3979000000,-6.8165436,-192.69086
3980000000,-6.8415785,-192.66292
3981000000,-6.8572931,-193.10988
3982000000,-6.8347044,-192.87849
3983000000,-6.8432751,-193.05139
3984000000,-6.8409157,-193.03526
3985000000,-6.8044958,-193.401
3986000000,-6.8329916,-193.41151
3987000000,-6.8103361,-193.45053
3988000000,-6.8297019,-193.49391
3989000000,-6.8100533,-193.48436
3990000000,-6.8146114,-193.65245
3991000000,-6.8131227,-193.68309
3992000000,-6.7996945,-193.86832
3993000000,-6.8400245,-193.79678
3994000000,-6.8013868,-194.09128
3995000000,-6.8137927,-193.86378
3996000000,-6.7936072,-193.98911
3997000000,-6.8022513,-194.25496
3998000000,-6.777966,-194.22699
3999000000,-6.8020177,-194.55571
4000000000,-6.7955227,-194.55016
4001000000,-6.7881746,-194.42145
4002000000,-6.7982602,-194.54636
4003000000,-6.7991672,-194.50986
4004000000,-6.7994618,-194.62923
4005000000,-6.7801304,-194.66209
4006000000,-6.7767048,-194.80186
4007000000,-6.759778,-194.8176
4008000000,-6.767045,-194.95033
4009000000,-6.783525,-194.95639
4010000000,-6.7436733,-195.11734
4011000000,-6.7697039,-195.13429
4012000000,-6.7715707,-195.23563
4013000000,-6.7583327,-195.29077
4014000000,-6.7758341,-195.2587
4015000000,-6.7539573,-195.60388
4016000000,-6.7446327,-195.69734
4017000000,-6.7573075,-195.73448
4018000000,-6.757833,-195.61481
4019000000,-6.7450161,-195.6942
4020000000,-6.7336006,-195.58893
4021000000,-6.7361827,-196.05594
4022000000,-6.7401662,-196.00162
4023000000,-6.7465482,-195.98982
4024000000,-6.7074533,-196.08389
4025000000,-6.7072253,-196.3414
4026000000,-6.7213693,-196.30705
4027000000,-6.7121911,-196.36571
4028000000,-6.7516899,-196.52451
4029000000,-6.7168427,-196.54918
4030000000,-6.735219,-196.77423
4031000000,-6.7340627,-196.80383
4032000000,-6.7107315,-196.89839
4033000000,-6.7381129,-196.80547
4034000000,-6.6972909,-197.00999
4035000000,-6.7286625,-196.92229
4036000000,-6.7319531,-197.0506
4037000000,-6.73211,-197.02055
4038000000,-6.7182417,-197.27147
4039000000,-6.6819916,-197.45213
4040000000,-6.7123137,-197.41222
4041000000,-6.7380409,-197.48888
4042000000,-6.7106781,-197.7149
4043000000,-6.7115145,-197.74683
4044000000,-6.7280478,-197.65649
4045000000,-6.7100148,-197.6425
4046000000,-6.7141314,-197.72891
4047000000,-6.6904054,-197.50298
4048000000,-6.7105093,-197.85178
4049000000,-6.6914692,-197.86258
4050000000,-6.6818409,-198.03372
4051000000,-6.6933455,-198.01759
4052000000,-6.6992006,-198.47374
4053000000,-6.6804647,-198.21249
4054000000,-6.7010827,-198.26381
4055000000,-6.6987333,-198.49063
4056000000,-6.680944,-198.51486
4057000000,-6.6760454,-198.52847
4058000000,-6.6976118,-198.58757
4059000000,-6.6971369,-198.82324
4060000000,-6.7051144,-198.79594
4061000000,-6.6966319,-198.81227
4062000000,-6.6860347,-199.04863
4063000000,-6.6818151,-199.05954
4064000000,-6.6715288,-198.94238
4065000000,-6.6935673,-199.05809
4066000000,-6.6807313,-199.17252
4067000000,-6.6527305,-199.29373
4068000000,-6.694797,-199.27448
4069000000,-6.6971354,-199.61256
4070000000,-6.6552567,-199.50716
4071000000,-6.6775942,-199.58424
4072000000,-6.6923933,-199.817
4073000000,-6.6791034,-199.67963
4074000000,-6.6660433,-199.78603
4075000000,-6.6713738,-199.83517
4076000000,-6.7004418,-199.94286
4077000000,-6.6694565,-200.01997
4078000000,-6.6743784,-200.04146
4079000000,-6.6805544,-200.03583
4080000000,-6.6589336,-200.10513
4081000000,-6.6642652,-200.02789
4082000000,-6.6785526,-200.33476
4083000000,-6.6376271,-200.42401
4084000000,-6.656116,-200.4805
4085000000,-6.6441031,-200.70885
4086000000,-6.6523905,-200.6862
4087000000,-6.6846995,-200.68919
4088000000,-6.6972327,-200.89514
4089000000,-6.6755466,-200.73677
4090000000,-6.6629624,-200.93831
4091000000,-6.6569433,-200.97752
4092000000,-6.6753783,-201.08604
4093000000,-6.6545811,-201.08521
4094000000,-6.6773033,-201.30272
4095000000,-6.6712775,-201.31439
4096000000,-6.6757016,-201.20605
4097000000,-6.70048,-201.34061
4098000000,-6.6821332,-201.52637
4099000000,-6.6840248,-201.59259
4100000000,-6.683115,-201.55894
4101000000,-6.6337323,-201.70914
4102000000,-6.654263,-201.75865
4103000000,-6.6704946,-201.68549
4104000000,-6.6409807,-201.88493
4105000000,-6.6359816,-202.01654
4106000000,-6.6342864,-202.03726
4107000000,-6.675468,-202.04001
4108000000,-6.6590366,-202.13295
4109000000,-6.6607094,-202.13118
4110000000,-6.6313839,-202.11253
4111000000,-6.628314,-202.26897
4112000000,-6.6435604,-202.30011
4113000000,-6.661243,-202.41
4114000000,-6.6581454,-202.54356
4115000000,-6.6462045,-202.5719
4116000000,-6.6598048,-202.58482
4117000000,-6.6623063,-202.71213
4118000000,-6.6581373,-202.76718
4119000000,-6.6500387,-202.98526
4120000000,-6.6302075,-202.74055
4121000000,-6.6504698,-203.01454
4122000000,-6.6338577,-202.98567
4123000000,-6.6680765,-203.25954
4124000000,-6.6281791,-203.01735
4125000000,-6.6382985,-203.14847
4126000000,-6.6496692,-203.28064
4127000000,-6.6692166,-203.4048
4128000000,-6.660861,-203.49182
4129000000,-6.6306233,-203.68965
4130000000,-6.6640806,-203.71181
4131000000,-6.6299648,-203.67381
4132000000,-6.6462979,-203.76959
4133000000,-6.665915,-203.79141
4134000000,-6.6235099,-203.93434
4135000000,-6.6754742,-203.71696
4136000000,-6.6319876,-204.06271
4137000000,-6.64042,-204.11279
4138000000,-6.657547,-204.10109
4139000000,-6.654067,-204.21426
4140000000,-6.6686096,-204.14662
4141000000,-6.6508827,-204.39513
4142000000,-6.6561017,-204.31908
4143000000,-6.6619263,-204.40433
4144000000,-6.670496,-204.4863
4145000000,-6.6224947,-204.77431
4146000000,-6.6524491,-204.66847
4147000000,-6.6397119,-204.78641
4148000000,-6.6366611,-204.71072
4149000000,-6.6244349,-204.66011
4150000000,-6.6616559,-204.91092
4151000000,-6.6415873,-205.01691
4152000000,-6.6555347,-205.08531
4153000000,-6.6603813,-204.89761
4154000000,-6.6580009,-205.13065
4155000000,-6.6587453,-205.25378
4156000000,-6.6729131,-205.24913
4157000000,-6.6707168,-205.26424
4158000000,-6.6454587,-205.45352
4159000000,-6.6506782,-205.39922
4160000000,-6.6760912,-205.54755
4161000000,-6.6505795,-205.76791
4162000000,-6.6454835,-205.56696
4163000000,-6.6613278,-205.56784
4164000000,-6.6402254,-205.56885
4165000000,-6.6484766,-205.62614
4166000000,-6.6430717,-205.88853
4167000000,-6.6330943,-205.98514
4168000000,-6.6429653,-205.99184
4169000000,-6.6578031,-206.2287
4170000000,-6.6687651,-206.14745
4171000000,-6.6753364,-206.22009
4172000000,-6.6545758,-206.4687
4173000000,-6.6368132,-206.2296
4174000000,-6.6677537,-206.46158
4175000000,-6.6514292,-206.41504
4176000000,-6.6662693,-206.45215
4177000000,-6.6609583,-206.53671
4178000000,-6.6498885,-206.56027
4179000000,-6.6320281,-206.87796
4180000000,-6.6552763,-206.78908
4181000000,-6.6592231,-206.93591
4182000000,-6.6509652,-206.74886
4183000000,-6.6840878,-206.73833
4184000000,-6.6724253,-207.10535
4185000000,-6.6485357,-206.8927
4186000000,-6.6667519,-207.07149
4187000000,-6.6584082,-207.30528
4188000000,-6.6530352,-207.12093
4189000000,-6.6368465,-207.28009
4190000000,-6.6516428,-207.46292
4191000000,-6.652998,-207.37813
4192000000,-6.6398473,-207.45714
4193000000,-6.6760583,-207.44379
4194000000,-6.6754475,-207.55717
4195000000,-6.6620708,-207.70219
4196000000,-6.6404233,-207.61864
4197000000,-6.6605182,-207.73045
4198000000,-6.6739845,-207.73866
4199000000,-6.6654944,-207.94312
4200000000,-6.6467891,-208.00647
4201000000,-6.6602445,-208.06134
4202000000,-6.670445,-208.03232
4203000000,-6.6592646,-208.06604
4204000000,-6.6739802,-208.22932
4205000000,-6.6718493,-208.36716
4206000000,-6.6939254,-208.38199
4207000000,-6.6807175,-208.26686
4208000000,-6.7004361,-208.30089
4209000000,-6.648674,-208.50165
4210000000,-6.6706738,-208.69081
4211000000,-6.7002139,-208.67647
4212000000,-6.6855841,-208.82385
4213000000,-6.6801033,-208.71703
4214000000,-6.6753287,-208.83008
4215000000,-6.6689072,-208.93063
4216000000,-6.6876631,-208.85538
4217000000,-6.6616888,-208.98744
4218000000,-6.6845856,-208.91237
4219000000,-6.6443982,-209.09245
4220000000,-6.6926813,-209.15794
4221000000,-6.6754646,-209.09377
4222000000,-6.6557813,-209.12285
4223000000,-6.6493688,-209.40092
4224000000,-6.6841779,-209.45328
4225000000,-6.6750526,-209.45175
4226000000,-6.6813507,-209.4631
4227000000,-6.6808934,-209.59579
4228000000,-6.6800208,-209.72084
4229000000,-6.6901703,-209.81351
4230000000,-6.6932478,-209.63091
4231000000,-6.7273679,-209.662
4232000000,-6.6820154,-209.75999
4233000000,-6.7170272,-209.85823
4234000000,-6.697051,-210.00415
4235000000,-6.693615,-209.91849
4236000000,-6.6634831,-209.98666
4237000000,-6.6738935,-210.10402
4238000000,-6.7075229,-210.10385
4239000000,-6.6923652,-210.21243
4240000000,-6.6973019,-210.19435
4241000000,-6.678587,-210.29288
4242000000,-6.6963568,-210.3616
4243000000,-6.7048573,-210.51236
4244000000,-6.6922345,-210.64433
4245000000,-6.6954565,-210.60545
4246000000,-6.6796408,-210.6615
4247000000,-6.7189312,-210.73152
4248000000,-6.7327561,-210.70255
4249000000,-6.709384,-210.64607
4250000000,-6.7086973,-210.83974
4251000000,-6.6895742,-210.9973
4252000000,-6.7136025,-211.01741
4253000000,-6.7350345,-210.91463
4254000000,-6.7171922,-211.09857
4255000000,-6.7034135,-211.19019
4256000000,-6.6880202,-211.17818
4257000000,-6.6811533,-211.23369
4258000000,-6.7006106,-211.12527
4259000000,-6.7113662,-211.3161
4260000000,-6.6987371,-211.48505
4261000000,-6.7074904,-211.3605
4262000000,-6.7106767,-211.34909
4263000000,-6.6972461,-211.56183
4264000000,-6.7120976,-211.5773
4265000000,-6.7260365,-211.60982
4266000000,-6.7302885,-211.51443
4267000000,-6.7360592,-211.74312
4268000000,-6.7291145,-211.81975
4269000000,-6.7186012,-211.77373
4270000000,-6.7197499,-211.83414
4271000000,-6.7102609,-211.9996
4272000000,-6.7214322,-212.06718
4273000000,-6.7163115,-212.13243
4274000000,-6.7310843,-211.87079
4275000000,-6.702898,-212.08221
4276000000,-6.6976943,-212.19141
4277000000,-6.7358899,-212.20662
4278000000,-6.7225304,-212.23254
4279000000,-6.6856198,-212.40198
4280000000,-6.7022657,-212.50117
4281000000,-6.699018,-212.30618
4282000000,-6.7136421,-212.5116
4283000000,-6.7177882,-212.62175
4284000000,-6.704566,-212.81218
4285000000,-6.7293978,-212.67548
4286000000,-6.7021747,-212.8446
4287000000,-6.7626028,-212.70004
4288000000,-6.7121859,-212.79541
4289000000,-6.7250161,-212.85127
4290000000,-6.7423449,-212.9285
4291000000,-6.7127752,-213.01688
4292000000,-6.7044621,-213.02443
4293000000,-6.7423944,-213.10368
4294000000,-6.7512035,-213.09918
4295000000,-6.7188492,-213.22672
4296000000,-6.7330236,-213.10124
4297000000,-6.746881,-213.13992
4298000000,-6.725142,-213.46089
4299000000,-6.7271576,-213.36168
4300000000,-6.7444749,-213.38802
4301000000,-6.7318683,-213.43828
4302000000,-6.7525592,-213.58762
4303000000,-6.7345424,-213.41969
4304000000,-6.7344003,-213.65096
4305000000,-6.7415967,-213.70137
4306000000,-6.7292066,-213.72104
4307000000,-6.7204499,-213.79881
4308000000,-6.7282152,-213.76787
4309000000,-6.7162075,-213.8972
4310000000,-6.7392135,-213.98781
4311000000,-6.75212,-214.0172
4312000000,-6.7274194,-213.78453
4313000000,-6.7542787,-214.14047
4314000000,-6.731153,-214.08369
4315000000,-6.7313724,-214.21663
4316000000,-6.7263827,-214.17058
4317000000,-6.736762,-214.37929
4318000000,-6.7327185,-214.1853
4319000000,-6.7300491,-214.43097
4320000000,-6.725461,-214.24718
4321000000,-6.6930909,-214.59023
4322000000,-6.7415571,-214.88817
4323000000,-6.7138529,-214.6051
4324000000,-6.7324057,-214.49838
4325000000,-6.727057,-214.56561
4326000000,-6.7508497,-214.53181
4327000000,-6.7014685,-214.77344
4328000000,-6.7480545,-214.75723
4329000000,-6.7485032,-214.75453
4330000000,-6.7784638,-214.88135
4331000000,-6.7464762,-214.88631
4332000000,-6.7535667,-215.23834
4333000000,-6.7219567,-215.26273
4334000000,-6.7425056,-215.04584
4335000000,-6.7153263,-215.27316
4336000000,-6.7258043,-215.1933
4337000000,-6.7493963,-215.28647
4338000000,-6.7281685,-215.30995
4339000000,-6.7217555,-215.43953
4340000000,-6.7262583,-215.39319
4341000000,-6.7473741,-215.59019
4342000000,-6.7335205,-215.66884
4343000000,-6.7250109,-215.4425
4344000000,-6.7429304,-215.75507
4345000000,-6.7830119,-215.66539
4346000000,-6.7129464,-215.6949
4347000000,-6.7409253,-215.69727
4348000000,-6.7410116,-215.93098
4349000000,-6.7076135,-215.8196
4350000000,-6.735393,-215.73061
4351000000,-6.7404475,-216.02635
4352000000,-6.7679954,-216.00107
4353000000,-6.7500291,-216.0154
4354000000,-6.7308874,-216.20737
4355000000,-6.7658105,-216.13474
4356000000,-6.7548456,-216.28651
4357000000,-6.7392077,-216.21361
4358000000,-6.7261314,-216.17067
4359000000,-6.7394557,-216.2993
4360000000,-6.7399521,-216.21974
4361000000,-6.7549624,-216.54877
4362000000,-6.7281632,-216.29089
4363000000,-6.7320471,-216.54849
4364000000,-6.7583017,-216.6893
4365000000,-6.7303162,-216.67583
4366000000,-6.7266779,-216.7491
4367000000,-6.7261477,-216.67639
4368000000,-6.7137814,-216.70096
4369000000,-6.7526474,-216.823
4370000000,-6.728435,-217.10881
4371000000,-6.7574153,-217.0417
4372000000,-6.7276273,-217.0239
4373000000,-6.7527561,-217.05917
4374000000,-6.7420588,-217.00314
4375000000,-6.7512598,-217.15974
4376000000,-6.7330093,-217.04704
4377000000,-6.7458773,-217.20625
4378000000,-6.7676821,-217.38231
4379000000,-6.7478662,-217.30809
4380000000,-6.7502604,-217.40796
4381000000,-6.7477579,-217.48973
4382000000,-6.7302232,-217.34227
4383000000,-6.7011118,-217.46866
4384000000,-6.713357,-217.37772
4385000000,-6.7451429,-217.61946
4386000000,-6.7620096,-217.56909
4387000000,-6.742939,-217.64868
4388000000,-6.7603478,-217.77963
4389000000,-6.7551022,-217.67706
4390000000,-6.7264051,-217.81955
4391000000,-6.7306867,-217.8904
4392000000,-6.7472181,-218.04251
4393000000,-6.7286201,-217.90465
4394000000,-6.7332029,-218.01549
4395000000,-6.7662692,-217.858
4396000000,-6.7386727,-217.95685
4397000000,-6.7506881,-218.13174
4398000000,-6.743999,-218.18704
4399000000,-6.7468247,-218.18698
4400000000,-6.7517018,-218.21385
4401000000,-6.7509775,-218.05574
4402000000,-6.7421808,-218.22702
4403000000,-6.7199459,-218.20319
4404000000,-6.7434101,-218.44209
4405000000,-6.7213559,-218.38202
4406000000,-6.7287474,-218.48903
4407000000,-6.7121568,-218.68126
4408000000,-6.7361255,-218.85725
4409000000,-6.7224369,-218.85471
4410000000,-6.7137389,-218.55386
4411000000,-6.7481971,-218.75716
4412000000,-6.7241125,-219.0378
4413000000,-6.7518258,-218.81828
4414000000,-6.7069349,-219.14551
4415000000,-6.7409635,-219.01833
4416000000,-6.7511182,-218.89796
4417000000,-6.7321906,-219.16846
4418000000,-6.7629004,-219.15111
4419000000,-6.741292,-219.19669
4420000000,-6.7439237,-219.46097
4421000000,-6.7279067,-219.25676
4422000000,-6.7075682,-219.19312
4423000000,-6.7341514,-219.24074
4424000000,-6.7351317,-219.42484
4425000000,-6.7340307,-219.57651
4426000000,-6.7395835,-219.41385
4427000000,-6.7328844,-219.60579
4428000000,-6.7627821,-219.51411
4429000000,-6.7453976,-219.75616
4430000000,-6.7443643,-219.7778
4431000000,-6.7290506,-219.69215
4432000000,-6.7723498,-219.77498
4433000000,-6.6918049,-219.84969
4434000000,-6.7274814,-219.8067
4435000000,-6.7375636,-219.79465
4436000000,-6.7206182,-219.8501
4437000000,-6.7041621,-220.01428
4438000000,-6.7212977,-220.10509
4439000000,-6.7181711,-220.18016
4440000000,-6.7099743,-220.15514
4441000000,-6.7174211,-220.1246
4442000000,-6.729023,-220.14706
4443000000,-6.73557,-220.13594
4444000000,-6.7272658,-220.16763
4445000000,-6.6952577,-220.42151
4446000000,-6.7237277,-220.53516
4447000000,-6.7376475,-220.54578
4448000000,-6.7197404,-220.60156
4449000000,-6.7335043,-220.6185
4450000000,-6.685369,-220.69241
4451000000,-6.7151051,-220.54367
4452000000,-6.7134271,-220.66914
4453000000,-6.7202134,-220.81221
4454000000,-6.7093377,-220.77199
4455000000,-6.7121606,-220.87088
4456000000,-6.7002416,-220.97417
4457000000,-6.7021613,-220.99257
4458000000,-6.7066865,-220.82823
4459000000,-6.7411485,-221.0276
4460000000,-6.6901827,-220.98869
4461000000,-6.7061405,-221.04628
4462000000,-6.727879,-221.13623
4463000000,-6.6898007,-221.17319
4464000000,-6.7118387,-221.37141
4465000000,-6.714654,-221.15282
4466000000,-6.6936541,-221.31755
4467000000,-6.734838,-221.38251
4468000000,-6.7172608,-221.40825
4469000000,-6.6947436,-221.33208
4470000000,-6.7096272,-221.40266
4471000000,-6.7020826,-221.56174
4472000000,-6.6846623,-221.72435
4473000000,-6.692555,-221.62173
4474000000,-6.6829286,-221.81889
4475000000,-6.7149639,-221.9247
4476000000,-6.7012768,-221.85234
4477000000,-6.7157149,-221.87994
4478000000,-6.7005043,-221.76897
4479000000,-6.7152386,-221.81308
4480000000,-6.6993098,-221.9744
4481000000,-6.7322454,-221.94751
4482000000,-6.7225609,-222.00877
4483000000,-6.7295609,-222.08406
4484000000,-6.7019873,-222.01422
4485000000,-6.7147131,-222.1687
4486000000,-6.6954994,-222.18941
4487000000,-6.6926942,-222.23958
4488000000,-6.7147584,-222.31615
4489000000,-6.667592,-222.44084
4490000000,-6.6785054,-222.36731
4491000000,-6.681828,-222.62537
4492000000,-6.6722746,-222.46413
4493000000,-6.6970968,-222.68663
4494000000,-6.6881747,-222.57919
4495000000,-6.6915221,-222.65134
4496000000,-6.6841149,-222.7374
4497000000,-6.678659,-222.88312
4498000000,-6.6909199,-222.70735
4499000000,-6.6700082,-222.76341
4500000000,-6.6990871,-223.00212
4501000000,-6.6845813,-222.93362
4502000000,-6.6596208,-222.86737
4503000000,-6.6834416,-223.10074
4504000000,-6.6857276,-223.04982
4505000000,-6.6763949,-223.16165
4506000000,-6.6919212,-223.14351
4507000000,-6.6939259,-223.27258
4508000000,-6.6808782,-223.21193
4509000000,-6.6789489,-223.33232
4510000000,-6.6670022,-223.21571
4511000000,-6.6866956,-223.44426
4512000000,-6.67765,-223.39467
4513000000,-6.6821094,-223.50287
4514000000,-6.6588717,-223.61678
4515000000,-6.6683679,-223.66025
4516000000,-6.6687346,-223.73222
4517000000,-6.6488986,-223.67914
4518000000,-6.671926,-223.53859
4519000000,-6.6725593,-223.76337
4520000000,-6.6667147,-223.89906
4521000000,-6.6751232,-223.80675
4522000000,-6.6690235,-223.85316
4523000000,-6.6501155,-223.88432
4524000000,-6.6778927,-223.93866
4525000000,-6.6506143,-223.96303
4526000000,-6.6844835,-223.94559
4527000000,-6.6718864,-224.02644
4528000000,-6.6841455,-224.06586
4529000000,-6.6510606,-224.17592
4530000000,-6.6459146,-224.16031
4531000000,-6.6817894,-224.38795
4532000000,-6.6510472,-224.11382
4533000000,-6.6598263,-224.20157
4534000000,-6.6603541,-224.57867
4535000000,-6.6538281,-224.32726
4536000000,-6.6613479,-224.50117
4537000000,-6.6461053,-224.60374
4538000000,-6.6589489,-224.55093
4539000000,-6.6354485,-224.68877
4540000000,-6.6171656,-224.72015
4541000000,-6.6041012,-224.79532
4542000000,-6.6629457,-224.84795
4543000000,-6.6101956,-224.77087
4544000000,-6.6534014,-224.96275
4545000000,-6.6379933,-224.87695
4546000000,-6.6271667,-225.05394
4547000000,-6.624423,-225.05927
4548000000,-6.576611,-224.95662
4549000000,-6.6179342,-225.09624
4550000000,-6.6197786,-225.20784
4551000000,-6.6036329,-225.1498
4552000000,-6.6109376,-225.12459
4553000000,-6.6441498,-225.16519
4554000000,-6.6274309,-225.40466
4555000000,-6.612061,-225.40381
4556000000,-6.6008148,-225.32913
4557000000,-6.62076,-225.54771
4558000000,-6.607585,-225.6048
4559000000,-6.6173849,-225.68718
4560000000,-6.6229587,-225.52861
4561000000,-6.6123857,-225.80052
4562000000,-6.6335053,-225.7556
4563000000,-6.6181154,-225.81029
4564000000,-6.592711,-225.73082
4565000000,-6.601871,-225.67818
4566000000,-6.6101227,-225.89626
4567000000,-6.6333122,-225.89293
4568000000,-6.6037946,-225.96414
4569000000,-6.6132698,-226.03728
4570000000,-6.5883074,-226.03847
4571000000,-6.5784817,-226.12854
4572000000,-6.5981374,-226.19507
4573000000,-6.5993953,-226.20828
4574000000,-6.5628085,-226.24751
4575000000,-6.5875125,-226.34854
4576000000,-6.5952244,-226.46971
4577000000,-6.5782876,-226.43413
4578000000,-6.5705853,-226.42528
4579000000,-6.5831575,-226.64929
4580000000,-6.5855951,-226.63869
4581000000,-6.587945,-226.68057
4582000000,-6.564404,-226.74878
4583000000,-6.5629139,-226.63808
4584000000,-6.5632844,-226.78963
4585000000,-6.55478,-226.79901
4586000000,-6.5537772,-226.96346
4587000000,-6.5610833,-226.82722
4588000000,-6.5505338,-227.02968
4589000000,-6.5449495,-226.94145
4590000000,-6.5564861,-227.03581
4591000000,-6.5811691,-227.17912
4592000000,-6.5419798,-227.28006
4593000000,-6.5726333,-227.29028
4594000000,-6.5519967,-227.26984
4595000000,-6.5596414,-227.25912
4596000000,-6.5603685,-227.37259
4597000000,-6.5715685,-227.37764
4598000000,-6.5437832,-227.26691
4599000000,-6.5392513,-227.49858
4600000000,-6.5244827,-227.42479
4601000000,-6.5431676,-227.62318
4602000000,-6.5403957,-227.65353
4603000000,-6.5380387,-227.58719
4604000000,-6.5674558,-227.81425
4605000000,-6.5250502,-227.82292
4606000000,-6.5294485,-227.96715
4607000000,-6.498888,-227.85591
4608000000,-6.530345,-227.84908
4609000000,-6.5209126,-227.9912
4610000000,-6.5243282,-228.0397
4611000000,-6.5192122,-228.01442
4612000000,-6.5427995,-228.13419
4613000000,-6.5530152,-228.13301
4614000000,-6.4969978,-228.16563
4615000000,-6.5105305,-227.95087
4616000000,-6.5095644,-228.24367
4617000000,-6.503696,-228.37715
4618000000,-6.5251327,-228.26607
4619000000,-6.5002389,-228.32304
4620000000,-6.491889,-228.59258
4621000000,-6.5042024,-228.56921
4622000000,-6.4805384,-228.69862
4623000000,-6.4896336,-228.63562
4624000000,-6.4796166,-228.71831
4625000000,-6.4927244,-228.61769
4626000000,-6.4848294,-228.94119
4627000000,-6.4970241,-228.88872
4628000000,-6.4837213,-228.8631
4629000000,-6.4632559,-229.06046
4630000000,-6.4836349,-229.07336
4631000000,-6.4693389,-228.97145
4632000000,-6.4730926,-229.19519
4633000000,-6.4869671,-229.17528
4634000000,-6.4592528,-229.34518
4635000000,-6.4637003,-229.20224
4636000000,-6.4679437,-229.31096
4637000000,-6.4615946,-229.40128
4638000000,-6.4875741,-229.42574
4639000000,-6.460032,-229.36609
4640000000,-6.4776034,-229.59596
4641000000,-6.4586272,-229.41217
4642000000,-6.4479947,-229.69322
4643000000,-6.4613376,-229.79437
4644000000,-6.4469223,-229.86871
4645000000,-6.4492078,-229.74077
4646000000,-6.43325,-229.87929
4647000000,-6.4572058,-229.92064
4648000000,-6.4426064,-230.13858
4649000000,-6.4382544,-229.8221
4650000000,-6.4344592,-230.12941
4651000000,-6.4253607,-230.00566
4652000000,-6.4429212,-230.20583
4653000000,-6.4224305,-230.35715
4654000000,-6.4517059,-230.23759
4655000000,-6.4425426,-230.23199
4656000000,-6.4239173,-230.46909
4657000000,-6.4533467,-230.3795
4658000000,-6.4471231,-230.27786
4659000000,-6.4251442,-230.67191
4660000000,-6.4265594,-230.48416
4661000000,-6.3800802,-230.66226
4662000000,-6.3961368,-230.73735
4663000000,-6.3994665,-230.75778
4664000000,-6.3968019,-230.87595
4665000000,-6.4246721,-230.97536
4666000000,-6.4080586,-230.87042
4667000000,-6.4052391,-231.06667
4668000000,-6.4027038,-230.96214
4669000000,-6.429142,-230.83583
4670000000,-6.4124374,-231.04745
4671000000,-6.412375,-231.16795
4672000000,-6.410583,-231.45068
4673000000,-6.3808346,-231.24628
4674000000,-6.3895574,-231.36189
4675000000,-6.381609,-231.38031
4676000000,-6.4095616,-231.61743
4677000000,-6.3994684,-231.48328
4678000000,-6.3799696,-231.43228
4679000000,-6.3920188,-231.61961
4680000000,-6.4025621,-231.67384
4681000000,-6.3732505,-231.71155
4682000000,-6.3792429,-231.80667
4683000000,-6.3908339,-231.68092
4684000000,-6.3753829,-231.8817
4685000000,-6.3691454,-232.09183
4686000000,-6.3717709,-231.92473
4687000000,-6.3833437,-231.84834
4688000000,-6.3840241,-231.98244
4689000000,-6.3868437,-232.08253
4690000000,-6.3814692,-232.22545
4691000000,-6.3906255,-232.11526
4692000000,-6.3904238,-232.1754
4693000000,-6.3633628,-232.27849
4694000000,-6.3824291,-232.35194
4695000000,-6.3533959,-232.43907
4696000000,-6.331881,-232.66023
4697000000,-6.381681,-232.45085
4698000000,-6.3529301,-232.41159
4699000000,-6.3388352,-232.6033
4700000000,-6.3603649,-232.64676
4701000000,-6.3613267,-232.90413
4702000000,-6.3318439,-232.74768
4703000000,-6.3349457,-232.82227
4704000000,-6.3616271,-232.94305
4705000000,-6.3325882,-232.72238
4706000000,-6.3628836,-233.05296
4707000000,-6.3221784,-233.22646
4708000000,-6.3470049,-233.12338
4709000000,-6.292593,-233.35913
4710000000,-6.2842083,-233.32426
4711000000,-6.325974,-233.15201
4712000000,-6.3354235,-233.35927
4713000000,-6.338758,-233.4615
4714000000,-6.3137188,-233.4303
4715000000,-6.3396797,-233.45166
4716000000,-6.3124995,-233.4286
4717000000,-6.3365526,-233.5914
4718000000,-6.3080273,-233.70566
4719000000,-6.3212337,-233.59869
4720000000,-6.3327789,-233.8374
4721000000,-6.3050032,-233.78908
4722000000,-6.3159132,-233.84674
4723000000,-6.2738042,-233.97751
4724000000,-6.3049002,-233.87994
4725000000,-6.2862978,-234.07526
4726000000,-6.3100438,-233.96944
4727000000,-6.3451838,-234.17784
4728000000,-6.3109775,-234.13927
4729000000,-6.2810349,-234.19508
4730000000,-6.2799125,-234.33133
4731000000,-6.2867508,-234.33917
4732000000,-6.2864647,-234.25984
4733000000,-6.2998376,-234.371
4734000000,-6.2830358,-234.55367
4735000000,-6.2635946,-234.68782
4736000000,-6.2879972,-234.56056
4737000000,-6.2608509,-234.61877
4738000000,-6.2472043,-234.64738
4739000000,-6.2742181,-234.71109
4740000000,-6.2683864,-234.70219
4741000000,-6.2747121,-234.942
4742000000,-6.2473898,-234.73921
4743000000,-6.2446523,-235.00786
4744000000,-6.238338,-235.04129
4745000000,-6.2370958,-235.22934
4746000000,-6.2429104,-235.19858
4747000000,-6.2314124,-235.33299
4748000000,-6.2533889,-235.28802
4749000000,-6.2412372,-235.38559
4750000000,-6.2425413,-235.38023
4751000000,-6.23174,-235.49194
4752000000,-6.2070293,-235.60268
4753000000,-6.2154799,-235.43657
4754000000,-6.2154832,-235.59248
4755000000,-6.2319789,-235.56383
4756000000,-6.2265902,-235.66136
4757000000,-6.2147589,-235.68962
4758000000,-6.2281618,-235.7571
4759000000,-6.1955333,-235.75958
4760000000,-6.1916409,-235.78589
4761000000,-6.2078199,-235.95236
4762000000,-6.2232242,-236.06728
4763000000,-6.2056484,-236.03864
4764000000,-6.1894579,-236.13652
4765000000,-6.2161403,-236.34087
4766000000,-6.1965051,-236.35042
4767000000,-6.2036042,-236.28813
4768000000,-6.2108197,-236.35127
4769000000,-6.2147622,-236.50722
4770000000,-6.1938405,-236.47678
4771000000,-6.1880116,-236.57188
4772000000,-6.1699476,-236.88066
4773000000,-6.1814981,-236.67273
4774000000,-6.1959929,-236.82031
4775000000,-6.1392183,-236.89738
4776000000,-6.1881642,-237.01164
4777000000,-6.1780534,-236.85062
4778000000,-6.1616592,-236.9402
4779000000,-6.1661787,-237.02
4780000000,-6.1564231,-237.19936
4781000000,-6.1691608,-237.2251
4782000000,-6.1645126,-237.36847
4783000000,-6.1901622,-237.43607
4784000000,-6.147367,-237.52831
4785000000,-6.1457319,-237.50885
4786000000,-6.1613126,-237.61375
4787000000,-6.1369548,-237.45216
4788000000,-6.1361871,-237.79932
4789000000,-6.1531348,-237.66037
4790000000,-6.1313939,-237.83426
4791000000,-6.179719,-237.69054
4792000000,-6.167625,-237.82787
4793000000,-6.1452975,-238.01379
4794000000,-6.1511102,-237.94237
4795000000,-6.1522536,-238.10373
4796000000,-6.1551223,-238.01376
4797000000,-6.1291895,-238.15619
4798000000,-6.1227288,-238.146
4799000000,-6.1457491,-238.2258
4800000000,-6.104054,-238.38022
4801000000,-6.1444788,-238.35014
4802000000,-6.1337409,-238.29716
4803000000,-6.1081796,-238.40134
4804000000,-6.1225948,-238.48816
4805000000,-6.102222,-238.521
4806000000,-6.1216679,-238.66359
4807000000,-6.1329355,-238.82703
4808000000,-6.1113071,-238.87024
4809000000,-6.1249194,-238.77121
4810000000,-6.1271744,-238.78145
4811000000,-6.1186471,-238.87552
4812000000,-6.086513,-238.92398
4813000000,-6.1041336,-238.88393
4814000000,-6.1002092,-239.18825
4815000000,-6.0995955,-239.08058
4816000000,-6.0890832,-239.27443
4817000000,-6.1066275,-239.24112
4818000000,-6.106545,-239.22388
4819000000,-6.1322098,-239.48955
4820000000,-6.0777268,-239.54205
4821000000,-6.0783939,-239.56029
4822000000,-6.077198,-239.55769
4823000000,-6.0660071,-239.61172
4824000000,-6.0781579,-239.58867
4825000000,-6.0829926,-239.77693
4826000000,-6.0425882,-239.8681
4827000000,-6.0802627,-239.78619
4828000000,-6.0339646,-239.99318
4829000000,-6.0785732,-240.2036
4830000000,-6.0454721,-239.85316
4831000000,-6.0662136,-240.22757
4832000000,-6.0481119,-240.09383
4833000000,-6.077806,-240.09216
4834000000,-6.0468893,-240.32242
4835000000,-6.0399947,-240.35411
4836000000,-6.0599151,-240.39307
4837000000,-6.0487356,-240.46577
4838000000,-6.0292654,-240.58934
4839000000,-6.0544019,-240.78078
4840000000,-6.0343394,-240.67068
4841000000,-6.0377698,-240.88564
4842000000,-6.0505733,-240.88297
4843000000,-6.0462551,-240.72395
4844000000,-6.0175319,-240.8802
4845000000,-6.032793,-240.89561
4846000000,-6.0155921,-241.17644
4847000000,-6.0476661,-241.14868
4848000000,-6.036644,-241.1597
4849000000,-6.0234323,-241.33774
4850000000,-6.0346928,-241.21786
4851000000,-6.0355625,-241.37189
4852000000,-6.0229373,-241.33302
4853000000,-6.0293078,-241.44629
4854000000,-6.0450621,-241.37097
4855000000,-6.0024538,-241.63628
4856000000,-6.0120363,-241.74158
4857000000,-6.0095987,-241.76779
4858000000,-6.0274467,-241.88145
4859000000,-6.0087833,-242.00473
4860000000,-6.0187197,-241.80916
4861000000,-6.0071568,-241.87257
4862000000,-5.9944649,-242.05013
4863000000,-6.0125771,-242.00677
4864000000,-6.0026069,-241.99458
4865000000,-6.0345488,-242.22537
4866000000,-6.0007167,-242.21843
4867000000,-5.9946084,-242.28523
4868000000,-5.9865232,-242.31119
4869000000,-5.9931321,-242.50374
4870000000,-6.0058784,-242.48984
4871000000,-5.9905853,-242.57761
4872000000,-6.002738,-242.80978
4873000000,-5.9678755,-242.75085
4874000000,-5.9936581,-242.74435
4875000000,-5.989501,-242.7804
4876000000,-5.971684,-242.85277
4877000000,-5.9789505,-242.98125
4878000000,-5.9745259,-243.00012
4879000000,-5.9645543,-243.14821
4880000000,-5.9705467,-243.07114
4881000000,-5.9931531,-243.2435
4882000000,-5.94906,-243.22086
4883000000,-5.9591565,-243.07884
4884000000,-5.9551144,-243.45616
4885000000,-5.9820533,-243.41458
4886000000,-5.9605126,-243.43584
4887000000,-5.9566908,-243.64348
4888000000,-5.9487915,-243.74667
4889000000,-5.9849706,-243.78242
4890000000,-5.9251142,-243.81006
4891000000,-5.9523363,-243.74422
4892000000,-5.9505277,-243.86198
4893000000,-5.9187226,-243.9346
4894000000,-5.9548521,-243.97621
4895000000,-5.9459577,-244.06851
4896000000,-5.9381328,-244.24039
4897000000,-5.9688659,-244.12506
4898000000,-5.9438624,-244.17484
4899000000,-5.9385839,-244.30997
4900000000,-5.9547219,-244.29939
4901000000,-5.9655924,-244.5697
4902000000,-5.9339762,-244.5593
4903000000,-5.9282236,-244.48813
4904000000,-5.9639592,-244.5013
4905000000,-5.9599128,-244.68521
4906000000,-5.916573,-244.63426
4907000000,-5.9398336,-244.81732
4908000000,-5.9364161,-244.93591
4909000000,-5.9271469,-245.05727
4910000000,-5.926476,-245.05957
4911000000,-5.917273,-245.05713
4912000000,-5.9183574,-245.12265
4913000000,-5.929316,-245.25705
4914000000,-5.9471703,-245.1926
4915000000,-5.9230728,-245.3304
4916000000,-5.9340405,-245.45175
4917000000,-5.9177513,-245.37267
4918000000,-5.8957009,-245.43987
4919000000,-5.8939552,-245.61432
4920000000,-5.9141846,-245.63841
4921000000,-5.903018,-245.59166
4922000000,-5.9149346,-245.68535
4923000000,-5.8963208,-245.81485
4924000000,-5.8882823,-245.87526
4925000000,-5.894475,-245.93222
4926000000,-5.8916755,-246.0208
4927000000,-5.8811641,-246.08128
4928000000,-5.8887501,-245.96814
4929000000,-5.8528895,-246.23938
4930000000,-5.8982558,-246.21709
4931000000,-5.8767023,-246.27925
4932000000,-5.8750014,-246.40143
4933000000,-5.8814912,-246.58786
4934000000,-5.8617539,-246.39342
4935000000,-5.8831367,-246.45677
4936000000,-5.8696761,-246.64026
4937000000,-5.8871942,-246.52661
4938000000,-5.8825226,-246.91412
4939000000,-5.8724995,-246.87503
4940000000,-5.8837304,-246.93008
4941000000,-5.8819933,-246.98224
4942000000,-5.8893237,-247.11723
4943000000,-5.8584704,-246.97522
4944000000,-5.8537283,-246.88383
4945000000,-5.8423877,-247.26329
4946000000,-5.8874183,-247.3461
4947000000,-5.8646612,-247.22559
4948000000,-5.8746905,-247.38492
4949000000,-5.8501291,-247.33929
4950000000,-5.8730574,-247.41353
4951000000,-5.8670025,-247.39584
4952000000,-5.8648925,-247.41199
4953000000,-5.8421311,-247.63155
4954000000,-5.8339229,-247.57149
4955000000,-5.8517818,-247.74045
4956000000,-5.8411827,-247.69643
4957000000,-5.841228,-248.01068
4958000000,-5.8496952,-248.0834
4959000000,-5.827024,-248.10835
4960000000,-5.8322291,-248.12608
4961000000,-5.8149571,-248.32382
4962000000,-5.8358116,-248.29697
4963000000,-5.8404164,-248.24309
4964000000,-5.79497,-248.20317
4965000000,-5.8209033,-248.43658
4966000000,-5.7929473,-248.60591
4967000000,-5.8162189,-248.39328
4968000000,-5.8188868,-248.63837
4969000000,-5.7924652,-248.61206
4970000000,-5.7936921,-248.69153
4971000000,-5.8029528,-248.77211
4972000000,-5.8042016,-248.80029
4973000000,-5.7988262,-248.944
4974000000,-5.8128676,-249.08965
4975000000,-5.7994332,-249.11507
4976000000,-5.8096375,-249.15752
4977000000,-5.7924209,-249.42477
4978000000,-5.7645092,-249.25163
4979000000,-5.8115268,-249.3858
4980000000,-5.7806835,-249.63654
4981000000,-5.7924733,-249.71703
4982000000,-5.7684689,-249.56029
4983000000,-5.7591577,-249.50591
4984000000,-5.7718892,-249.76595
4985000000,-5.7880111,-249.66357
4986000000,-5.7624488,-249.83723
4987000000,-5.7844791,-249.83644
4988000000,-5.7822933,-249.91196
4989000000,-5.778924,-250.03665
4990000000,-5.7835889,-250.30185
4991000000,-5.7851386,-250.19688
4992000000,-5.7719455,-250.35291
4993000000,-5.7677341,-250.40332
4994000000,-5.7527223,-250.39996
4995000000,-5.7791328,-250.45564
4996000000,-5.7587557,-250.51044
4997000000,-5.7545586,-250.53735
4998000000,-5.7442112,-250.50233
4999000000,-5.7703366,-250.75125
5000000000,-5.7427707,-250.82532
END

