!CSV A.01.01
!Agilent Technologies,E8362C,MY49020225,A.09.42.22
!Agilent E8362C: A.09.42.22
!Date: Tuesday, March 08, 2016 15:01:31
!Source: Standard

BEGIN CH1_DATA
Freq(Hz),S21 Log Mag(dB),S21 Phase(°)
1000000000,-3.2979038,-92.159378
1001000000,-3.3364503,-92.301765
1002000000,-3.3376417,-92.38604
1003000000,-3.3050027,-92.329857
1004000000,-3.2938461,-92.610458
1005000000,-3.3691051,-92.521233
1006000000,-3.3233097,-92.885284
1007000000,-3.3122168,-92.820198
1008000000,-3.2945812,-92.989426
1009000000,-3.3131976,-93.053368
1010000000,-3.3153565,-93.223839
1011000000,-3.3295681,-93.310478
1012000000,-3.3207934,-93.130272
1013000000,-3.3180425,-93.489563
1014000000,-3.295975,-93.490288
1015000000,-3.3191934,-93.65554
1016000000,-3.3061004,-93.5746
1017000000,-3.3129814,-93.856781
1018000000,-3.3236341,-93.99688
1019000000,-3.3215766,-93.803505
1020000000,-3.327585,-93.982758
1021000000,-3.2917414,-94.197746
1022000000,-3.3010268,-94.11824
1023000000,-3.3074334,-94.399864
1024000000,-3.3517363,-94.488953
1025000000,-3.346379,-94.593346
1026000000,-3.3239584,-94.52179
1027000000,-3.3070297,-94.553856
1028000000,-3.3319736,-94.670509
1029000000,-3.3213809,-94.780907
1030000000,-3.3185675,-95.124573
1031000000,-3.3199451,-94.976486
1032000000,-3.3336103,-95.302223
1033000000,-3.3427796,-95.22316
1034000000,-3.3348041,-95.3563
1035000000,-3.3155077,-95.50264
1036000000,-3.3106937,-95.557137
1037000000,-3.3185391,-95.77047
1038000000,-3.3034153,-95.728394
1039000000,-3.3107145,-95.812218
1040000000,-3.3095233,-95.783142
1041000000,-3.3386974,-95.971642
1042000000,-3.3336654,-95.938438
1043000000,-3.2875662,-96.123047
1044000000,-3.2824988,-96.140785
1045000000,-3.3248873,-96.495705
1046000000,-3.3067095,-96.688301
1047000000,-3.2949996,-96.313644
1048000000,-3.3427694,-96.560295
1049000000,-3.3040862,-96.63678
1050000000,-3.3038917,-96.837616
1051000000,-3.3188097,-96.908943
1052000000,-3.3186104,-96.93502
1053000000,-3.3085754,-97.013763
1054000000,-3.3173072,-97.304535
1055000000,-3.3197606,-97.173752
1056000000,-3.3097239,-97.310471
1057000000,-3.3133132,-97.666771
1058000000,-3.3493497,-97.401924
1059000000,-3.326879,-97.714661
1060000000,-3.3159544,-97.861031
1061000000,-3.3245368,-97.866165
1062000000,-3.3234296,-98.098755
1063000000,-3.3086331,-97.963539
1064000000,-3.3186893,-98.216835
1065000000,-3.3014886,-98.218765
1066000000,-3.2994149,-98.471321
1067000000,-3.2902696,-98.513115
1068000000,-3.3064783,-98.57695
1069000000,-3.3245373,-98.536728
1070000000,-3.296581,-98.746872
1071000000,-3.317755,-98.704292
1072000000,-3.3219252,-98.799904
1073000000,-3.3323643,-98.855576
1074000000,-3.3004506,-98.885574
1075000000,-3.3271925,-99.269653
1076000000,-3.3168166,-99.279434
1077000000,-3.3282127,-99.447571
1078000000,-3.295476,-99.367409
1079000000,-3.3110723,-99.446312
1080000000,-3.2946754,-99.682167
1081000000,-3.3103466,-99.506966
1082000000,-3.3307035,-99.747086
1083000000,-3.3063374,-99.859741
1084000000,-3.2946503,-99.971344
1085000000,-3.2940104,-99.998352
1086000000,-3.3185353,-100.32008
1087000000,-3.2969,-100.23484
1088000000,-3.3034861,-100.38335
1089000000,-3.2921619,-100.59817
1090000000,-3.2944629,-100.75095
1091000000,-3.3052454,-100.6387
1092000000,-3.3091674,-100.62793
1093000000,-3.3024111,-100.84148
1094000000,-3.3046653,-100.91938
1095000000,-3.2952981,-101.12611
1096000000,-3.3032956,-101.16837
1097000000,-3.3276401,-101.16645
1098000000,-3.2995498,-101.29339
1099000000,-3.3037052,-101.50575
1100000000,-3.2987504,-101.57749
1101000000,-3.3310199,-101.61042
1102000000,-3.3247266,-101.76758
1103000000,-3.3206191,-101.92966
1104000000,-3.3070974,-101.9594
1105000000,-3.3162529,-101.9523
1106000000,-3.295404,-102.115
1107000000,-3.3289371,-102.05119
1108000000,-3.3247955,-102.32125
1109000000,-3.3056912,-102.37484
1110000000,-3.3232915,-102.54676
1111000000,-3.3007143,-102.26247
1112000000,-3.2789159,-102.86211
1113000000,-3.2938871,-102.84163
1114000000,-3.3026552,-102.85896
1115000000,-3.321259,-102.82393
1116000000,-3.3127303,-103.12875
1117000000,-3.288269,-103.09554
1118000000,-3.3197811,-103.07246
1119000000,-3.2809784,-103.34454
1120000000,-3.294349,-103.38284
1121000000,-3.3134966,-103.61857
1122000000,-3.3017955,-103.61765
1123000000,-3.2968848,-103.45261
1124000000,-3.2785501,-103.71317
1125000000,-3.2979991,-103.94823
1126000000,-3.3074253,-104.02795
1127000000,-3.3038349,-104.09926
1128000000,-3.3132248,-104.18166
1129000000,-3.3214946,-104.27454
1130000000,-3.3451848,-104.18362
1131000000,-3.3065069,-104.51856
1132000000,-3.3132675,-104.37225
1133000000,-3.2973351,-104.6576
1134000000,-3.3072412,-104.79974
1135000000,-3.3434019,-104.77855
1136000000,-3.3285432,-104.87434
1137000000,-3.3209143,-105.0153
1138000000,-3.2958481,-105.049
1139000000,-3.3202217,-105.22948
1140000000,-3.3101108,-105.36961
1141000000,-3.3168252,-105.37417
1142000000,-3.3230083,-105.50118
1143000000,-3.2823567,-105.35095
1144000000,-3.3101554,-105.79849
1145000000,-3.3084638,-105.82693
1146000000,-3.304914,-105.77106
1147000000,-3.2809541,-105.90549
1148000000,-3.2966917,-105.99597
1149000000,-3.2954259,-106.04414
1150000000,-3.3107455,-106.27146
1151000000,-3.3173504,-106.25132
1152000000,-3.2783864,-106.39413
1153000000,-3.2929566,-106.36574
1154000000,-3.3242731,-106.55842
1155000000,-3.288136,-106.89366
1156000000,-3.2859199,-106.87144
1157000000,-3.2989321,-106.82957
1158000000,-3.3048391,-106.91302
1159000000,-3.3149669,-107.08723
1160000000,-3.2696495,-107.10748
1161000000,-3.3042147,-107.09969
1162000000,-3.3144491,-107.35252
1163000000,-3.3085001,-107.39706
1164000000,-3.3333271,-107.45665
1165000000,-3.3010154,-107.62519
1166000000,-3.282094,-107.67661
1167000000,-3.2934194,-107.83859
1168000000,-3.2960327,-107.94295
1169000000,-3.3102725,-107.96626
1170000000,-3.2857852,-108.1278
1171000000,-3.2861309,-108.21351
1172000000,-3.3063083,-108.18752
1173000000,-3.3133583,-108.29445
1174000000,-3.3365052,-108.25565
1175000000,-3.3079386,-108.69226
1176000000,-3.2935283,-108.58237
1177000000,-3.307409,-108.74121
1178000000,-3.297821,-108.83698
1179000000,-3.3035872,-108.93023
1180000000,-3.2948563,-109.04113
1181000000,-3.2910936,-109.10737
1182000000,-3.2622781,-109.38131
1183000000,-3.2830405,-109.37486
1184000000,-3.3271601,-109.42213
1185000000,-3.3263872,-109.4072
1186000000,-3.2919872,-109.5364
1187000000,-3.3156688,-109.7674
1188000000,-3.2898293,-109.87477
1189000000,-3.3215561,-110.0723
1190000000,-3.2815495,-109.98704
1191000000,-3.2934175,-109.96235
1192000000,-3.2809501,-110.2256
1193000000,-3.2935545,-110.20641
1194000000,-3.2833235,-110.26839
1195000000,-3.3078136,-110.51374
1196000000,-3.2913804,-110.6237
1197000000,-3.3213198,-110.83795
1198000000,-3.3141496,-110.83205
1199000000,-3.2846918,-110.89138
1200000000,-3.3017137,-111.0008
1201000000,-3.282418,-110.94623
1202000000,-3.3014312,-111.09499
1203000000,-3.3017182,-111.13448
1204000000,-3.2970417,-111.30995
1205000000,-3.3156273,-111.4113
1206000000,-3.3080819,-111.34203
1207000000,-3.2910469,-111.39965
1208000000,-3.312058,-111.68256
1209000000,-3.2994533,-111.80804
1210000000,-3.3214746,-111.80457
1211000000,-3.2888615,-112.02848
1212000000,-3.3044655,-112.05479
1213000000,-3.3030972,-112.21555
1214000000,-3.2830482,-112.15967
1215000000,-3.2820354,-112.36352
1216000000,-3.2975295,-112.36388
1217000000,-3.2885499,-112.6208
1218000000,-3.2771368,-112.63917
1219000000,-3.2806501,-112.65452
1220000000,-3.2801085,-112.82411
1221000000,-3.2997468,-112.89458
1222000000,-3.3191955,-112.80045
1223000000,-3.3073575,-113.12365
1224000000,-3.2755747,-113.03423
1225000000,-3.2943072,-113.08951
1226000000,-3.3231652,-113.43501
1227000000,-3.3225121,-113.48432
1228000000,-3.3052256,-113.54817
1229000000,-3.3000727,-113.66997
1230000000,-3.3048217,-113.76283
1231000000,-3.2963624,-113.9797
1232000000,-3.2992842,-113.87566
1233000000,-3.293679,-114.0598
1234000000,-3.3292484,-114.23734
1235000000,-3.2815831,-114.13417
1236000000,-3.2888501,-114.27256
1237000000,-3.2681568,-114.2931
1238000000,-3.3032062,-114.51398
1239000000,-3.3208647,-114.67605
1240000000,-3.310729,-114.71297
1241000000,-3.2912042,-114.75249
1242000000,-3.2869244,-114.71027
1243000000,-3.3179107,-114.93431
1244000000,-3.2843471,-115.08459
1245000000,-3.3178768,-115.19781
1246000000,-3.2853744,-115.24279
1247000000,-3.29109,-115.46323
1248000000,-3.2864797,-115.61031
1249000000,-3.2866094,-115.4752
1250000000,-3.3005927,-115.64996
1251000000,-3.2702985,-115.72859
1252000000,-3.2748792,-115.8802
1253000000,-3.3215249,-116.023
1254000000,-3.3299575,-116.21909
1255000000,-3.2897093,-116.06731
1256000000,-3.296854,-116.1228
1257000000,-3.2833509,-116.31484
1258000000,-3.2793648,-116.42245
1259000000,-3.2907395,-116.56319
1260000000,-3.2778728,-116.43123
1261000000,-3.3204634,-116.57153
1262000000,-3.2901883,-116.74602
1263000000,-3.2870495,-116.89344
1264000000,-3.3165987,-116.8859
1265000000,-3.2876003,-116.87103
1266000000,-3.3023624,-117.02678
1267000000,-3.3011107,-117.28654
1268000000,-3.2924278,-117.28547
1269000000,-3.2717938,-117.28495
1270000000,-3.3249006,-117.57271
1271000000,-3.3158586,-117.57021
1272000000,-3.3038394,-117.77716
1273000000,-3.2893014,-117.71796
1274000000,-3.2832782,-117.93684
1275000000,-3.2898338,-118.03976
1276000000,-3.3254118,-118.02599
1277000000,-3.2968335,-118.12335
1278000000,-3.2770638,-118.26273
1279000000,-3.2782605,-118.4385
1280000000,-3.2853973,-118.55814
1281000000,-3.3245506,-118.54657
1282000000,-3.3034105,-118.52545
1283000000,-3.2995679,-118.9001
1284000000,-3.2785685,-118.89955
1285000000,-3.287291,-118.83869
1286000000,-3.3051505,-118.86373
1287000000,-3.3155901,-118.92782
1288000000,-3.3039632,-119.05031
1289000000,-3.3110061,-119.25058
1290000000,-3.3000007,-119.50156
1291000000,-3.2917857,-119.49047
1292000000,-3.2777505,-119.82442
1293000000,-3.3107088,-119.63673
1294000000,-3.2891002,-119.55204
1295000000,-3.2785549,-119.79285
1296000000,-3.2776949,-119.66393
1297000000,-3.3189864,-119.97967
1298000000,-3.297332,-120.32254
1299000000,-3.3099954,-120.0686
1300000000,-3.2876847,-120.46262
1301000000,-3.3023717,-120.42767
1302000000,-3.2779589,-120.43562
1303000000,-3.2538381,-120.65778
1304000000,-3.3014569,-120.55485
1305000000,-3.3010616,-120.75944
1306000000,-3.3148794,-120.75387
1307000000,-3.3030171,-121.06375
1308000000,-3.3220923,-120.79456
1309000000,-3.2823071,-121.10949
1310000000,-3.3008549,-121.25804
1311000000,-3.2900808,-121.28762
1312000000,-3.279732,-121.30775
1313000000,-3.3068459,-121.61897
1314000000,-3.3046737,-121.82806
1315000000,-3.2952139,-121.7643
1316000000,-3.3020313,-121.90282
1317000000,-3.2779362,-121.87541
1318000000,-3.295572,-121.85853
1319000000,-3.2998033,-122.20512
1320000000,-3.3026569,-122.19151
1321000000,-3.3046885,-122.24659
1322000000,-3.2865067,-122.26648
1323000000,-3.3131678,-122.53255
1324000000,-3.3068314,-122.39959
1325000000,-3.2828352,-122.43901
1326000000,-3.2812972,-122.52648
1327000000,-3.2708614,-122.68323
1328000000,-3.283819,-122.96067
1329000000,-3.3143353,-122.93013
1330000000,-3.2953668,-123.1669
1331000000,-3.2925506,-123.31061
1332000000,-3.2840919,-123.35315
1333000000,-3.3055074,-123.53856
1334000000,-3.2603087,-123.50748
1335000000,-3.2919972,-123.50676
1336000000,-3.2939494,-123.5845
1337000000,-3.2754099,-123.67461
1338000000,-3.2877443,-123.79853
1339000000,-3.2805154,-123.95228
1340000000,-3.3087485,-123.94284
1341000000,-3.2989132,-124.11254
1342000000,-3.271153,-124.34633
1343000000,-3.2765951,-124.37925
1344000000,-3.2896249,-124.32414
1345000000,-3.297935,-124.59144
1346000000,-3.3004453,-124.72324
1347000000,-3.2861595,-124.75331
1348000000,-3.2990458,-124.69428
1349000000,-3.3049412,-125.00077
1350000000,-3.313091,-124.98114
1351000000,-3.2813821,-124.86896
1352000000,-3.3046775,-125.29361
1353000000,-3.2704904,-125.41854
1354000000,-3.3076944,-125.24723
1355000000,-3.320554,-125.30628
1356000000,-3.2971964,-125.5408
1357000000,-3.2829638,-125.65902
1358000000,-3.2752421,-125.78949
1359000000,-3.2740288,-125.89876
1360000000,-3.2769625,-125.96217
1361000000,-3.321352,-126.10265
1362000000,-3.3062468,-126.28676
1363000000,-3.2864096,-126.18715
1364000000,-3.301542,-126.36297
1365000000,-3.3055997,-126.42287
1366000000,-3.265213,-126.49303
1367000000,-3.2746749,-126.45859
1368000000,-3.291486,-126.6356
1369000000,-3.2838552,-126.70985
1370000000,-3.2845778,-126.91788
1371000000,-3.2926974,-126.83719
1372000000,-3.2859044,-127.24702
1373000000,-3.2791243,-127.217
1374000000,-3.2928054,-127.20992
1375000000,-3.283803,-127.21916
1376000000,-3.2927001,-127.37717
1377000000,-3.2770586,-127.55555
1378000000,-3.2809415,-127.60339
1379000000,-3.2978554,-127.81506
1380000000,-3.2943864,-127.79327
1381000000,-3.3238397,-127.86414
1382000000,-3.2874339,-127.97488
1383000000,-3.2909613,-128.07388
1384000000,-3.2875969,-128.09003
1385000000,-3.2816491,-128.19771
1386000000,-3.2762461,-128.271
1387000000,-3.2999437,-128.29858
1388000000,-3.3035131,-128.5699
1389000000,-3.2844713,-128.60724
1390000000,-3.3031194,-128.74338
1391000000,-3.2960706,-128.91283
1392000000,-3.3035593,-128.88481
1393000000,-3.2925491,-128.93184
1394000000,-3.2871337,-129.23698
1395000000,-3.2665579,-129.01306
1396000000,-3.2748015,-129.40213
1397000000,-3.316293,-129.40518
1398000000,-3.2888744,-129.60258
1399000000,-3.2655599,-129.32742
1400000000,-3.3052082,-129.70042
1401000000,-3.2860069,-129.83144
1402000000,-3.2767382,-129.68112
1403000000,-3.2779837,-129.95915
1404000000,-3.2925255,-129.90149
1405000000,-3.2855122,-130.1665
1406000000,-3.295444,-130.20558
1407000000,-3.3071225,-130.21576
1408000000,-3.2936218,-130.19205
1409000000,-3.2721705,-130.43839
1410000000,-3.2817729,-130.63147
1411000000,-3.2637906,-130.75763
1412000000,-3.2820573,-130.84593
1413000000,-3.2789025,-130.93733
1414000000,-3.2785244,-130.9478
1415000000,-3.2755094,-131.11984
1416000000,-3.243103,-131.21992
1417000000,-3.2639544,-131.28419
1418000000,-3.2657187,-131.38632
1419000000,-3.2852647,-131.58897
1420000000,-3.3040166,-131.28564
1421000000,-3.263525,-131.66823
1422000000,-3.2746778,-131.66354
1423000000,-3.2555654,-131.688
1424000000,-3.2752295,-131.98862
1425000000,-3.2769425,-131.931
1426000000,-3.2808645,-132.10535
1427000000,-3.2966955,-132.04222
1428000000,-3.2566574,-132.24593
1429000000,-3.2640557,-132.25177
1430000000,-3.2940595,-132.31415
1431000000,-3.2675173,-132.61597
1432000000,-3.2729578,-132.59581
1433000000,-3.2988987,-132.69865
1434000000,-3.2929857,-132.78433
1435000000,-3.2610836,-132.85585
1436000000,-3.2688508,-133.07088
1437000000,-3.2812309,-133.05
1438000000,-3.2797282,-133.20183
1439000000,-3.2994039,-133.44395
1440000000,-3.2932556,-133.42682
1441000000,-3.2968984,-133.42975
1442000000,-3.2879653,-133.4449
1443000000,-3.2766852,-133.80814
1444000000,-3.2693284,-133.59766
1445000000,-3.2714732,-133.8074
1446000000,-3.2817538,-133.98027
1447000000,-3.2606263,-133.91107
1448000000,-3.2646585,-134.17526
1449000000,-3.2861464,-134.26822
1450000000,-3.2934637,-134.36986
1451000000,-3.2849226,-134.54483
1452000000,-3.2646251,-134.56898
1453000000,-3.290221,-134.70885
1454000000,-3.2787507,-134.76332
1455000000,-3.2914667,-134.86653
1456000000,-3.2882531,-134.94128
1457000000,-3.2580688,-135.01338
1458000000,-3.2819991,-135.15332
1459000000,-3.3057983,-135.26125
1460000000,-3.2850807,-134.99178
1461000000,-3.265167,-135.62213
1462000000,-3.2700641,-135.44751
1463000000,-3.2970312,-135.53085
1464000000,-3.2717247,-135.64693
1465000000,-3.2928045,-135.84276
1466000000,-3.2869463,-135.70961
1467000000,-3.2700236,-135.86797
1468000000,-3.257865,-136.07112
1469000000,-3.2733548,-136.29482
1470000000,-3.274519,-136.2507
1471000000,-3.2672641,-136.38882
1472000000,-3.256362,-136.49292
1473000000,-3.2618959,-136.56158
1474000000,-3.2669358,-136.51106
1475000000,-3.2953506,-136.9158
1476000000,-3.247936,-136.74359
1477000000,-3.2878861,-136.73059
1478000000,-3.30935,-136.91724
1479000000,-3.2892325,-137.11748
1480000000,-3.2827303,-137.26701
1481000000,-3.2611866,-137.23361
1482000000,-3.2590814,-137.55569
1483000000,-3.2873518,-137.46628
1484000000,-3.2537358,-137.48529
1485000000,-3.2626598,-137.59955
1486000000,-3.2756011,-137.64832
1487000000,-3.2862782,-137.90407
1488000000,-3.3001559,-137.72633
1489000000,-3.2630544,-137.99989
1490000000,-3.2558928,-137.92456
1491000000,-3.2729731,-138.29312
1492000000,-3.2703629,-138.31752
1493000000,-3.2598045,-138.26616
1494000000,-3.2900722,-138.33046
1495000000,-3.2760077,-138.50523
1496000000,-3.2766137,-138.57449
1497000000,-3.2774315,-138.82326
1498000000,-3.2670996,-138.77707
1499000000,-3.2679391,-139.00908
1500000000,-3.2797554,-139.24008
1501000000,-3.2840004,-139.15071
1502000000,-3.2889438,-139.21317
1503000000,-3.2549753,-139.22008
1504000000,-3.2630022,-139.3606
1505000000,-3.278738,-139.6409
1506000000,-3.3047669,-139.57683
1507000000,-3.2620447,-139.83571
1508000000,-3.2623527,-139.81583
1509000000,-3.2574708,-139.92599
1510000000,-3.2713845,-139.9753
1511000000,-3.2891088,-139.95773
1512000000,-3.267349,-140.05096
1513000000,-3.2746546,-140.23694
1514000000,-3.2533317,-140.23418
1515000000,-3.2747369,-140.42804
1516000000,-3.2749295,-140.57797
1517000000,-3.283287,-140.59796
1518000000,-3.2574112,-140.49437
1519000000,-3.2744477,-140.52631
1520000000,-3.2333477,-140.79312
1521000000,-3.277004,-141.06662
1522000000,-3.2791867,-141.12259
1523000000,-3.2808821,-141.2793
1524000000,-3.2873302,-141.26057
1525000000,-3.2649586,-141.29195
1526000000,-3.2562454,-141.68765
1527000000,-3.2864561,-141.63445
1528000000,-3.2874868,-141.49309
1529000000,-3.271595,-141.72475
1530000000,-3.2866199,-141.81311
1531000000,-3.2832439,-142.02837
1532000000,-3.2664177,-141.99182
1533000000,-3.2782507,-142.01811
1534000000,-3.2728252,-142.21461
1535000000,-3.2711794,-142.28839
1536000000,-3.2433555,-142.50745
1537000000,-3.2636092,-142.65121
1538000000,-3.2492158,-142.54971
1539000000,-3.2799084,-142.59367
1540000000,-3.2700338,-142.79788
1541000000,-3.2746806,-142.95192
1542000000,-3.2844424,-142.75175
1543000000,-3.2951152,-143.22552
1544000000,-3.2675483,-143.15335
1545000000,-3.284693,-143.30606
1546000000,-3.251184,-143.41818
1547000000,-3.2797873,-143.54849
1548000000,-3.2603271,-143.34738
1549000000,-3.2672892,-143.67279
1550000000,-3.3065269,-143.85971
1551000000,-3.2584152,-143.83865
1552000000,-3.2476256,-143.9068
1553000000,-3.276845,-143.94014
1554000000,-3.2633345,-143.92511
1555000000,-3.2672458,-144.1463
1556000000,-3.2443841,-144.12033
1557000000,-3.2656097,-144.44298
1558000000,-3.2625251,-144.40967
1559000000,-3.2655561,-144.55263
1560000000,-3.2720351,-144.67128
1561000000,-3.2374754,-144.73221
1562000000,-3.269624,-144.94235
1563000000,-3.2864184,-144.86882
1564000000,-3.2568419,-144.936
1565000000,-3.2674003,-145.03918
1566000000,-3.2437317,-145.01163
1567000000,-3.2444763,-145.31544
1568000000,-3.2845395,-145.33307
1569000000,-3.2824945,-145.49467
1570000000,-3.2372286,-145.64839
1571000000,-3.2583852,-145.66718
1572000000,-3.2515399,-145.60324
1573000000,-3.2567983,-146.08841
1574000000,-3.2465587,-145.92548
1575000000,-3.2303236,-146.23399
1576000000,-3.2227108,-146.16971
1577000000,-3.2452464,-146.42502
1578000000,-3.2595639,-146.38602
1579000000,-3.2717862,-146.52069
1580000000,-3.2595224,-146.45932
1581000000,-3.2517958,-146.68004
1582000000,-3.2583802,-146.76291
1583000000,-3.2464314,-146.8347
1584000000,-3.2631495,-147.08232
1585000000,-3.2505331,-146.89496
1586000000,-3.2653995,-147.32413
1587000000,-3.2620444,-147.13481
1588000000,-3.2762909,-147.2438
1589000000,-3.2567167,-147.3231
1590000000,-3.240236,-147.52882
1591000000,-3.2701201,-147.52992
1592000000,-3.2684913,-147.67551
1593000000,-3.2272806,-147.75439
1594000000,-3.2768843,-147.79305
1595000000,-3.2550955,-147.99751
1596000000,-3.2558963,-148.00563
1597000000,-3.2667708,-148.12038
1598000000,-3.2406714,-148.33707
1599000000,-3.2422779,-148.33827
1600000000,-3.2268121,-148.54503
1601000000,-3.2384484,-148.45638
1602000000,-3.232399,-148.73187
1603000000,-3.258836,-148.72693
1604000000,-3.2525294,-148.83665
1605000000,-3.2482231,-148.86534
1606000000,-3.2427504,-148.99071
1607000000,-3.2562728,-149.06667
1608000000,-3.2634935,-149.27008
1609000000,-3.26209,-149.42993
1610000000,-3.2537851,-149.48238
1611000000,-3.2399759,-149.73756
1612000000,-3.2517262,-149.50394
1613000000,-3.2452457,-149.73729
1614000000,-3.2799625,-149.6725
1615000000,-3.2425811,-149.728
1616000000,-3.2531383,-149.89635
1617000000,-3.2398658,-149.95454
1618000000,-3.2328246,-150.17062
1619000000,-3.2113574,-150.26982
1620000000,-3.2349949,-150.48322
1621000000,-3.2377141,-150.27434
1622000000,-3.261678,-150.55388
1623000000,-3.247009,-150.67386
1624000000,-3.2293878,-150.66824
1625000000,-3.2479312,-150.8857
1626000000,-3.2688563,-150.71295
1627000000,-3.2523205,-150.99348
1628000000,-3.2765276,-151.11932
1629000000,-3.2653668,-151.27397
1630000000,-3.2436295,-151.32921
1631000000,-3.2566631,-151.43788
1632000000,-3.2493634,-151.44507
1633000000,-3.2374377,-151.55684
1634000000,-3.2618632,-151.64095
1635000000,-3.2485425,-151.64877
1636000000,-3.2673903,-151.9666
1637000000,-3.2234993,-151.86423
1638000000,-3.2420788,-152.11272
1639000000,-3.2333789,-152.22244
1640000000,-3.2617145,-152.30879
1641000000,-3.2389593,-152.32228
1642000000,-3.2449608,-152.50511
1643000000,-3.240464,-152.61749
1644000000,-3.2303343,-152.59032
1645000000,-3.2229226,-152.73645
1646000000,-3.2616291,-152.74446
1647000000,-3.22594,-152.95045
1648000000,-3.2479696,-152.99826
1649000000,-3.2451253,-153.07152
1650000000,-3.2316263,-153.17857
1651000000,-3.245398,-153.22961
1652000000,-3.2461848,-153.33009
1653000000,-3.2590432,-153.47064
1654000000,-3.2305465,-153.69641
1655000000,-3.2372401,-153.7858
1656000000,-3.2437589,-153.6579
1657000000,-3.2513528,-153.74179
1658000000,-3.2473536,-153.89848
1659000000,-3.2452188,-153.91476
1660000000,-3.2494974,-154.21178
1661000000,-3.2325521,-154.13551
1662000000,-3.2574456,-154.30302
1663000000,-3.2268722,-154.39372
1664000000,-3.2396126,-154.53256
1665000000,-3.2483051,-154.54063
1666000000,-3.218112,-154.66522
1667000000,-3.2287352,-154.77551
1668000000,-3.2591879,-154.82533
1669000000,-3.2389257,-154.98434
1670000000,-3.2390027,-155.0705
1671000000,-3.2343731,-155.19783
1672000000,-3.2474642,-155.24829
1673000000,-3.2440262,-155.43222
1674000000,-3.2422364,-155.52103
1675000000,-3.2255046,-155.56528
1676000000,-3.2723181,-155.6006
1677000000,-3.2541506,-155.72173
1678000000,-3.2569094,-155.84761
1679000000,-3.2472851,-156.05905
1680000000,-3.2500095,-155.99646
1681000000,-3.2631681,-155.90392
1682000000,-3.2515779,-156.13536
1683000000,-3.2142532,-156.31133
1684000000,-3.2363617,-156.37233
1685000000,-3.2298071,-156.46072
1686000000,-3.2616398,-156.72488
1687000000,-3.2286503,-156.65137
1688000000,-3.2539032,-156.68384
1689000000,-3.2279937,-156.97137
1690000000,-3.2421927,-156.94473
1691000000,-3.2347906,-157.09157
1692000000,-3.2246785,-157.17976
1693000000,-3.2680192,-157.29715
1694000000,-3.2288542,-157.58194
1695000000,-3.2473984,-157.68677
1696000000,-3.1999705,-157.66913
1697000000,-3.2464614,-157.65161
1698000000,-3.2324586,-157.7317
1699000000,-3.2112539,-157.7953
1700000000,-3.2360945,-157.97844
1701000000,-3.2275186,-158.00984
1702000000,-3.2393456,-158.21442
1703000000,-3.2444768,-158.32152
1704000000,-3.246686,-158.25536
1705000000,-3.23983,-158.29173
1706000000,-3.2382503,-158.65311
1707000000,-3.2506294,-158.80367
1708000000,-3.2252491,-158.84731
1709000000,-3.2454143,-158.81714
1710000000,-3.2109644,-158.96179
1711000000,-3.253577,-158.89822
1712000000,-3.2276876,-158.91924
1713000000,-3.2385476,-159.36189
1714000000,-3.234354,-159.48344
1715000000,-3.2320871,-159.40326
1716000000,-3.2739675,-159.56357
1717000000,-3.2247915,-159.54878
1718000000,-3.2642221,-159.7986
1719000000,-3.2498488,-159.75914
1720000000,-3.2278535,-159.8354
1721000000,-3.241015,-159.99831
1722000000,-3.2366312,-159.98788
1723000000,-3.2569525,-160.00648
1724000000,-3.2358501,-160.19708
1725000000,-3.2515364,-160.30034
1726000000,-3.232347,-160.45084
1727000000,-3.223664,-160.50272
1728000000,-3.2294984,-160.52374
1729000000,-3.2531948,-160.71829
1730000000,-3.2504385,-160.8289
1731000000,-3.2081814,-160.83841
1732000000,-3.2473752,-161.11908
1733000000,-3.2366924,-161.41153
1734000000,-3.230473,-161.18695
1735000000,-3.2421956,-161.15746
1736000000,-3.2298388,-161.33276
1737000000,-3.2362111,-161.30264
1738000000,-3.2229843,-161.73553
1739000000,-3.2268066,-161.65173
1740000000,-3.2353473,-161.71083
1741000000,-3.2234526,-161.8441
1742000000,-3.2570753,-161.97383
1743000000,-3.2459812,-162.20573
1744000000,-3.2217104,-162.08379
1745000000,-3.2250159,-162.2253
1746000000,-3.2410319,-162.30789
1747000000,-3.2520599,-162.52635
1748000000,-3.2630506,-162.58408
1749000000,-3.2432151,-162.64073
1750000000,-3.2271454,-162.73058
1751000000,-3.2229311,-163.02278
1752000000,-3.2324154,-162.89308
1753000000,-3.2316988,-163.01945
1754000000,-3.2234976,-163.25247
1755000000,-3.2453518,-163.4021
1756000000,-3.2538571,-163.32785
1757000000,-3.2299678,-163.56935
1758000000,-3.2166853,-163.57425
1759000000,-3.2396812,-163.63718
1760000000,-3.2403283,-163.69038
1761000000,-3.2340448,-163.75085
1762000000,-3.2241247,-163.92812
1763000000,-3.2418284,-163.98212
1764000000,-3.2270555,-164.14458
1765000000,-3.2210965,-164.2827
1766000000,-3.2396162,-164.35405
1767000000,-3.2292545,-164.43954
1768000000,-3.2042344,-164.52408
1769000000,-3.2111738,-164.43753
1770000000,-3.2330701,-164.68916
1771000000,-3.2387702,-164.79434
1772000000,-3.1844118,-164.96068
1773000000,-3.1895547,-164.90825
1774000000,-3.2435968,-165.05222
1775000000,-3.2217429,-165.04416
1776000000,-3.216943,-165.37172
1777000000,-3.2366817,-165.33815
1778000000,-3.2263653,-165.41528
1779000000,-3.212991,-165.35368
1780000000,-3.2170768,-165.59801
1781000000,-3.2261174,-165.79616
1782000000,-3.2112985,-165.75525
1783000000,-3.2182455,-166.00507
1784000000,-3.2306821,-166.11612
1785000000,-3.2129967,-166.035
1786000000,-3.225204,-166.25146
1787000000,-3.2343171,-166.39946
1788000000,-3.2226636,-166.22728
1789000000,-3.2241294,-166.40698
1790000000,-3.2301419,-166.67574
1791000000,-3.2124031,-166.6833
1792000000,-3.2261937,-166.88326
1793000000,-3.2149043,-166.95395
1794000000,-3.1987669,-167.04802
1795000000,-3.2295752,-167.17462
1796000000,-3.2271774,-167.24991
1797000000,-3.2282627,-167.26233
1798000000,-3.2225618,-167.37762
1799000000,-3.2453489,-167.46782
1800000000,-3.2215466,-167.4353
1801000000,-3.238764,-167.73056
1802000000,-3.2323604,-167.91109
1803000000,-3.2367454,-167.93011
1804000000,-3.2294934,-167.97739
1805000000,-3.2335784,-168.13641
1806000000,-3.2246993,-168.24171
1807000000,-3.2314129,-168.22523
1808000000,-3.2128923,-168.2655
1809000000,-3.2440612,-168.61862
1810000000,-3.2332139,-168.42746
1811000000,-3.2189543,-168.67465
1812000000,-3.2199378,-168.73912
1813000000,-3.2508016,-168.8437
1814000000,-3.2175839,-168.99567
1815000000,-3.2376335,-169.15904
1816000000,-3.2402346,-169.17879
1817000000,-3.2236099,-169.27365
1818000000,-3.2139907,-169.38593
1819000000,-3.2622492,-169.53986
1820000000,-3.2165489,-169.47498
1821000000,-3.2370067,-169.53868
1822000000,-3.218008,-169.66019
1823000000,-3.2232962,-169.76291
1824000000,-3.2216678,-169.72658
1825000000,-3.2350659,-170.07304
1826000000,-3.233752,-170.07278
1827000000,-3.2071269,-170.14827
1828000000,-3.2074099,-170.28416
1829000000,-3.2099502,-170.25041
1830000000,-3.2385952,-170.42014
1831000000,-3.2120981,-170.49947
1832000000,-3.2422154,-170.62708
1833000000,-3.2441556,-170.77165
1834000000,-3.229609,-170.69601
1835000000,-3.2023106,-170.98709
1836000000,-3.2275944,-170.93114
1837000000,-3.2243404,-171.19086
1838000000,-3.2354629,-171.30756
1839000000,-3.2383139,-171.27559
1840000000,-3.2351413,-171.33865
1841000000,-3.2425666,-171.54036
1842000000,-3.2099216,-171.66777
1843000000,-3.2075729,-171.69972
1844000000,-3.248569,-171.77248
1845000000,-3.2316458,-171.86934
1846000000,-3.2347534,-172.20888
1847000000,-3.2459776,-172.0764
1848000000,-3.2603669,-172.2809
1849000000,-3.2051313,-172.32643
1850000000,-3.2518382,-172.28459
1851000000,-3.2224274,-172.33658
1852000000,-3.2460272,-172.46124
1853000000,-3.2197502,-172.71819
1854000000,-3.2602324,-172.68217
1855000000,-3.2361133,-172.74324
1856000000,-3.2130556,-173.01683
1857000000,-3.1948125,-173.0504
1858000000,-3.2218513,-173.16153
1859000000,-3.2326317,-173.12465
1860000000,-3.2135866,-173.35771
1861000000,-3.2474411,-173.60405
1862000000,-3.2486589,-173.39642
1863000000,-3.2360139,-173.72591
1864000000,-3.2282228,-173.48763
1865000000,-3.2322383,-173.7934
1866000000,-3.2516842,-173.76717
1867000000,-3.2573776,-174.02852
1868000000,-3.2376978,-173.94243
1869000000,-3.2419791,-174.06895
1870000000,-3.2472456,-174.32721
1871000000,-3.2187705,-174.20998
1872000000,-3.1932716,-174.66045
1873000000,-3.2315898,-174.45279
1874000000,-3.2271559,-174.6396
1875000000,-3.2371778,-174.76608
1876000000,-3.2059996,-174.97487
1877000000,-3.2313049,-174.99127
1878000000,-3.2177882,-175.06647
1879000000,-3.233161,-175.37924
1880000000,-3.2121,-175.33032
1881000000,-3.2027779,-175.25426
1882000000,-3.2162936,-175.40521
1883000000,-3.2305875,-175.54961
1884000000,-3.2591312,-175.68881
1885000000,-3.2219057,-175.86108
1886000000,-3.2381921,-176.03323
1887000000,-3.228637,-175.9304
1888000000,-3.230973,-175.96468
1889000000,-3.2065597,-176.08768
1890000000,-3.2172952,-176.08752
1891000000,-3.2132268,-176.5062
1892000000,-3.255661,-176.58131
1893000000,-3.2262642,-176.479
1894000000,-3.2390714,-176.51299
1895000000,-3.2273054,-176.87755
1896000000,-3.2428555,-176.81708
1897000000,-3.2384191,-176.96819
1898000000,-3.2307327,-177.04886
1899000000,-3.2313156,-177.08519
1900000000,-3.2254329,-177.2448
1901000000,-3.2427237,-177.37477
1902000000,-3.2422521,-177.17816
1903000000,-3.2182839,-177.5825
1904000000,-3.2256448,-177.62622
1905000000,-3.2318523,-177.63805
1906000000,-3.2486634,-177.82826
1907000000,-3.247736,-177.84727
1908000000,-3.2318151,-177.91371
1909000000,-3.1968977,-178.04419
1910000000,-3.2508612,-178.16008
1911000000,-3.2379923,-178.21523
1912000000,-3.2348309,-178.35347
1913000000,-3.2331429,-178.27138
1914000000,-3.2224681,-178.59067
1915000000,-3.22721,-178.56052
1916000000,-3.2430036,-178.60509
1917000000,-3.2379956,-178.81996
1918000000,-3.2327237,-178.88007
1919000000,-3.2432601,-179.03395
1920000000,-3.2455845,-179.04933
1921000000,-3.2760153,-179.19981
1922000000,-3.2476583,-179.35693
1923000000,-3.2214456,-179.4234
1924000000,-3.2532532,-179.43604
1925000000,-3.2467198,-179.51341
1926000000,-3.2357538,-179.71327
1927000000,-3.2440617,-179.5983
1928000000,-3.2319858,-179.6552
1929000000,-3.2296441,-179.9547
1930000000,-3.2436855,-180.02313
1931000000,-3.248569,-180.07808
1932000000,-3.2448418,-180.11592
1933000000,-3.2169721,-180.24947
1934000000,-3.22665,-180.3719
1935000000,-3.2479417,-180.46268
1936000000,-3.2433665,-180.53806
1937000000,-3.2492635,-180.56033
1938000000,-3.2322521,-180.86635
1939000000,-3.2344968,-180.91669
1940000000,-3.2296865,-181.03444
1941000000,-3.2391186,-181.08292
1942000000,-3.2241802,-181.03476
1943000000,-3.2247865,-181.31956
1944000000,-3.2412598,-181.28313
1945000000,-3.1987364,-181.55177
1946000000,-3.2227857,-181.60643
1947000000,-3.2124045,-181.78229
1948000000,-3.2576907,-181.82143
1949000000,-3.2673492,-181.77631
1950000000,-3.2188978,-181.92143
1951000000,-3.2502894,-181.98486
1952000000,-3.2440698,-182.017
1953000000,-3.2313397,-182.35075
1954000000,-3.2171166,-182.44073
1955000000,-3.2249112,-182.52516
1956000000,-3.2457778,-182.50446
1957000000,-3.2593703,-182.57979
1958000000,-3.2543087,-182.86348
1959000000,-3.2080476,-182.97377
1960000000,-3.2499561,-183.06891
1961000000,-3.2570529,-183.03198
1962000000,-3.2543569,-183.18867
1963000000,-3.2537634,-183.20816
1964000000,-3.2479172,-183.35637
1965000000,-3.2454855,-183.52161
1966000000,-3.2302666,-183.40723
1967000000,-3.2417657,-183.72913
1968000000,-3.2477806,-183.68744
1969000000,-3.2093422,-183.79942
1970000000,-3.2350161,-183.81107
1971000000,-3.2412667,-184.09204
1972000000,-3.2270436,-184.02895
1973000000,-3.2300134,-184.18002
1974000000,-3.2223866,-184.50305
1975000000,-3.2414081,-184.54398
1976000000,-3.2228293,-184.58563
1977000000,-3.2395647,-184.56509
1978000000,-3.2399616,-184.65689
1979000000,-3.2425804,-184.61073
1980000000,-3.2368805,-184.7941
1981000000,-3.2320142,-184.98174
1982000000,-3.2693496,-184.89958
1983000000,-3.2373157,-185.09727
1984000000,-3.2398748,-185.23576
1985000000,-3.2493124,-185.38358
1986000000,-3.2450597,-185.52965
1987000000,-3.2289143,-185.44641
1988000000,-3.241333,-185.68184
1989000000,-3.2368352,-185.63443
1990000000,-3.2677128,-185.83301
1991000000,-3.245645,-185.99551
1992000000,-3.2400117,-186.07991
1993000000,-3.2756417,-186.21823
1994000000,-3.2496068,-186.27292
1995000000,-3.2275763,-186.24356
1996000000,-3.2448401,-186.56566
1997000000,-3.239953,-186.72247
1998000000,-3.2380519,-186.52406
1999000000,-3.2861121,-186.80814
2000000000,-3.2732685,-186.89561
2001000000,-3.2729788,-186.86198
2002000000,-3.2355459,-186.89305
2003000000,-3.2838845,-187.20081
2004000000,-3.2573705,-187.15887
2005000000,-3.2371659,-187.25206
2006000000,-3.2516253,-187.43942
2007000000,-3.2452891,-187.38145
2008000000,-3.2668419,-187.62688
2009000000,-3.2569151,-187.4993
2010000000,-3.2184639,-187.80591
2011000000,-3.2522185,-187.77467
2012000000,-3.2528059,-187.86345
2013000000,-3.2503643,-188.0108
2014000000,-3.2267966,-188.16028
2015000000,-3.2465549,-188.11865
2016000000,-3.2752964,-188.37361
2017000000,-3.1952741,-188.57631
2018000000,-3.1990337,-188.27979
2019000000,-3.2640207,-188.56386
2020000000,-3.2399504,-188.75516
2021000000,-3.2474766,-188.58685
2022000000,-3.2460861,-188.85019
2023000000,-3.2695942,-189.01921
2024000000,-3.248456,-189.08566
2025000000,-3.2688742,-189.49306
2026000000,-3.255295,-189.23648
2027000000,-3.2353766,-189.48236
2028000000,-3.2390549,-189.47
2029000000,-3.2464836,-189.34384
2030000000,-3.2450991,-189.61285
2031000000,-3.2457683,-189.65932
2032000000,-3.2364025,-189.8297
2033000000,-3.2636905,-190.06584
2034000000,-3.2555716,-190.00784
2035000000,-3.2499237,-190.12534
2036000000,-3.2320764,-190.31358
2037000000,-3.2445941,-190.42632
2038000000,-3.2444365,-190.55083
2039000000,-3.243346,-190.31297
2040000000,-3.2659926,-190.431
2041000000,-3.2463489,-190.72997
2042000000,-3.246067,-190.83096
2043000000,-3.2494106,-190.91167
2044000000,-3.2366595,-191.06242
2045000000,-3.2485316,-190.95494
2046000000,-3.2303605,-191.1485
2047000000,-3.2504199,-191.18193
2048000000,-3.2602274,-191.39111
2049000000,-3.2789218,-191.68741
2050000000,-3.2564576,-191.5918
2051000000,-3.263273,-191.71918
2052000000,-3.2559068,-191.85228
2053000000,-3.2347219,-191.91219
2054000000,-3.2570994,-192.0759
2055000000,-3.2293019,-192.28986
2056000000,-3.2623053,-192.12752
2057000000,-3.2747555,-192.20103
2058000000,-3.24951,-192.47888
2059000000,-3.2627821,-192.58493
2060000000,-3.2481289,-192.49461
2061000000,-3.2649362,-192.64685
2062000000,-3.2424581,-192.65709
2063000000,-3.2559137,-192.67787
2064000000,-3.2579656,-192.90018
2065000000,-3.2907813,-193.02071
2066000000,-3.2552061,-193.13779
2067000000,-3.2476203,-193.14487
2068000000,-3.2815034,-193.66632
2069000000,-3.2567585,-193.20059
2070000000,-3.2565124,-193.53166
2071000000,-3.2863798,-193.51289
2072000000,-3.2567711,-193.54811
2073000000,-3.2575147,-193.767
2074000000,-3.2359064,-193.7785
2075000000,-3.2666998,-194.05725
2076000000,-3.2697926,-194.08768
2077000000,-3.2448874,-193.97223
2078000000,-3.2426534,-194.25748
2079000000,-3.2624333,-194.20164
2080000000,-3.2622271,-194.4744
2081000000,-3.271873,-194.56442
2082000000,-3.2648277,-194.50839
2083000000,-3.2633424,-194.85416
2084000000,-3.2678468,-195.05963
2085000000,-3.286078,-195.00392
2086000000,-3.2556186,-194.87923
2087000000,-3.2531013,-195.23845
2088000000,-3.2594001,-195.2188
2089000000,-3.2421775,-195.11795
2090000000,-3.2311914,-195.34616
2091000000,-3.2484143,-195.55309
2092000000,-3.2772639,-195.53465
2093000000,-3.2665977,-195.41653
2094000000,-3.2415497,-195.73192
2095000000,-3.2410538,-195.80186
2096000000,-3.2480056,-195.92241
2097000000,-3.25738,-196.06564
2098000000,-3.269135,-196.03595
2099000000,-3.2722883,-196.21176
2100000000,-3.2496078,-196.49771
2101000000,-3.2468922,-196.54549
2102000000,-3.2567737,-196.49599
2103000000,-3.2378149,-196.76253
2104000000,-3.2759492,-196.77574
2105000000,-3.265965,-196.56934
2106000000,-3.2651994,-196.95485
2107000000,-3.2622707,-197.08769
2108000000,-3.2615693,-197.17418
2109000000,-3.2421863,-197.03543
2110000000,-3.2975314,-197.36176
2111000000,-3.2762918,-197.42621
2112000000,-3.2782202,-197.63885
2113000000,-3.2862461,-197.70908
2114000000,-3.2636404,-197.78752
2115000000,-3.2727568,-197.74855
2116000000,-3.2734342,-197.92059
2117000000,-3.2528741,-197.99533
2118000000,-3.2716901,-198.09203
2119000000,-3.2450063,-198.1236
2120000000,-3.2731633,-198.08296
2121000000,-3.2833891,-198.31592
2122000000,-3.2757926,-198.25142
2123000000,-3.2487819,-198.61148
2124000000,-3.2462206,-198.617
2125000000,-3.2872303,-198.90138
2126000000,-3.2526388,-198.90706
2127000000,-3.2739859,-198.73921
2128000000,-3.2910116,-199.02359
2129000000,-3.2512929,-199.23251
2130000000,-3.2711601,-199.0928
2131000000,-3.269804,-199.4429
2132000000,-3.2707806,-199.47713
2133000000,-3.2488892,-199.41931
2134000000,-3.2662494,-199.72859
2135000000,-3.2637818,-199.812
2136000000,-3.28901,-199.69722
2137000000,-3.2721462,-199.89659
2138000000,-3.2734601,-199.88655
2139000000,-3.2843292,-200.07274
2140000000,-3.2925456,-200.20026
2141000000,-3.3041756,-200.04091
2142000000,-3.2788146,-200.3228
2143000000,-3.2886896,-200.60352
2144000000,-3.2617052,-200.60895
2145000000,-3.2876298,-200.60402
2146000000,-3.2590954,-200.7708
2147000000,-3.3147886,-200.87636
2148000000,-3.2638152,-200.7484
2149000000,-3.2990925,-200.97089
2150000000,-3.2540774,-201.00618
2151000000,-3.2691565,-201.27077
2152000000,-3.2767394,-201.37598
2153000000,-3.2608466,-201.36024
2154000000,-3.2736566,-201.56
2155000000,-3.2818165,-201.58344
2156000000,-3.256952,-201.63744
2157000000,-3.2723074,-201.6438
2158000000,-3.249337,-201.79277
2159000000,-3.2656984,-201.86996
2160000000,-3.2562695,-202.13272
2161000000,-3.2913284,-202.13124
2162000000,-3.2502267,-202.28755
2163000000,-3.2572341,-202.37662
2164000000,-3.3130021,-202.47813
2165000000,-3.2728209,-202.57816
2166000000,-3.3001692,-202.77347
2167000000,-3.2942545,-202.67
2168000000,-3.294836,-202.73599
2169000000,-3.3015177,-202.94217
2170000000,-3.2545562,-202.97623
2171000000,-3.2640581,-203.13855
2172000000,-3.2846892,-203.23781
2173000000,-3.2957718,-203.57994
2174000000,-3.2793837,-203.34979
2175000000,-3.2528765,-203.5289
2176000000,-3.2959008,-203.58252
2177000000,-3.2800193,-203.56586
2178000000,-3.2565832,-203.85162
2179000000,-3.2826085,-203.81766
2180000000,-3.2852015,-203.86446
2181000000,-3.2501593,-204.00362
2182000000,-3.2710266,-204.08618
2183000000,-3.2912879,-204.12547
2184000000,-3.2777195,-204.39827
2185000000,-3.2553558,-204.52924
2186000000,-3.2829156,-204.4252
2187000000,-3.3101332,-204.54782
2188000000,-3.2728572,-204.8006
2189000000,-3.286891,-204.71053
2190000000,-3.2830029,-204.65517
2191000000,-3.2979643,-204.93051
2192000000,-3.2808325,-204.95883
2193000000,-3.2987101,-205.34657
2194000000,-3.2928073,-205.25989
2195000000,-3.2975848,-205.2059
2196000000,-3.2807448,-205.56029
2197000000,-3.2894852,-205.74683
2198000000,-3.2529655,-205.61478
2199000000,-3.3007944,-205.73969
2200000000,-3.2910604,-205.97028
2201000000,-3.2648106,-206.02589
2202000000,-3.2639158,-205.98877
2203000000,-3.2858312,-206.22557
2204000000,-3.2691035,-206.35918
2205000000,-3.2948947,-206.32047
2206000000,-3.3031168,-206.33241
2207000000,-3.2792532,-206.60033
2208000000,-3.2745285,-206.66278
2209000000,-3.2884605,-206.90959
2210000000,-3.3050902,-206.80273
2211000000,-3.3195732,-206.71503
2212000000,-3.3493164,-207.132
2213000000,-3.2798119,-207.17177
2214000000,-3.2857249,-207.28532
2215000000,-3.282711,-207.24234
2216000000,-3.3098781,-207.40639
2217000000,-3.2496655,-207.55783
2218000000,-3.2879434,-207.66977
2219000000,-3.2798145,-207.65359
2220000000,-3.2930689,-207.80791
2221000000,-3.2732596,-207.90776
2222000000,-3.2750921,-207.78421
2223000000,-3.2992582,-207.96342
2224000000,-3.2681775,-208.08052
2225000000,-3.3050478,-208.09966
2226000000,-3.2816441,-208.23347
2227000000,-3.3255601,-208.4151
2228000000,-3.2738225,-208.47209
2229000000,-3.2665694,-208.52951
2230000000,-3.3014348,-208.73071
2231000000,-3.2957454,-208.88985
2232000000,-3.3105488,-208.8136
2233000000,-3.3229463,-209.00378
2234000000,-3.3152993,-209.04781
2235000000,-3.2907841,-209.21587
2236000000,-3.2939148,-209.09152
2237000000,-3.3001266,-209.50893
2238000000,-3.2769125,-209.48132
2239000000,-3.2932415,-209.5968
2240000000,-3.308969,-209.59286
2241000000,-3.2852385,-209.63922
2242000000,-3.3140957,-209.8324
2243000000,-3.3070321,-210.08276
2244000000,-3.313379,-210.06918
2245000000,-3.3031516,-209.94272
2246000000,-3.3174973,-210.12892
2247000000,-3.2861221,-210.4196
2248000000,-3.2612784,-210.4128
2249000000,-3.3100345,-210.41208
2250000000,-3.3106418,-210.55617
2251000000,-3.3137376,-210.86685
2252000000,-3.2956936,-210.84862
2253000000,-3.3050101,-210.95108
2254000000,-3.2856081,-210.84241
2255000000,-3.3271253,-211.20447
2256000000,-3.2962129,-211.09831
2257000000,-3.3115652,-211.13777
2258000000,-3.3402796,-211.28886
2259000000,-3.2977815,-211.61572
2260000000,-3.3318653,-211.38293
2261000000,-3.3012774,-211.56561
2262000000,-3.2956443,-211.72012
2263000000,-3.3010893,-211.79507
2264000000,-3.3145738,-211.80533
2265000000,-3.3025308,-211.92654
2266000000,-3.3265202,-212.13025
2267000000,-3.2935286,-212.17924
2268000000,-3.3144746,-212.5376
2269000000,-3.316155,-212.19939
2270000000,-3.2923529,-212.47453
2271000000,-3.3121259,-212.48943
2272000000,-3.3146634,-212.72192
2273000000,-3.3184774,-212.86172
2274000000,-3.3004842,-213.00966
2275000000,-3.3087153,-212.74319
2276000000,-3.2926326,-212.9549
2277000000,-3.3049438,-213.24477
2278000000,-3.3080668,-213.19197
2279000000,-3.2945862,-213.34589
2280000000,-3.3284345,-213.58231
2281000000,-3.3050535,-213.51372
2282000000,-3.3034112,-213.59814
2283000000,-3.2849131,-213.61014
2284000000,-3.3216431,-213.75085
2285000000,-3.3020558,-214.07883
2286000000,-3.3101587,-214.22644
2287000000,-3.3201492,-214.10139
2288000000,-3.3187325,-214.1846
2289000000,-3.2987077,-214.34882
2290000000,-3.3193791,-214.42407
2291000000,-3.3207347,-214.56422
2292000000,-3.3159299,-214.48535
2293000000,-3.2953231,-214.77629
2294000000,-3.2703364,-214.84393
2295000000,-3.2953775,-214.90573
2296000000,-3.2744975,-215.13518
2297000000,-3.3016527,-215.0771
2298000000,-3.2922957,-215.18355
2299000000,-3.288188,-215.16061
2300000000,-3.2911351,-215.46333
2301000000,-3.3248725,-215.60529
2302000000,-3.2911286,-215.55554
2303000000,-3.3171217,-215.72701
2304000000,-3.3256483,-215.56741
2305000000,-3.306386,-215.81023
2306000000,-3.3188038,-215.77792
2307000000,-3.3425162,-215.93645
2308000000,-3.2963364,-216.06367
2309000000,-3.3155394,-216.20709
2310000000,-3.3142147,-216.44606
2311000000,-3.2904024,-216.42514
2312000000,-3.330476,-216.70078
2313000000,-3.3241425,-216.7072
2314000000,-3.3056269,-216.57854
2315000000,-3.3361707,-216.8195
2316000000,-3.3255053,-216.76721
2317000000,-3.3207262,-216.89348
2318000000,-3.2952712,-216.90643
2319000000,-3.3026373,-217.29817
2320000000,-3.3117614,-217.19856
2321000000,-3.3108232,-217.01524
2322000000,-3.3204653,-217.53421
2323000000,-3.2684171,-217.45366
2324000000,-3.2871056,-217.57796
2325000000,-3.3054948,-217.65273
2326000000,-3.3319213,-217.77686
2327000000,-3.3169999,-217.82088
2328000000,-3.3247664,-218.27258
2329000000,-3.3125105,-218.03593
2330000000,-3.3143251,-218.04855
2331000000,-3.3208375,-218.3913
2332000000,-3.3300247,-218.39949
2333000000,-3.3501506,-218.47469
2334000000,-3.314131,-218.48958
2335000000,-3.3053913,-218.92781
2336000000,-3.2784324,-218.71544
2337000000,-3.3476067,-218.82275
2338000000,-3.3085756,-218.89897
2339000000,-3.3431151,-219.00702
2340000000,-3.2819362,-219.13797
2341000000,-3.2829483,-219.12039
2342000000,-3.2979946,-219.14891
2343000000,-3.326998,-219.4258
2344000000,-3.3285213,-219.63843
2345000000,-3.2792187,-219.34586
2346000000,-3.3301299,-219.72472
2347000000,-3.3175344,-219.75545
2348000000,-3.2947018,-220.06616
2349000000,-3.3343451,-219.72502
2350000000,-3.3204062,-219.96628
2351000000,-3.3329873,-219.97488
2352000000,-3.3028064,-220.44861
2353000000,-3.3191621,-220.22377
2354000000,-3.3067453,-220.25018
2355000000,-3.3047104,-220.37958
2356000000,-3.3284423,-220.7036
2357000000,-3.3041065,-220.63058
2358000000,-3.3258743,-220.80907
2359000000,-3.346704,-220.84593
2360000000,-3.3364544,-220.98
2361000000,-3.3505108,-220.76253
2362000000,-3.3246746,-221.03647
2363000000,-3.3336098,-221.07956
2364000000,-3.3143756,-221.27631
2365000000,-3.3256462,-221.5105
2366000000,-3.2928753,-221.46169
2367000000,-3.32722,-221.77719
2368000000,-3.2942078,-221.59622
2369000000,-3.3083298,-221.69872
2370000000,-3.3169947,-221.76666
2371000000,-3.3183875,-221.78824
2372000000,-3.3636744,-222.2829
2373000000,-3.3124135,-222.17245
2374000000,-3.3395259,-222.35057
2375000000,-3.337337,-222.39264
2376000000,-3.3053465,-222.32318
2377000000,-3.3022192,-222.66765
2378000000,-3.3338423,-222.80312
2379000000,-3.3377523,-222.78174
2380000000,-3.328866,-223.13463
2381000000,-3.3031971,-222.85898
2382000000,-3.3465319,-223.12207
2383000000,-3.3375413,-223.40729
2384000000,-3.3424149,-223.07283
2385000000,-3.3343723,-223.38382
2386000000,-3.3127182,-223.68826
2387000000,-3.3134885,-223.57724
2388000000,-3.3311126,-223.53627
2389000000,-3.3335266,-223.45604
2390000000,-3.3388,-223.88673
2391000000,-3.3407147,-224.11499
2392000000,-3.2843032,-223.99727
2393000000,-3.3172774,-224.12643
2394000000,-3.3453803,-224.14191
2395000000,-3.3284523,-224.29187
2396000000,-3.3168428,-224.37877
2397000000,-3.3318348,-224.35197
2398000000,-3.3346553,-224.53265
2399000000,-3.3281429,-224.62766
2400000000,-3.3291116,-224.76462
2401000000,-3.3240781,-224.56813
2402000000,-3.3439724,-224.85707
2403000000,-3.3476186,-225.2318
2404000000,-3.3034735,-225.17416
2405000000,-3.3356307,-225.11465
2406000000,-3.3509722,-225.31371
2407000000,-3.3333201,-225.48552
2408000000,-3.3127809,-225.53404
2409000000,-3.3263354,-225.30632
2410000000,-3.3168919,-225.86523
2411000000,-3.3363104,-225.60263
2412000000,-3.3198943,-225.89841
2413000000,-3.3091824,-225.93779
2414000000,-3.3170731,-226.18427
2415000000,-3.3587737,-226.26497
2416000000,-3.3219154,-226.47324
2417000000,-3.3530438,-226.34645
2418000000,-3.3218231,-226.52205
2419000000,-3.3524947,-226.50134
2420000000,-3.3305373,-226.6301
2421000000,-3.3326151,-226.84784
2422000000,-3.3119338,-227.01001
2423000000,-3.3268092,-226.64079
2424000000,-3.3416841,-227.11617
2425000000,-3.3221204,-227.14433
2426000000,-3.3438234,-227.19965
2427000000,-3.3157218,-227.38435
2428000000,-3.2724018,-227.45706
2429000000,-3.302958,-227.50912
2430000000,-3.3137097,-227.45963
2431000000,-3.3194962,-227.84444
2432000000,-3.3085425,-227.7739
2433000000,-3.3143091,-227.90915
2434000000,-3.32335,-227.89008
2435000000,-3.3452027,-228.04536
2436000000,-3.3390307,-228.11119
2437000000,-3.3441739,-228.28784
2438000000,-3.2975328,-228.51711
2439000000,-3.307642,-228.34563
2440000000,-3.3397727,-228.59259
2441000000,-3.2880952,-228.33008
2442000000,-3.3499596,-228.59775
2443000000,-3.3458037,-228.45473
2444000000,-3.3282111,-228.97144
2445000000,-3.3487058,-229.04477
2446000000,-3.3290615,-229.14235
2447000000,-3.3153353,-229.28421
2448000000,-3.3363602,-229.32147
2449000000,-3.3309221,-229.30806
2450000000,-3.33655,-229.62337
2451000000,-3.3004942,-229.58856
2452000000,-3.3482552,-229.69415
2453000000,-3.3189564,-229.718
2454000000,-3.3075237,-229.78735
2455000000,-3.3685844,-230.06342
2456000000,-3.354768,-229.80142
2457000000,-3.3210435,-229.99069
2458000000,-3.2909634,-230.15776
2459000000,-3.3790839,-230.33633
2460000000,-3.3303752,-230.43594
2461000000,-3.3489091,-230.55646
2462000000,-3.3488417,-230.68022
2463000000,-3.3326538,-230.90294
2464000000,-3.310113,-230.82425
2465000000,-3.317528,-230.85089
2466000000,-3.3413875,-231.03673
2467000000,-3.3406119,-231.10216
2468000000,-3.2929077,-231.10098
2469000000,-3.3209894,-231.33141
2470000000,-3.3299074,-231.35138
2471000000,-3.341485,-231.53677
2472000000,-3.3276772,-231.72849
2473000000,-3.3243062,-231.68628
2474000000,-3.3665156,-232.00027
2475000000,-3.340827,-231.9175
2476000000,-3.3498712,-232.19908
2477000000,-3.3461137,-232.13254
2478000000,-3.3393641,-232.23419
2479000000,-3.331948,-232.19614
2480000000,-3.3802862,-232.30911
2481000000,-3.3477237,-232.41071
2482000000,-3.3375521,-232.3788
2483000000,-3.299643,-232.64703
2484000000,-3.3411348,-232.32343
2485000000,-3.3460622,-232.7711
2486000000,-3.3449914,-232.81853
2487000000,-3.3528433,-232.80211
2488000000,-3.3420696,-233.01051
2489000000,-3.3436267,-233.42827
2490000000,-3.31777,-233.14293
2491000000,-3.351747,-233.34911
2492000000,-3.3462126,-233.56651
2493000000,-3.3230376,-233.64842
2494000000,-3.3660126,-233.61313
2495000000,-3.3327951,-233.79779
2496000000,-3.340179,-233.99936
2497000000,-3.3787568,-233.78465
2498000000,-3.3459196,-234.1609
2499000000,-3.3395653,-234.19356
2500000000,-3.3384051,-234.37291
2501000000,-3.3534319,-234.37674
2502000000,-3.3348801,-234.59178
2503000000,-3.3532181,-234.54758
2504000000,-3.3591487,-234.6794
2505000000,-3.3615205,-234.56146
2506000000,-3.3233511,-234.8241
2507000000,-3.325109,-234.74188
2508000000,-3.359966,-234.84439
2509000000,-3.3186674,-234.97963
2510000000,-3.3524437,-235.17639
2511000000,-3.3356695,-234.97157
2512000000,-3.3376427,-235.30644
2513000000,-3.3335748,-235.40941
2514000000,-3.3549185,-235.63074
2515000000,-3.3421979,-235.60814
2516000000,-3.3445632,-235.72972
2517000000,-3.3283765,-235.88405
2518000000,-3.3666511,-235.89493
2519000000,-3.3265877,-236.10814
2520000000,-3.3395855,-236.01309
2521000000,-3.311779,-236.15504
2522000000,-3.3592782,-236.28938
2523000000,-3.3398986,-236.27635
2524000000,-3.3507438,-236.41846
2525000000,-3.3272576,-236.33058
2526000000,-3.3496482,-236.64795
2527000000,-3.3613575,-236.57285
2528000000,-3.3266313,-236.909
2529000000,-3.3242044,-237.00017
2530000000,-3.3319874,-237.09975
2531000000,-3.3499863,-237.27515
2532000000,-3.3349903,-236.99803
2533000000,-3.3610928,-237.41461
2534000000,-3.3547606,-237.48114
2535000000,-3.3485396,-237.79202
2536000000,-3.3452656,-237.55344
2537000000,-3.3404231,-237.7393
2538000000,-3.3342137,-237.99974
2539000000,-3.3426006,-238.11165
2540000000,-3.3596258,-237.86176
2541000000,-3.3568068,-238.129
2542000000,-3.3587792,-237.98936
2543000000,-3.3221483,-238.44368
2544000000,-3.3433168,-238.53023
2545000000,-3.3514113,-238.42535
2546000000,-3.3409934,-238.67914
2547000000,-3.3712056,-238.66455
2548000000,-3.3515913,-238.72197
2549000000,-3.3325567,-238.83276
2550000000,-3.3455045,-238.8046
2551000000,-3.3083408,-238.97253
2552000000,-3.362308,-239.15465
2553000000,-3.3506718,-239.15074
2554000000,-3.3364191,-239.21907
2555000000,-3.3373094,-239.42485
2556000000,-3.3642075,-239.5596
2557000000,-3.3475156,-239.46526
2558000000,-3.3672485,-239.59683
2559000000,-3.3644755,-239.68199
2560000000,-3.3257914,-239.8886
2561000000,-3.3549914,-239.91988
2562000000,-3.3378439,-239.91559
2563000000,-3.34729,-240.36482
2564000000,-3.3807211,-239.974
2565000000,-3.3514237,-240.30765
2566000000,-3.3746765,-240.18257
2567000000,-3.3469825,-240.70276
2568000000,-3.3399932,-240.51755
2569000000,-3.3554287,-240.77176
2570000000,-3.3373439,-240.99945
2571000000,-3.348418,-240.86403
2572000000,-3.3702061,-240.94345
2573000000,-3.3540673,-241.12856
2574000000,-3.3274834,-241.23764
2575000000,-3.351855,-241.14511
2576000000,-3.3233104,-241.48801
2577000000,-3.3507717,-241.50853
2578000000,-3.3643873,-241.41151
2579000000,-3.3442497,-241.746
2580000000,-3.3643768,-241.76619
2581000000,-3.3501878,-241.9557
2582000000,-3.385664,-242.11322
2583000000,-3.3241682,-241.79001
2584000000,-3.313838,-242.20122
2585000000,-3.3594022,-242.09584
2586000000,-3.3643179,-242.28265
2587000000,-3.3476853,-242.36183
2588000000,-3.3554389,-242.51276
2589000000,-3.3738401,-242.58061
2590000000,-3.3662984,-242.7746
2591000000,-3.3680377,-242.86691
2592000000,-3.3561699,-242.95177
2593000000,-3.3370054,-243.00142
2594000000,-3.373539,-243.00754
2595000000,-3.3631549,-243.09865
2596000000,-3.3416624,-243.2397
2597000000,-3.3680108,-243.32402
2598000000,-3.3423145,-243.60075
2599000000,-3.3597414,-243.74724
2600000000,-3.3446043,-243.5787
2601000000,-3.3574917,-243.53835
2602000000,-3.3396192,-243.8512
2603000000,-3.3492353,-243.9404
2604000000,-3.3561318,-244.12115
2605000000,-3.3894265,-243.92188
2606000000,-3.3436005,-244.06779
2607000000,-3.3742819,-244.326
2608000000,-3.3285699,-244.38358
2609000000,-3.3725302,-244.44476
2610000000,-3.3216012,-244.67978
2611000000,-3.3578947,-244.77582
2612000000,-3.3675697,-244.72295
2613000000,-3.3702817,-244.98091
2614000000,-3.3434122,-244.8821
2615000000,-3.3614235,-244.94138
2616000000,-3.3692138,-245.08574
2617000000,-3.3776817,-244.97072
2618000000,-3.412909,-245.39133
2619000000,-3.3892207,-245.37129
2620000000,-3.3365006,-245.54189
2621000000,-3.3547151,-245.61111
2622000000,-3.3491244,-245.76346
2623000000,-3.348485,-245.77357
2624000000,-3.3418281,-246.06273
2625000000,-3.363554,-245.91843
2626000000,-3.3548787,-246.04645
2627000000,-3.3429277,-246.2822
2628000000,-3.3588037,-246.37645
2629000000,-3.3732915,-246.26709
2630000000,-3.3716061,-246.52585
2631000000,-3.355768,-246.53636
2632000000,-3.3767197,-246.54243
2633000000,-3.3681433,-246.65149
2634000000,-3.3477037,-246.95317
2635000000,-3.3437045,-246.84244
2636000000,-3.3306332,-247.19214
2637000000,-3.3691511,-247.22752
2638000000,-3.3592525,-247.13206
2639000000,-3.3443987,-247.34271
2640000000,-3.3667529,-247.30006
2641000000,-3.3804376,-247.42194
2642000000,-3.3354831,-247.74837
2643000000,-3.3532152,-247.83812
2644000000,-3.3699358,-247.78299
2645000000,-3.3678126,-247.83073
2646000000,-3.381144,-247.95343
2647000000,-3.3266304,-248.18484
2648000000,-3.3550887,-248.08592
2649000000,-3.3913713,-248.2753
2650000000,-3.3454461,-248.19293
2651000000,-3.3665493,-248.44305
2652000000,-3.3203852,-248.36
2653000000,-3.3690968,-248.63664
2654000000,-3.36079,-248.62914
2655000000,-3.3607867,-248.71074
2656000000,-3.33882,-249.05276
2657000000,-3.3887875,-249.02393
2658000000,-3.3733943,-249.1053
2659000000,-3.3691339,-249.06683
2660000000,-3.4032514,-249.20763
2661000000,-3.3750122,-249.53793
2662000000,-3.3717692,-249.5249
2663000000,-3.371345,-249.67279
2664000000,-3.3783951,-249.74699
2665000000,-3.3583992,-249.64754
2666000000,-3.3528297,-249.73373
2667000000,-3.3430078,-250.08255
2668000000,-3.3623645,-250.18352
2669000000,-3.4064243,-250.04063
2670000000,-3.3663332,-250.18188
2671000000,-3.3553972,-250.54001
2672000000,-3.342598,-250.33476
2673000000,-3.3758337,-250.65611
2674000000,-3.3772566,-250.69376
2675000000,-3.3444021,-250.55049
2676000000,-3.3334038,-250.8208
2677000000,-3.3694785,-250.81398
2678000000,-3.3729677,-250.8287
2679000000,-3.35832,-251.13008
2680000000,-3.3547871,-251.01205
2681000000,-3.3443506,-251.27873
2682000000,-3.3674345,-251.17587
2683000000,-3.3661184,-251.45065
2684000000,-3.355108,-251.41791
2685000000,-3.3491681,-251.63881
2686000000,-3.3905911,-251.66617
2687000000,-3.3555844,-251.90659
2688000000,-3.4077351,-251.9635
2689000000,-3.3808048,-251.88515
2690000000,-3.3858039,-252.11008
2691000000,-3.3391047,-252.33353
2692000000,-3.3555593,-252.41011
2693000000,-3.382427,-252.46075
2694000000,-3.3472805,-252.54608
2695000000,-3.3586705,-252.5168
2696000000,-3.4000256,-252.78856
2697000000,-3.3903136,-252.9173
2698000000,-3.3699226,-252.91216
2699000000,-3.373275,-252.88499
2700000000,-3.3729949,-253.16113
2701000000,-3.3501432,-253.06982
2702000000,-3.3435445,-253.41275
2703000000,-3.359304,-253.28535
2704000000,-3.3851757,-253.22801
2705000000,-3.3802924,-253.50764
2706000000,-3.3665974,-253.53226
2707000000,-3.3805027,-253.63785
2708000000,-3.3703423,-253.64296
2709000000,-3.3407004,-253.77251
2710000000,-3.392658,-253.91873
2711000000,-3.3549097,-253.89142
2712000000,-3.3531036,-254.20935
2713000000,-3.3670385,-254.34799
2714000000,-3.3673742,-254.42859
2715000000,-3.3669996,-254.32918
2716000000,-3.3607969,-254.59344
2717000000,-3.384279,-254.49117
2718000000,-3.3793762,-254.71202
2719000000,-3.3737195,-255.02003
2720000000,-3.3694344,-254.98828
2721000000,-3.3653879,-255.1288
2722000000,-3.3571243,-255.17429
2723000000,-3.3743765,-255.04877
2724000000,-3.3817153,-255.22816
2725000000,-3.3850055,-255.31741
2726000000,-3.362144,-255.58615
2727000000,-3.3664949,-255.52164
2728000000,-3.3656552,-255.62386
2729000000,-3.3441606,-255.79507
2730000000,-3.3385267,-255.87292
2731000000,-3.3544369,-255.94022
2732000000,-3.3598042,-256.17465
2733000000,-3.400991,-256.13596
2734000000,-3.3727412,-256.26071
2735000000,-3.3641915,-256.47565
2736000000,-3.3965645,-256.41379
2737000000,-3.3410695,-256.43091
2738000000,-3.3928192,-256.56949
2739000000,-3.3377161,-256.87909
2740000000,-3.3642046,-256.96161
2741000000,-3.3541281,-256.91208
2742000000,-3.3451605,-256.90826
2743000000,-3.3594253,-256.9563
2744000000,-3.3511527,-257.28
2745000000,-3.3230448,-257.2897
2746000000,-3.3674986,-257.41321
2747000000,-3.3865576,-257.42957
2748000000,-3.3483107,-257.57022
2749000000,-3.3797796,-257.66348
2750000000,-3.3668811,-257.75095
2751000000,-3.3803856,-257.82935
2752000000,-3.3468578,-257.89276
2753000000,-3.3586853,-258.09488
2754000000,-3.3367589,-258.19415
2755000000,-3.3466847,-258.17059
2756000000,-3.3618417,-258.15262
2757000000,-3.3585355,-258.53552
2758000000,-3.3681858,-258.4151
2759000000,-3.3730364,-258.38602
2760000000,-3.3707192,-258.68082
2761000000,-3.3639448,-258.94656
2762000000,-3.3802416,-258.98773
2763000000,-3.4012887,-259.00137
2764000000,-3.3754103,-258.85672
2765000000,-3.3735349,-259.10431
2766000000,-3.3575661,-259.18304
2767000000,-3.3485911,-259.31418
2768000000,-3.3449826,-259.5094
2769000000,-3.3509343,-259.34164
2770000000,-3.3771472,-259.65887
2771000000,-3.3498816,-259.91223
2772000000,-3.3686969,-259.82529
2773000000,-3.3684497,-259.81528
2774000000,-3.3670449,-259.95297
2775000000,-3.3514733,-260.15421
2776000000,-3.3708231,-260.01355
2777000000,-3.3332684,-260.45706
2778000000,-3.3900824,-260.18692
2779000000,-3.344455,-260.54623
2780000000,-3.3619208,-260.63577
2781000000,-3.3773546,-260.73672
2782000000,-3.3795965,-260.80899
2783000000,-3.4043145,-260.63989
2784000000,-3.3711751,-260.91089
2785000000,-3.360745,-261.07434
2786000000,-3.3284819,-260.99112
2787000000,-3.3939371,-261.07111
2788000000,-3.3644731,-261.4657
2789000000,-3.337662,-261.43936
2790000000,-3.3875401,-261.57465
2791000000,-3.3754921,-261.66904
2792000000,-3.3447983,-261.63034
2793000000,-3.3842702,-261.87332
2794000000,-3.373409,-261.92099
2795000000,-3.3523238,-261.75363
2796000000,-3.349844,-262.06406
2797000000,-3.3564723,-261.9993
2798000000,-3.4011989,-262.18973
2799000000,-3.3598554,-262.22223
2800000000,-3.3567162,-262.54376
2801000000,-3.3950894,-262.39929
2802000000,-3.3773208,-262.62512
2803000000,-3.3491995,-262.70859
2804000000,-3.3864968,-262.76144
2805000000,-3.3956149,-262.93112
2806000000,-3.4108627,-263.13226
2807000000,-3.365016,-263.23248
2808000000,-3.375077,-263.22281
2809000000,-3.3310256,-263.25961
2810000000,-3.3766596,-263.68304
2811000000,-3.355005,-263.37238
2812000000,-3.3790333,-263.74075
2813000000,-3.3736494,-263.90247
2814000000,-3.3291504,-263.56741
2815000000,-3.3559599,-264.22397
2816000000,-3.3688731,-263.91525
2817000000,-3.3572805,-264.16104
2818000000,-3.3504028,-264.02893
2819000000,-3.361738,-264.06287
2820000000,-3.381321,-264.29266
2821000000,-3.3797729,-264.41876
2822000000,-3.3712101,-264.52145
2823000000,-3.369513,-264.63382
2824000000,-3.3500655,-264.77087
2825000000,-3.3455846,-264.74667
2826000000,-3.3401294,-264.94543
2827000000,-3.3624291,-264.97592
2828000000,-3.3452332,-265.08224
2829000000,-3.3615963,-265.01932
2830000000,-3.3579638,-265.19818
2831000000,-3.3697257,-265.46313
2832000000,-3.3735299,-265.46399
2833000000,-3.379498,-265.48508
2834000000,-3.3401835,-265.6106
2835000000,-3.3354542,-265.81409
2836000000,-3.3415685,-265.88614
2837000000,-3.3585548,-265.95624
2838000000,-3.3799236,-265.92758
2839000000,-3.3657475,-265.99417
2840000000,-3.3809426,-265.97327
2841000000,-3.3697262,-266.16721
2842000000,-3.3399758,-266.34351
2843000000,-3.3197453,-266.43411
2844000000,-3.3664832,-266.59491
2845000000,-3.364851,-266.79089
2846000000,-3.3688416,-266.75052
2847000000,-3.3468382,-266.8335
2848000000,-3.3537371,-266.80255
2849000000,-3.3562489,-267.04608
2850000000,-3.3403068,-267.06641
2851000000,-3.3481436,-267.12701
2852000000,-3.3392191,-267.28714
2853000000,-3.3328719,-267.62341
2854000000,-3.34325,-267.62289
2855000000,-3.3548007,-267.59427
2856000000,-3.357383,-267.71143
2857000000,-3.3610947,-267.92975
2858000000,-3.3634882,-268.01215
2859000000,-3.358988,-267.95749
2860000000,-3.3695772,-267.97498
2861000000,-3.376147,-268.19937
2862000000,-3.3336842,-268.18561
2863000000,-3.3536742,-268.29712
2864000000,-3.3390949,-268.52542
2865000000,-3.3333998,-268.43127
2866000000,-3.3789544,-268.73511
2867000000,-3.3719518,-268.75644
2868000000,-3.3611403,-268.97018
2869000000,-3.3759384,-268.93677
2870000000,-3.353539,-268.9855
2871000000,-3.3428414,-269.03516
2872000000,-3.3711164,-269.15598
2873000000,-3.3468649,-269.34961
2874000000,-3.3709104,-269.30746
2875000000,-3.3445067,-269.47519
2876000000,-3.3437009,-269.61469
2877000000,-3.3837686,-269.78336
2878000000,-3.3651483,-269.86038
2879000000,-3.3590357,-269.99033
2880000000,-3.3740628,-269.96747
2881000000,-3.3514786,-270.0054
2882000000,-3.342782,-270.09277
2883000000,-3.3402314,-270.09991
2884000000,-3.3673546,-270.20309
2885000000,-3.3617749,-270.44379
2886000000,-3.3519659,-270.70688
2887000000,-3.3530397,-270.81052
2888000000,-3.3569341,-270.69263
2889000000,-3.3472579,-270.73422
2890000000,-3.3406222,-270.87817
2891000000,-3.372515,-271.0383
2892000000,-3.3486664,-271.12424
2893000000,-3.3676031,-271.47864
2894000000,-3.3461983,-271.51624
2895000000,-3.3479848,-271.42441
2896000000,-3.3561161,-271.67249
2897000000,-3.3526404,-271.63007
2898000000,-3.3576841,-271.54443
2899000000,-3.3330729,-271.87204
2900000000,-3.3539162,-272.02374
2901000000,-3.363234,-272.09821
2902000000,-3.3528895,-271.95132
2903000000,-3.367347,-272.17142
2904000000,-3.3080068,-272.27435
2905000000,-3.3359571,-272.12579
2906000000,-3.3730738,-272.48074
2907000000,-3.3534517,-272.65683
2908000000,-3.3404984,-272.73154
2909000000,-3.3702757,-272.69904
2910000000,-3.3248301,-272.82339
2911000000,-3.3702915,-272.99039
2912000000,-3.3480868,-273.09656
2913000000,-3.3460197,-273.04739
2914000000,-3.3175371,-273.23056
2915000000,-3.342803,-273.28442
2916000000,-3.3443952,-273.4169
2917000000,-3.3137555,-273.44293
2918000000,-3.368428,-273.51184
2919000000,-3.3518617,-273.83365
2920000000,-3.3139665,-273.75641
2921000000,-3.3180792,-273.90738
2922000000,-3.3128715,-273.9231
2923000000,-3.3583562,-273.85278
2924000000,-3.3191118,-274.13742
2925000000,-3.3441956,-274.21213
2926000000,-3.3349123,-274.27109
2927000000,-3.3522522,-274.2934
2928000000,-3.3282986,-274.52322
2929000000,-3.3552399,-274.67697
2930000000,-3.3742785,-274.69342
2931000000,-3.3317986,-274.84341
2932000000,-3.3383687,-274.85715
2933000000,-3.3742456,-274.90131
2934000000,-3.297159,-275.08633
2935000000,-3.3538942,-275.24411
2936000000,-3.3489637,-275.36212
2937000000,-3.3140445,-275.42422
2938000000,-3.3470821,-275.42209
2939000000,-3.3387337,-275.90009
2940000000,-3.3489981,-275.62753
2941000000,-3.3270063,-275.77267
2942000000,-3.3696914,-275.95459
2943000000,-3.3398187,-276.00043
2944000000,-3.2863665,-276.04257
2945000000,-3.356945,-276.3569
2946000000,-3.3605278,-276.43069
2947000000,-3.3287621,-276.54373
2948000000,-3.350172,-276.53329
2949000000,-3.3768611,-276.59909
2950000000,-3.3457634,-276.75723
2951000000,-3.3541718,-276.69128
2952000000,-3.3601937,-276.74506
2953000000,-3.3215327,-276.76038
2954000000,-3.3421738,-277.06778
2955000000,-3.3503757,-277.10626
2956000000,-3.3109465,-277.11078
2957000000,-3.3411453,-277.37982
2958000000,-3.3362267,-277.28909
2959000000,-3.3209646,-277.43317
2960000000,-3.3006165,-277.60071
2961000000,-3.3243737,-277.84393
2962000000,-3.3122094,-277.76846
2963000000,-3.3571792,-277.91595
2964000000,-3.3320615,-277.96323
2965000000,-3.3288598,-277.99738
2966000000,-3.325649,-278.04355
2967000000,-3.3343623,-278.02191
2968000000,-3.3494141,-278.43866
2969000000,-3.3355579,-278.44415
2970000000,-3.3403473,-278.50732
2971000000,-3.3252883,-278.52573
2972000000,-3.3144746,-278.72888
2973000000,-3.3205659,-278.76825
2974000000,-3.3098314,-279.26025
2975000000,-3.3263955,-278.92966
2976000000,-3.3223536,-279.09827
2977000000,-3.3571458,-279.25864
2978000000,-3.2936351,-279.24329
2979000000,-3.326647,-279.41296
2980000000,-3.3197079,-279.40494
2981000000,-3.337235,-279.56305
2982000000,-3.3035185,-279.56696
2983000000,-3.3116996,-280.05621
2984000000,-3.3078966,-280.06625
2985000000,-3.3410821,-279.96713
2986000000,-3.3045697,-280.16309
2987000000,-3.322135,-280.11728
2988000000,-3.3373022,-280.27631
2989000000,-3.3298485,-280.58499
2990000000,-3.3188634,-280.62396
2991000000,-3.318871,-280.59085
2992000000,-3.3434722,-280.59854
2993000000,-3.3194919,-280.93311
2994000000,-3.3840773,-280.57031
2995000000,-3.3422644,-280.73093
2996000000,-3.314322,-281.12866
2997000000,-3.3165812,-281.31174
2998000000,-3.30866,-281.32315
2999000000,-3.3338447,-281.11261
3000000000,-3.3276875,-281.44885
3001000000,-3.3176322,-281.52328
3002000000,-3.3348045,-281.78146
3003000000,-3.3183877,-281.71011
3004000000,-3.3155391,-281.80106
3005000000,-3.3108203,-281.90671
3006000000,-3.3033698,-282.02463
3007000000,-3.3179059,-282.0097
3008000000,-3.3356173,-282.241
3009000000,-3.3096845,-282.29242
3010000000,-3.3379362,-282.45749
3011000000,-3.3155293,-282.52942
3012000000,-3.2752829,-282.53146
3013000000,-3.3179011,-282.45538
3014000000,-3.3226311,-282.91788
3015000000,-3.330112,-282.65677
3016000000,-3.3119278,-283.07745
3017000000,-3.3268685,-283.12042
3018000000,-3.341325,-283.14874
3019000000,-3.3415916,-283.26764
3020000000,-3.3079796,-283.39453
3021000000,-3.3066425,-283.48227
3022000000,-3.3304124,-283.54865
3023000000,-3.3073063,-283.46783
3024000000,-3.3170564,-283.87186
3025000000,-3.3303864,-283.99994
3026000000,-3.3201411,-283.89767
3027000000,-3.3278513,-283.95599
3028000000,-3.3393662,-284.04376
3029000000,-3.2973554,-284.32428
3030000000,-3.3136532,-284.44669
3031000000,-3.3062813,-284.72278
3032000000,-3.302382,-284.57001
3033000000,-3.3175306,-284.427
3034000000,-3.3110793,-284.81049
3035000000,-3.2767787,-284.91324
3036000000,-3.3285289,-284.80823
3037000000,-3.3207603,-285.10062
3038000000,-3.3159156,-285.02075
3039000000,-3.3303328,-285.04129
3040000000,-3.2865744,-285.33862
3041000000,-3.3126662,-285.51852
3042000000,-3.3288119,-285.38086
3043000000,-3.3433275,-285.66113
3044000000,-3.3196645,-285.83478
3045000000,-3.2825298,-285.67648
3046000000,-3.3152437,-286.14273
3047000000,-3.3563221,-285.88333
3048000000,-3.3004041,-286.29501
3049000000,-3.2697287,-286.23206
3050000000,-3.292815,-286.27838
3051000000,-3.2847373,-286.4892
3052000000,-3.3240597,-286.34488
3053000000,-3.3181903,-286.58698
3054000000,-3.3061135,-286.72202
3055000000,-3.3266294,-286.73309
3056000000,-3.313586,-286.74701
3057000000,-3.3347993,-287.02029
3058000000,-3.2892573,-287.04816
3059000000,-3.3078825,-287.05817
3060000000,-3.3330662,-287.16922
3061000000,-3.3390064,-287.48022
3062000000,-3.3607419,-287.33218
3063000000,-3.342962,-287.28452
3064000000,-3.3230538,-287.41711
3065000000,-3.3075287,-287.86826
3066000000,-3.3003781,-287.7886
3067000000,-3.3079262,-287.81198
3068000000,-3.3060348,-288.11063
3069000000,-3.3381281,-288.03351
3070000000,-3.3193243,-288.13681
3071000000,-3.3202825,-288.39041
3072000000,-3.3362782,-288.42627
3073000000,-3.3163822,-288.54645
3074000000,-3.3033533,-288.31458
3075000000,-3.3229864,-288.49786
3076000000,-3.3001742,-288.60638
3077000000,-3.300211,-288.92477
3078000000,-3.3238711,-288.72025
3079000000,-3.3225367,-289.11166
3080000000,-3.3229747,-289.01587
3081000000,-3.3144486,-289.31369
3082000000,-3.304601,-289.42471
3083000000,-3.315851,-289.43082
3084000000,-3.3031297,-289.46353
3085000000,-3.3112822,-289.50912
3086000000,-3.3126357,-289.90372
3087000000,-3.3430915,-289.75275
3088000000,-3.3361485,-289.81006
3089000000,-3.2763188,-290.12024
3090000000,-3.3010447,-290.40457
3091000000,-3.3092189,-290.38004
3092000000,-3.2989504,-290.38931
3093000000,-3.3404505,-290.36121
3094000000,-3.3068542,-290.70673
3095000000,-3.3220017,-290.68414
3096000000,-3.3268659,-290.69537
3097000000,-3.3172739,-290.93063
3098000000,-3.3386862,-290.82565
3099000000,-3.2953882,-291.13098
3100000000,-3.3280764,-291.01569
3101000000,-3.2987216,-291.32224
3102000000,-3.3214383,-291.24252
3103000000,-3.3259404,-291.20929
3104000000,-3.3270471,-291.61081
3105000000,-3.3057315,-291.49045
3106000000,-3.3290777,-291.62711
3107000000,-3.3091159,-291.75043
3108000000,-3.306978,-292.01828
3109000000,-3.3106253,-291.89984
3110000000,-3.3325186,-292.16269
3111000000,-3.3202188,-292.04187
3112000000,-3.2781787,-292.34265
3113000000,-3.3241007,-292.35391
3114000000,-3.2967572,-292.54294
3115000000,-3.2966945,-292.43707
3116000000,-3.3077219,-292.47769
3117000000,-3.3172758,-292.79099
3118000000,-3.3149338,-292.92807
3119000000,-3.2821412,-292.89758
3120000000,-3.3006375,-292.95416
3121000000,-3.3029456,-293.04794
3122000000,-3.3113754,-293.09402
3123000000,-3.3008184,-293.36942
3124000000,-3.293474,-293.36914
3125000000,-3.2925539,-293.61331
3126000000,-3.3135352,-293.69952
3127000000,-3.2708104,-293.74213
3128000000,-3.2911229,-293.82471
3129000000,-3.3353117,-293.95187
3130000000,-3.3068848,-294.29126
3131000000,-3.2840726,-294.3356
3132000000,-3.2868667,-294.22824
3133000000,-3.299624,-294.23044
3134000000,-3.2594392,-294.55975
3135000000,-3.2988477,-294.72421
3136000000,-3.3181801,-294.51685
3137000000,-3.3043296,-294.86124
3138000000,-3.29339,-294.83698
3139000000,-3.2840624,-295.01501
3140000000,-3.2947252,-295.07635
3141000000,-3.3097486,-295.13461
3142000000,-3.2859011,-295.24033
3143000000,-3.3100493,-295.37839
3144000000,-3.2938654,-295.60956
3145000000,-3.3251317,-295.69556
3146000000,-3.2792351,-295.61771
3147000000,-3.2711127,-295.74799
3148000000,-3.3068328,-295.7081
3149000000,-3.301594,-295.70901
3150000000,-3.2803257,-296.22855
3151000000,-3.2957344,-296.25513
3152000000,-3.3274336,-296.10394
3153000000,-3.3210022,-296.66174
3154000000,-3.2878883,-296.34302
3155000000,-3.3010857,-296.60995
3156000000,-3.2849705,-296.59058
3157000000,-3.3255248,-296.95209
3158000000,-3.305774,-296.85242
3159000000,-3.2907927,-296.95523
3160000000,-3.3041201,-297.05115
3161000000,-3.3093529,-297.07208
3162000000,-3.3146238,-297.0882
3163000000,-3.2686496,-297.46185
3164000000,-3.3081689,-297.328
3165000000,-3.3187308,-297.62833
3166000000,-3.2975233,-297.46576
3167000000,-3.3181696,-297.91989
3168000000,-3.3122218,-297.82156
3169000000,-3.2919428,-298.07001
3170000000,-3.2823873,-297.96225
3171000000,-3.2630627,-297.99942
3172000000,-3.304312,-298.09845
3173000000,-3.306108,-298.43335
3174000000,-3.3113139,-298.47125
3175000000,-3.3079236,-298.23792
3176000000,-3.2948265,-298.7269
3177000000,-3.2713976,-298.89655
3178000000,-3.3200614,-298.82816
3179000000,-3.3052409,-298.84323
3180000000,-3.2906375,-298.9064
3181000000,-3.3122752,-299.0278
3182000000,-3.2752419,-299.31924
3183000000,-3.2987432,-299.04901
3184000000,-3.2860701,-299.43747
3185000000,-3.2900229,-299.67984
3186000000,-3.2952459,-299.68002
3187000000,-3.2728465,-299.72583
3188000000,-3.3145745,-299.68036
3189000000,-3.266984,-299.73157
3190000000,-3.334975,-300.19321
3191000000,-3.2878008,-300.07809
3192000000,-3.3209832,-300.22046
3193000000,-3.2771816,-300.21951
3194000000,-3.3097494,-300.59189
3195000000,-3.2993312,-300.4548
3196000000,-3.3085067,-300.73282
3197000000,-3.3029463,-300.68597
3198000000,-3.2710021,-300.67874
3199000000,-3.2888684,-300.8454
3200000000,-3.2678335,-300.9686
3201000000,-3.3022885,-301.21774
3202000000,-3.277266,-301.14447
3203000000,-3.3076108,-301.06665
3204000000,-3.2580495,-301.31052
3205000000,-3.3142626,-301.23938
3206000000,-3.277885,-301.39389
3207000000,-3.3133783,-301.67545
3208000000,-3.2636845,-301.77518
3209000000,-3.2809536,-302.10367
3210000000,-3.2853138,-301.84549
3211000000,-3.294296,-302.0267
3212000000,-3.291971,-302.39828
3213000000,-3.305618,-302.25037
3214000000,-3.2712233,-302.45752
3215000000,-3.2946305,-302.50375
3216000000,-3.2827432,-302.70099
3217000000,-3.2919881,-302.56543
3218000000,-3.317477,-302.60291
3219000000,-3.2610421,-302.95499
3220000000,-3.2737894,-303.28265
3221000000,-3.2833397,-303.07138
3222000000,-3.2855368,-303.03745
3223000000,-3.2746971,-303.39395
3224000000,-3.2938826,-303.345
3225000000,-3.2687213,-303.65042
3226000000,-3.2641151,-303.67288
3227000000,-3.2951615,-303.58023
3228000000,-3.2908688,-303.82504
3229000000,-3.2790248,-303.9313
3230000000,-3.316956,-304.04575
3231000000,-3.2930665,-304.04266
3232000000,-3.2891517,-304.08176
3233000000,-3.3316143,-304.28937
3234000000,-3.2751703,-304.47461
3235000000,-3.3089831,-304.23917
3236000000,-3.2673612,-304.70627
3237000000,-3.2791436,-304.47433
3238000000,-3.2866793,-304.78824
3239000000,-3.3070035,-304.89911
3240000000,-3.3011377,-305.06262
3241000000,-3.3210256,-305.48477
3242000000,-3.2862284,-305.1846
3243000000,-3.2729371,-305.34412
3244000000,-3.295012,-305.23621
3245000000,-3.2863698,-305.44299
3246000000,-3.3236003,-305.26459
3247000000,-3.2944529,-305.60757
3248000000,-3.3088384,-305.68231
3249000000,-3.29109,-305.87354
3250000000,-3.298655,-305.94247
3251000000,-3.2852137,-305.86761
3252000000,-3.2920837,-306.1488
3253000000,-3.3085463,-306.47623
3254000000,-3.3339889,-306.23804
3255000000,-3.3235686,-306.29788
3256000000,-3.3409226,-306.35941
3257000000,-3.2977462,-306.6055
3258000000,-3.3262465,-306.69742
3259000000,-3.3360715,-306.88818
3260000000,-3.3213558,-307.16345
3261000000,-3.3333194,-307.06381
3262000000,-3.2606478,-307.11798
3263000000,-3.3520541,-307.38928
3264000000,-3.3037417,-307.38507
3265000000,-3.2747192,-307.45987
3266000000,-3.2985404,-307.50882
3267000000,-3.2855644,-307.58777
3268000000,-3.2968664,-307.6676
3269000000,-3.2902172,-307.61194
3270000000,-3.3018982,-307.77869
3271000000,-3.3009257,-307.95261
3272000000,-3.3053029,-307.93362
3273000000,-3.3095169,-308.30426
3274000000,-3.2918284,-308.28421
3275000000,-3.2817204,-308.36716
3276000000,-3.2814488,-308.70645
3277000000,-3.2952631,-308.75116
3278000000,-3.2843115,-308.71078
3279000000,-3.2832391,-308.86209
3280000000,-3.3063495,-309.02573
3281000000,-3.2745702,-308.96399
3282000000,-3.2747562,-309.24628
3283000000,-3.2744515,-309.2876
3284000000,-3.2854209,-309.08185
3285000000,-3.2903628,-309.36075
3286000000,-3.2757046,-309.62329
3287000000,-3.3209438,-309.4751
3288000000,-3.3027265,-309.75668
3289000000,-3.334794,-309.95334
3290000000,-3.3274336,-309.82254
3291000000,-3.2776854,-310.08798
3292000000,-3.2955706,-310.08694
3293000000,-3.3113577,-310.16147
3294000000,-3.303335,-310.28372
3295000000,-3.3287199,-310.29312
3296000000,-3.3089459,-310.51233
3297000000,-3.2911217,-310.62219
3298000000,-3.3147314,-310.80817
3299000000,-3.3434057,-310.767
3300000000,-3.2823722,-311.12717
3301000000,-3.3028946,-310.98572
3302000000,-3.2992034,-310.92584
3303000000,-3.3046598,-311.14703
3304000000,-3.2917199,-311.4075
3305000000,-3.291409,-311.37552
3306000000,-3.2729795,-311.61743
3307000000,-3.3137994,-311.59763
3308000000,-3.3077471,-311.74121
3309000000,-3.3190877,-312.00592
3310000000,-3.293366,-311.93094
3311000000,-3.320312,-312.02945
3312000000,-3.3165212,-312.10391
3313000000,-3.3308451,-312.3078
3314000000,-3.3126504,-312.384
3315000000,-3.3082855,-312.53629
3316000000,-3.2909718,-312.35065
3317000000,-3.3233991,-312.59378
3318000000,-3.3058777,-312.73236
3319000000,-3.3062103,-312.85178
3320000000,-3.3048131,-312.46762
3321000000,-3.3189437,-312.91724
3322000000,-3.2750654,-313.07678
3323000000,-3.2895324,-313.02704
3324000000,-3.2727907,-313.18826
3325000000,-3.2910068,-313.41602
3326000000,-3.3296328,-313.49973
3327000000,-3.2667918,-313.6619
3328000000,-3.2796576,-313.54654
3329000000,-3.2927301,-313.85049
3330000000,-3.3095043,-313.8374
3331000000,-3.3023682,-314.14749
3332000000,-3.287003,-314.13391
3333000000,-3.3035812,-314.34222
3334000000,-3.2941401,-314.30658
3335000000,-3.3156166,-314.32315
3336000000,-3.312372,-314.42493
3337000000,-3.3020334,-314.59821
3338000000,-3.3184707,-314.73447
3339000000,-3.3408427,-314.81284
3340000000,-3.3221257,-314.89105
3341000000,-3.3210616,-314.94254
3342000000,-3.2922204,-314.96524
3343000000,-3.2900562,-315.21103
3344000000,-3.3042266,-315.43353
3345000000,-3.3028626,-315.41708
3346000000,-3.3354032,-315.49741
3347000000,-3.3204246,-315.6409
3348000000,-3.2971613,-315.72556
3349000000,-3.3161845,-315.87219
3350000000,-3.3060403,-316.13443
3351000000,-3.316972,-316.12573
3352000000,-3.2883487,-316.16537
3353000000,-3.3038518,-316.27621
3354000000,-3.3067722,-316.21109
3355000000,-3.3294854,-316.40344
3356000000,-3.3108017,-316.53036
3357000000,-3.3046627,-316.46362
3358000000,-3.2971396,-316.40967
3359000000,-3.3130386,-316.6777
3360000000,-3.2982905,-316.8812
3361000000,-3.2834222,-317.08588
3362000000,-3.2879753,-316.97754
3363000000,-3.3105423,-317.30563
3364000000,-3.2830288,-317.14352
3365000000,-3.3059418,-317.48813
3366000000,-3.3056967,-317.60773
3367000000,-3.300797,-317.59201
3368000000,-3.3238957,-317.46777
3369000000,-3.3184319,-317.59833
3370000000,-3.3308761,-317.97357
3371000000,-3.3182266,-317.92172
3372000000,-3.3063965,-318.07614
3373000000,-3.3051186,-318.06226
3374000000,-3.3060842,-318.37061
3375000000,-3.3332279,-318.36075
3376000000,-3.342288,-318.57098
3377000000,-3.3244703,-318.48087
3378000000,-3.3129461,-318.68893
3379000000,-3.3307161,-318.60449
3380000000,-3.3182151,-318.89981
3381000000,-3.3181303,-318.97586
3382000000,-3.3361483,-319.00818
3383000000,-3.3385963,-319.35352
3384000000,-3.316057,-319.34161
3385000000,-3.2843995,-319.52884
3386000000,-3.3162856,-319.64676
3387000000,-3.351229,-319.84778
3388000000,-3.3497674,-319.85507
3389000000,-3.3204641,-319.93747
3390000000,-3.3152819,-319.92554
3391000000,-3.310626,-320.12366
3392000000,-3.307385,-320.12842
3393000000,-3.3167207,-320.20874
3394000000,-3.3072424,-320.36969
3395000000,-3.3063018,-320.31796
3396000000,-3.3218036,-320.36685
3397000000,-3.3198466,-320.75943
3398000000,-3.3410022,-320.63464
3399000000,-3.3436496,-320.90103
3400000000,-3.3138883,-320.85843
3401000000,-3.2811391,-321.03613
3402000000,-3.321454,-321.14017
3403000000,-3.3654323,-321.33688
3404000000,-3.3251369,-321.2265
3405000000,-3.3061955,-321.28708
3406000000,-3.3122857,-321.29147
3407000000,-3.3059106,-321.45145
3408000000,-3.3092377,-321.44974
3409000000,-3.3369238,-321.76733
3410000000,-3.3181074,-321.73969
3411000000,-3.3364997,-321.90344
3412000000,-3.3248391,-322.00311
3413000000,-3.3490732,-322.26651
3414000000,-3.3492501,-322.31854
3415000000,-3.3560219,-322.27878
3416000000,-3.3377266,-322.46655
3417000000,-3.3453548,-322.49747
3418000000,-3.3319213,-322.80722
3419000000,-3.3372602,-322.76852
3420000000,-3.3090415,-323.08575
3421000000,-3.3165193,-322.93784
3422000000,-3.3250515,-323.1084
3423000000,-3.3231759,-323.36401
3424000000,-3.3266654,-323.39127
3425000000,-3.3313859,-323.32465
3426000000,-3.3555727,-323.42139
3427000000,-3.3141201,-323.72757
3428000000,-3.3186867,-323.72626
3429000000,-3.327987,-323.89386
3430000000,-3.3162324,-324.11319
3431000000,-3.2992077,-323.81998
3432000000,-3.3444467,-323.92392
3433000000,-3.282284,-324.27631
3434000000,-3.3273182,-324.23767
3435000000,-3.3283656,-324.37909
3436000000,-3.3255911,-324.63083
3437000000,-3.3473272,-324.53046
3438000000,-3.3383377,-324.53009
3439000000,-3.3344774,-324.78537
3440000000,-3.3291533,-324.89786
3441000000,-3.3176169,-324.89352
3442000000,-3.3399324,-325.16577
3443000000,-3.3276987,-325.09103
3444000000,-3.3313179,-325.33646
3445000000,-3.3628156,-325.22601
3446000000,-3.3418815,-325.56213
3447000000,-3.3298509,-325.63141
3448000000,-3.3582833,-325.664
3449000000,-3.3503273,-325.7345
3450000000,-3.3371856,-325.90848
3451000000,-3.3557444,-325.98752
3452000000,-3.3287079,-326.04697
3453000000,-3.3379874,-326.23996
3454000000,-3.3267031,-326.51727
3455000000,-3.3406801,-326.26282
3456000000,-3.3535924,-326.50375
3457000000,-3.3375108,-326.61853
3458000000,-3.3477328,-326.81192
3459000000,-3.3364968,-326.6499
3460000000,-3.3490198,-326.7261
3461000000,-3.3564789,-327.05759
3462000000,-3.3607049,-327.02197
3463000000,-3.33798,-327.05911
3464000000,-3.3396578,-327.2067
3465000000,-3.3397775,-327.26773
3466000000,-3.3624249,-327.42075
3467000000,-3.3479071,-327.60461
3468000000,-3.3407445,-327.58676
3469000000,-3.3503211,-327.83771
3470000000,-3.3523736,-327.92944
3471000000,-3.3439803,-327.97305
3472000000,-3.3418734,-328.05902
3473000000,-3.3324847,-328.30417
3474000000,-3.331959,-328.24142
3475000000,-3.3686824,-328.43689
3476000000,-3.357012,-328.578
3477000000,-3.3348353,-328.51263
3478000000,-3.3566351,-328.7951
3479000000,-3.3488486,-328.77469
3480000000,-3.3376515,-328.93753
3481000000,-3.3609822,-329.01242
3482000000,-3.3485172,-329.11636
3483000000,-3.3506036,-329.34561
3484000000,-3.3588579,-329.25317
3485000000,-3.349926,-329.22577
3486000000,-3.3420584,-329.62946
3487000000,-3.4058259,-329.72632
3488000000,-3.3685377,-329.58752
3489000000,-3.3692229,-329.94034
3490000000,-3.3584278,-329.77988
3491000000,-3.3458867,-330.31058
3492000000,-3.3709841,-330.22357
3493000000,-3.3580189,-330.20715
3494000000,-3.3589962,-330.22235
3495000000,-3.3622937,-330.50272
3496000000,-3.3512564,-330.46848
3497000000,-3.3834662,-330.79059
3498000000,-3.351037,-330.67984
3499000000,-3.307502,-330.74188
3500000000,-3.3700919,-330.80505
3501000000,-3.341589,-331.02875
3502000000,-3.3788445,-331.26038
3503000000,-3.3698103,-331.27762
3504000000,-3.3661425,-331.35629
3505000000,-3.3676224,-331.3902
3506000000,-3.3639877,-331.58179
3507000000,-3.3522081,-331.52164
3508000000,-3.3636997,-331.80933
3509000000,-3.3836255,-331.84488
3510000000,-3.3376501,-332.03802
3511000000,-3.4099541,-332.0675
3512000000,-3.3845747,-332.0618
3513000000,-3.3896024,-332.15939
3514000000,-3.3989003,-332.42273
3515000000,-3.3853154,-332.30737
3516000000,-3.3701708,-332.69803
3517000000,-3.3528214,-332.52023
3518000000,-3.3758574,-332.73935
3519000000,-3.3580422,-332.83194
3520000000,-3.3901498,-333.00159
3521000000,-3.3763168,-333.01788
3522000000,-3.373255,-333.05542
3523000000,-3.3837907,-333.24078
3524000000,-3.388557,-333.18423
3525000000,-3.3987665,-333.38156
3526000000,-3.3860698,-333.54395
3527000000,-3.3749919,-333.63245
3528000000,-3.4057689,-333.47299
3529000000,-3.3867157,-333.69046
3530000000,-3.3915036,-333.79962
3531000000,-3.3778861,-334.08109
3532000000,-3.3882072,-334.01471
3533000000,-3.3895557,-334.21854
3534000000,-3.3888507,-334.29657
3535000000,-3.377492,-334.36569
3536000000,-3.3729546,-334.59265
3537000000,-3.414211,-334.41266
3538000000,-3.3693295,-334.86859
3539000000,-3.3987122,-334.858
3540000000,-3.3992805,-334.89099
3541000000,-3.3778291,-335.12369
3542000000,-3.3756363,-335.12814
3543000000,-3.3803303,-334.89557
3544000000,-3.3981574,-335.09882
3545000000,-3.3793786,-335.52917
3546000000,-3.3822391,-335.59296
3547000000,-3.408124,-335.57208
3548000000,-3.4122906,-335.70044
3549000000,-3.3998487,-335.9819
3550000000,-3.409797,-335.83255
3551000000,-3.4187717,-335.96725
3552000000,-3.3802109,-336.08698
3553000000,-3.391304,-336.09729
3554000000,-3.4091184,-336.39929
3555000000,-3.3965142,-336.55103
3556000000,-3.4293609,-336.5405
3557000000,-3.4058704,-336.55573
3558000000,-3.4330351,-336.5387
3559000000,-3.414552,-336.83725
3560000000,-3.4054677,-336.86703
3561000000,-3.3596876,-337.00818
3562000000,-3.4196081,-337.16837
3563000000,-3.4128957,-337.36841
3564000000,-3.3782694,-337.23523
3565000000,-3.3961265,-337.35431
3566000000,-3.3990042,-337.44394
3567000000,-3.4209967,-337.52295
3568000000,-3.4213941,-337.57211
3569000000,-3.4107394,-337.60284
3570000000,-3.4441118,-337.88199
3571000000,-3.3948259,-337.92911
3572000000,-3.4222994,-337.95126
3573000000,-3.4327922,-338.16592
3574000000,-3.3980534,-338.27579
3575000000,-3.4147413,-338.4198
3576000000,-3.4249752,-338.40872
3577000000,-3.4455283,-338.38589
3578000000,-3.4540031,-338.8013
3579000000,-3.4134736,-338.89719
3580000000,-3.3841064,-338.86221
3581000000,-3.4180167,-338.96255
3582000000,-3.407608,-339.06503
3583000000,-3.423326,-339.04904
3584000000,-3.4355423,-339.1239
3585000000,-3.4223926,-339.33392
3586000000,-3.4303401,-339.5303
3587000000,-3.4037857,-339.46088
3588000000,-3.3963535,-339.41696
3589000000,-3.4064019,-339.78995
3590000000,-3.4367309,-339.92648
3591000000,-3.4419842,-339.84747
3592000000,-3.4337769,-340.02219
3593000000,-3.4376945,-340.05716
3594000000,-3.4106519,-340.29431
3595000000,-3.4187324,-340.43387
3596000000,-3.4510016,-340.52985
3597000000,-3.4376118,-340.47131
3598000000,-3.4254246,-340.64847
3599000000,-3.4175074,-340.73553
3600000000,-3.4407313,-340.76843
3601000000,-3.4266486,-340.94101
3602000000,-3.4218748,-341.20862
3603000000,-3.4287395,-341.22064
3604000000,-3.4039733,-341.19687
3605000000,-3.4328356,-341.48602
3606000000,-3.41431,-341.30899
3607000000,-3.4172754,-341.65042
3608000000,-3.3927474,-341.64316
3609000000,-3.4086568,-341.73639
3610000000,-3.4261563,-341.90018
3611000000,-3.4033995,-341.82547
3612000000,-3.4259341,-341.96719
3613000000,-3.4292073,-342.16635
3614000000,-3.4554429,-342.26389
3615000000,-3.4282193,-342.48602
3616000000,-3.4264574,-342.34991
3617000000,-3.4512079,-342.60745
3618000000,-3.4322238,-342.72009
3619000000,-3.4305866,-342.78497
3620000000,-3.4117815,-342.94867
3621000000,-3.4403279,-342.98889
3622000000,-3.4504781,-343.21448
3623000000,-3.4400201,-343.39978
3624000000,-3.4336267,-343.32477
3625000000,-3.4702945,-343.36212
3626000000,-3.4481511,-343.5679
3627000000,-3.4295855,-343.53375
3628000000,-3.4452815,-343.53604
3629000000,-3.4461513,-343.86401
3630000000,-3.4616077,-343.94427
3631000000,-3.445029,-343.88815
3632000000,-3.4390433,-343.82495
3633000000,-3.4453483,-344.26895
3634000000,-3.4309344,-344.30167
3635000000,-3.4624274,-344.4263
3636000000,-3.4419711,-344.52744
3637000000,-3.4733179,-344.79922
3638000000,-3.4560566,-344.86975
3639000000,-3.4418018,-344.79922
3640000000,-3.453521,-344.84811
3641000000,-3.4429629,-344.86945
3642000000,-3.4661605,-345.00784
3643000000,-3.4816208,-345.27942
3644000000,-3.4861648,-345.18259
3645000000,-3.4544775,-345.23743
3646000000,-3.4561567,-345.58917
3647000000,-3.456254,-345.70679
3648000000,-3.4465625,-345.58502
3649000000,-3.4535887,-345.7063
3650000000,-3.4565442,-345.60202
3651000000,-3.4850421,-346.04288
3652000000,-3.4496331,-346.0975
3653000000,-3.4609518,-346.19827
3654000000,-3.4680095,-346.19318
3655000000,-3.4355483,-346.39612
3656000000,-3.425519,-346.39209
3657000000,-3.4529271,-346.465
3658000000,-3.4703937,-346.69214
3659000000,-3.4723547,-346.87067
3660000000,-3.468364,-346.96967
3661000000,-3.4759016,-346.83356
3662000000,-3.47755,-347.00235
3663000000,-3.4581354,-347.25342
3664000000,-3.470536,-347.1102
3665000000,-3.478102,-347.25916
3666000000,-3.4709783,-347.49484
3667000000,-3.4904392,-347.70078
3668000000,-3.4861557,-347.6524
3669000000,-3.4657013,-347.68176
3670000000,-3.4714155,-347.84219
3671000000,-3.4550085,-348.2012
3672000000,-3.4885671,-347.96207
3673000000,-3.5052426,-348.31882
3674000000,-3.4770133,-348.20016
3675000000,-3.477397,-348.40646
3676000000,-3.4483709,-348.30066
3677000000,-3.4722688,-348.61465
3678000000,-3.4915648,-348.85901
3679000000,-3.4622462,-348.82294
3680000000,-3.495568,-348.9624
3681000000,-3.5048192,-348.90698
3682000000,-3.4651723,-349.09711
3683000000,-3.4604745,-349.13205
3684000000,-3.4820747,-349.25931
3685000000,-3.4944983,-349.28207
3686000000,-3.4855006,-349.78952
3687000000,-3.5188174,-349.81329
3688000000,-3.4967098,-349.72086
3689000000,-3.4653349,-349.8226
3690000000,-3.5002992,-349.99927
3691000000,-3.4682925,-350.04062
3692000000,-3.4903421,-350.11392
3693000000,-3.4825275,-350.15213
3694000000,-3.4926026,-350.49161
3695000000,-3.4955502,-350.31882
3696000000,-3.460104,-350.64493
3697000000,-3.5027676,-350.74438
3698000000,-3.5086293,-350.53375
3699000000,-3.499954,-350.77686
3700000000,-3.4939289,-351.03683
3701000000,-3.5115683,-351.07013
3702000000,-3.5136025,-351.19327
3703000000,-3.5269315,-351.19147
3704000000,-3.5373151,-351.397
3705000000,-3.5031157,-351.35397
3706000000,-3.4853823,-351.57175
3707000000,-3.5044122,-351.65799
3708000000,-3.5024354,-351.67218
3709000000,-3.480866,-351.90201
3710000000,-3.5222549,-351.7764
3711000000,-3.4840534,-351.92679
3712000000,-3.5390906,-352.13696
3713000000,-3.5127583,-352.2395
3714000000,-3.5274317,-352.53323
3715000000,-3.4995742,-352.43414
3716000000,-3.5143197,-352.53632
3717000000,-3.4904056,-352.73016
3718000000,-3.4870901,-352.85138
3719000000,-3.5154984,-352.93961
3720000000,-3.5086341,-353.06757
3721000000,-3.4965539,-353.00504
3722000000,-3.5138607,-353.06525
3723000000,-3.5191958,-353.32278
3724000000,-3.5197532,-353.31647
3725000000,-3.5128949,-353.37674
3726000000,-3.5341113,-353.43161
3727000000,-3.5606744,-353.59692
3728000000,-3.5358675,-353.89301
3729000000,-3.5173829,-353.90402
3730000000,-3.5238194,-353.79269
3731000000,-3.5188601,-354.05566
3732000000,-3.5449762,-354.1441
3733000000,-3.5298476,-354.14386
3734000000,-3.5154593,-354.42059
3735000000,-3.5581486,-354.42664
3736000000,-3.5425,-354.62906
3737000000,-3.530731,-354.65192
3738000000,-3.5540597,-354.80457
3739000000,-3.5323198,-354.73514
3740000000,-3.5463431,-354.75717
3741000000,-3.5433586,-355.04877
3742000000,-3.5534353,-354.99658
3743000000,-3.5532029,-355.35629
3744000000,-3.5909677,-355.39612
3745000000,-3.5194082,-355.37189
3746000000,-3.5620577,-355.57239
3747000000,-3.5565567,-355.68439
3748000000,-3.538471,-355.89798
3749000000,-3.5484564,-355.85736
3750000000,-3.5772448,-356.04404
3751000000,-3.5460188,-355.93463
3752000000,-3.5428398,-356.15836
3753000000,-3.5357301,-356.09628
3754000000,-3.5585415,-356.3772
3755000000,-3.5708985,-356.44452
3756000000,-3.5479796,-356.59558
3757000000,-3.5615382,-356.62375
3758000000,-3.5735381,-356.7395
3759000000,-3.5375848,-357.01959
3760000000,-3.5773358,-356.98175
3761000000,-3.5913081,-356.97787
3762000000,-3.5805504,-357.21259
3763000000,-3.5635216,-357.27673
3764000000,-3.5946262,-357.42911
3765000000,-3.5659788,-357.38632
3766000000,-3.5649488,-357.51501
3767000000,-3.5752008,-357.53564
3768000000,-3.5709774,-357.92776
3769000000,-3.5690408,-357.80811
3770000000,-3.5747061,-358.08051
3771000000,-3.5907359,-358.11157
3772000000,-3.5854535,-358.17566
3773000000,-3.6029084,-358.24707
3774000000,-3.586565,-358.2724
3775000000,-3.6196399,-358.42688
3776000000,-3.6002164,-358.77518
3777000000,-3.572871,-358.60962
3778000000,-3.5965996,-358.82874
3779000000,-3.5889525,-358.8407
3780000000,-3.5813713,-359.10333
3781000000,-3.611419,-359.07907
3782000000,-3.6171348,-359.15704
3783000000,-3.596988,-359.17691
3784000000,-3.6165297,-359.21921
3785000000,-3.5916119,-359.46173
3786000000,-3.5963023,-359.58798
3787000000,-3.601244,-359.51001
3788000000,-3.5963659,-359.84952
3789000000,-3.5954633,-359.86081
3790000000,-3.6016679,-359.78467
3791000000,-3.6120825,-360.02713
3792000000,-3.6083407,-360.18323
3793000000,-3.611161,-359.98203
3794000000,-3.6205688,-360.159
3795000000,-3.619283,-360.26315
3796000000,-3.6254494,-360.63586
3797000000,-3.6419547,-360.53552
3798000000,-3.5992343,-360.66415
3799000000,-3.6091263,-360.92285
3800000000,-3.6145637,-360.7045
3801000000,-3.605303,-360.97964
3802000000,-3.6245203,-360.94138
3803000000,-3.6128838,-361.138
3804000000,-3.6042981,-361.37451
3805000000,-3.6354876,-361.54846
3806000000,-3.6293213,-361.44067
3807000000,-3.629204,-361.69189
3808000000,-3.5986438,-361.73569
3809000000,-3.6085217,-361.83649
3810000000,-3.6191659,-362.04413
3811000000,-3.6013002,-362.01785
3812000000,-3.6076968,-362.07413
3813000000,-3.6280379,-362.0192
3814000000,-3.6148539,-362.56375
3815000000,-3.6327589,-362.29388
3816000000,-3.6148629,-362.50562
3817000000,-3.6491938,-362.66928
3818000000,-3.6780558,-362.62042
3819000000,-3.6538205,-362.85242
3820000000,-3.6338689,-362.78156
3821000000,-3.6310713,-363.0885
3822000000,-3.6351819,-363.02737
3823000000,-3.6729655,-363.15903
3824000000,-3.6475391,-363.32581
3825000000,-3.6399632,-363.33746
3826000000,-3.6481249,-363.39697
3827000000,-3.6374302,-363.57391
3828000000,-3.6381428,-363.55933
3829000000,-3.638355,-363.8259
3830000000,-3.6374924,-363.91016
3831000000,-3.6565773,-364.17212
3832000000,-3.6372671,-364.0502
3833000000,-3.6512561,-364.0976
3834000000,-3.6405017,-364.26453
3835000000,-3.6493585,-364.38718
3836000000,-3.6730273,-364.54147
3837000000,-3.6277783,-364.50558
3838000000,-3.6581976,-364.71017
3839000000,-3.6678874,-364.8746
3840000000,-3.6612685,-364.80606
3841000000,-3.6627939,-364.99792
3842000000,-3.6741717,-365.15451
3843000000,-3.6744976,-365.33344
3844000000,-3.6778531,-364.94968
3845000000,-3.6735988,-365.38556
3846000000,-3.6580753,-365.65399
3847000000,-3.667959,-365.56189
3848000000,-3.6662595,-365.52359
3849000000,-3.6745911,-365.94489
3850000000,-3.6721926,-365.76544
3851000000,-3.7033627,-365.85776
3852000000,-3.6565902,-366.17365
3853000000,-3.6929929,-366.23532
3854000000,-3.6992061,-366.26019
3855000000,-3.6837544,-366.2247
3856000000,-3.6996152,-366.49048
3857000000,-3.6738937,-366.4527
3858000000,-3.6725905,-366.80252
3859000000,-3.7073927,-366.5975
3860000000,-3.685008,-366.90997
3861000000,-3.6906199,-367.02005
3862000000,-3.7060738,-367.01019
3863000000,-3.6774726,-367.16064
3864000000,-3.6868985,-367.32672
3865000000,-3.7021916,-367.40021
3866000000,-3.6736131,-367.50885
3867000000,-3.6976676,-367.31558
3868000000,-3.7133768,-367.58337
3869000000,-3.6902201,-367.91351
3870000000,-3.6859932,-367.79651
3871000000,-3.7036924,-367.97034
3872000000,-3.7067199,-367.9935
3873000000,-3.7132075,-367.91696
3874000000,-3.6946054,-368.18488
3875000000,-3.7281151,-368.30032
3876000000,-3.695986,-368.47098
3877000000,-3.7042434,-368.50287
3878000000,-3.7445209,-368.49017
3879000000,-3.7051389,-368.7399
3880000000,-3.7265315,-368.92764
3881000000,-3.7088504,-369.14948
3882000000,-3.7196736,-368.85782
3883000000,-3.7240462,-369.1008
3884000000,-3.7216921,-369.15381
3885000000,-3.7139075,-369.29865
3886000000,-3.7173498,-369.30713
3887000000,-3.7185407,-369.43246
3888000000,-3.7251165,-369.48669
3889000000,-3.735702,-369.70679
3890000000,-3.7245219,-369.73172
3891000000,-3.7411718,-370.00894
3892000000,-3.7333579,-369.95721
3893000000,-3.7270963,-370.16199
3894000000,-3.7367303,-370.12375
3895000000,-3.7541423,-370.26495
3896000000,-3.7107127,-370.30615
3897000000,-3.7327592,-370.41486
3898000000,-3.7564988,-370.54535
3899000000,-3.7390668,-370.70334
3900000000,-3.7430322,-370.83752
3901000000,-3.7535045,-370.96213
3902000000,-3.7786055,-370.96796
3903000000,-3.7533591,-371.12363
3904000000,-3.7390292,-371.09973
3905000000,-3.7492332,-371.32669
3906000000,-3.765274,-371.31448
3907000000,-3.7738698,-371.26743
3908000000,-3.7560074,-371.49677
3909000000,-3.7316756,-371.62866
3910000000,-3.7558897,-371.82333
3911000000,-3.7637329,-371.84058
3912000000,-3.751071,-372.02081
3913000000,-3.7674229,-372.11401
3914000000,-3.7604587,-372.06241
3915000000,-3.7786453,-372.21768
3916000000,-3.767029,-372.37051
3917000000,-3.7482123,-372.5336
3918000000,-3.8040991,-372.38025
3919000000,-3.7716863,-372.5116
3920000000,-3.7934082,-372.75623
3921000000,-3.7664745,-372.85919
3922000000,-3.7739196,-372.86874
3923000000,-3.8034801,-372.94528
3924000000,-3.8079457,-373.01129
3925000000,-3.8153508,-373.10822
3926000000,-3.773396,-373.37872
3927000000,-3.7913959,-373.42581
3928000000,-3.7653151,-373.29211
3929000000,-3.7913334,-373.37283
3930000000,-3.8012295,-373.58014
3931000000,-3.7964895,-373.81586
3932000000,-3.788343,-373.92361
3933000000,-3.7786562,-373.92303
3934000000,-3.7970314,-373.95566
3935000000,-3.8134732,-374.06967
3936000000,-3.8256288,-374.15308
3937000000,-3.8036664,-374.40616
3938000000,-3.8027928,-374.53079
3939000000,-3.8444879,-374.59882
3940000000,-3.8341222,-374.69684
3941000000,-3.80913,-374.47849
3942000000,-3.8286068,-374.65976
3943000000,-3.8441949,-374.88504
3944000000,-3.7983756,-375.03787
3945000000,-3.8161919,-375.13956
3946000000,-3.8422759,-375.24426
3947000000,-3.8004129,-375.17517
3948000000,-3.8229139,-375.49573
3949000000,-3.8166392,-375.47192
3950000000,-3.8336062,-375.58865
3951000000,-3.8116808,-375.67694
3952000000,-3.8391118,-375.68253
3953000000,-3.8183243,-375.86697
3954000000,-3.8444149,-375.94434
3955000000,-3.8335102,-375.77429
3956000000,-3.8297653,-375.95435
3957000000,-3.8540034,-376.2272
3958000000,-3.8359292,-376.46793
3959000000,-3.8343656,-376.45303
3960000000,-3.8458118,-376.60342
3961000000,-3.8482203,-376.55789
3962000000,-3.8703506,-376.67834
3963000000,-3.844805,-376.73703
3964000000,-3.8474512,-376.8186
3965000000,-3.8124671,-376.88577
3966000000,-3.8086708,-377.08267
3967000000,-3.844373,-377.01846
3968000000,-3.8674736,-377.48291
3969000000,-3.8693542,-377.20279
3970000000,-3.8729594,-377.37274
3971000000,-3.8512421,-377.67053
3972000000,-3.8655829,-377.64783
3973000000,-3.8671608,-377.63913
3974000000,-3.85782,-377.78671
3975000000,-3.8792119,-377.86673
3976000000,-3.8431878,-378.05789
3977000000,-3.8383892,-378.22208
3978000000,-3.8728411,-378.0889
3979000000,-3.8580275,-378.30713
3980000000,-3.8845692,-378.46588
3981000000,-3.9202507,-378.60886
3982000000,-3.8670614,-378.52411
3983000000,-3.8817711,-378.51801
3984000000,-3.8828454,-378.57007
3985000000,-3.8553767,-378.94955
3986000000,-3.8909161,-378.82156
3987000000,-3.8852422,-379.01151
3988000000,-3.9101985,-379.00162
3989000000,-3.8542044,-379.32248
3990000000,-3.8862152,-379.38937
3991000000,-3.911402,-379.35663
3992000000,-3.8804932,-379.44653
3993000000,-3.916688,-379.6127
3994000000,-3.8871849,-379.74234
3995000000,-3.9025033,-379.69803
3996000000,-3.9130247,-379.95151
3997000000,-3.877857,-380.07687
3998000000,-3.9215329,-380.13971
3999000000,-3.9068186,-380.25418
4000000000,-3.8989162,-380.41409
4001000000,-3.8842657,-380.2962
4002000000,-3.8955376,-380.52966
4003000000,-3.9276633,-380.43799
4004000000,-3.9333525,-380.47797
4005000000,-3.9111691,-380.65063
4006000000,-3.9266281,-380.81573
4007000000,-3.9311438,-380.75241
4008000000,-3.9033997,-380.9454
4009000000,-3.9436665,-381.03314
4010000000,-3.9361656,-381.21979
4011000000,-3.9326634,-381.30054
4012000000,-3.9475148,-381.29111
4013000000,-3.9354331,-381.44806
4014000000,-3.9397182,-381.48248
4015000000,-3.9648623,-381.79202
4016000000,-3.9454739,-381.86877
4017000000,-3.9431624,-381.83163
4018000000,-3.9683168,-381.78
4019000000,-3.9425545,-382.0914
4020000000,-3.9479506,-382.1199
4021000000,-3.931756,-382.22897
4022000000,-3.948967,-382.23218
4023000000,-3.9534626,-382.55771
4024000000,-3.919421,-382.33041
4025000000,-3.9474876,-382.49686
4026000000,-3.9419999,-382.62125
4027000000,-3.9608521,-382.84464
4028000000,-3.9797821,-382.85239
4029000000,-3.9648244,-382.93723
4030000000,-3.9563785,-383.09528
4031000000,-3.9590461,-383.39975
4032000000,-3.9464583,-383.31561
4033000000,-3.9594655,-383.2912
4034000000,-3.9647317,-383.39154
4035000000,-3.9691675,-383.32025
4036000000,-3.9731021,-383.75577
4037000000,-3.9837472,-383.83713
4038000000,-3.9561923,-383.87134
4039000000,-3.9630089,-384.01614
4040000000,-3.9593809,-384.21313
4041000000,-4.0063272,-384.16321
4042000000,-3.9964664,-384.25262
4043000000,-3.9922478,-384.27985
4044000000,-3.9849091,-384.33188
4045000000,-3.986124,-384.56424
4046000000,-3.9760251,-384.38959
4047000000,-3.9848499,-384.57071
4048000000,-3.9923406,-384.55841
4049000000,-3.9832604,-384.6713
4050000000,-4.0072823,-384.8273
4051000000,-3.9960797,-384.91104
4052000000,-4.0264459,-385.24991
4053000000,-3.9935284,-385.23279
4054000000,-4.0043435,-385.43918
4055000000,-4.0252962,-385.33835
4056000000,-3.9904675,-385.54718
4057000000,-3.9807501,-385.44913
4058000000,-4.0063715,-385.62839
4059000000,-3.9957526,-385.72333
4060000000,-4.0389977,-385.80246
4061000000,-4.0102463,-385.97931
4062000000,-4.0156956,-385.9418
4063000000,-4.0211,-385.93063
4064000000,-4.0149922,-385.96729
4065000000,-4.0208974,-386.32599
4066000000,-4.0321283,-386.31256
4067000000,-4.0026245,-386.40863
4068000000,-4.0289149,-386.53683
4069000000,-4.0657959,-386.77258
4070000000,-3.9947987,-386.59146
4071000000,-4.0271816,-386.77893
4072000000,-4.0205646,-386.90421
4073000000,-4.0188756,-386.95691
4074000000,-4.0276494,-387.15903
4075000000,-4.0317907,-387.27249
4076000000,-4.0436945,-387.3443
4077000000,-4.0379181,-387.45148
4078000000,-4.0266571,-387.50601
4079000000,-4.0395894,-387.54956
4080000000,-4.0355682,-387.57629
4081000000,-4.0269141,-387.63818
4082000000,-4.0678287,-387.88193
4083000000,-4.0350447,-387.95581
4084000000,-4.0375848,-387.9509
4085000000,-4.0318561,-387.98685
4086000000,-4.0324812,-388.21634
4087000000,-4.0703812,-388.18246
4088000000,-4.0762568,-388.45993
4089000000,-4.0497789,-388.4314
4090000000,-4.0397696,-388.54907
4091000000,-4.0556231,-388.61478
4092000000,-4.0316019,-388.63242
4093000000,-4.0561624,-388.7272
4094000000,-4.0525794,-388.94507
4095000000,-4.0598183,-389.15854
4096000000,-4.0780458,-389.0256
4097000000,-4.0981169,-389.14023
4098000000,-4.0795679,-389.21088
4099000000,-4.0910897,-389.44278
4100000000,-4.0676284,-389.36407
4101000000,-4.0712223,-389.47818
4102000000,-4.0702996,-389.72369
4103000000,-4.0660253,-389.65555
4104000000,-4.0647912,-389.8064
4105000000,-4.0735593,-389.9762
4106000000,-4.0965209,-389.85211
4107000000,-4.0865488,-390.11649
4108000000,-4.0986028,-390.0795
4109000000,-4.0759549,-390.27386
4110000000,-4.0771275,-390.15512
4111000000,-4.0628581,-390.35721
4112000000,-4.0639954,-390.39188
4113000000,-4.0824938,-390.48517
4114000000,-4.0795045,-390.64752
4115000000,-4.0831265,-390.72238
4116000000,-4.0929732,-390.63818
4117000000,-4.0806456,-391.01645
4118000000,-4.1113195,-391.08707
4119000000,-4.0906987,-391.08975
4120000000,-4.0813756,-391.07446
4121000000,-4.0852795,-391.40668
4122000000,-4.0672736,-391.44714
4123000000,-4.1160755,-391.59543
4124000000,-4.0970583,-391.48642
4125000000,-4.0900002,-391.58405
4126000000,-4.0878277,-391.68094
4127000000,-4.0933781,-391.86508
4128000000,-4.1020436,-391.98459
4129000000,-4.0824814,-392.17279
4130000000,-4.0803595,-392.24072
4131000000,-4.1007705,-392.1156
4132000000,-4.084229,-392.32687
4133000000,-4.1145973,-392.37881
4134000000,-4.0943856,-392.57162
4135000000,-4.1033926,-392.53174
4136000000,-4.114048,-392.71191
4137000000,-4.0960188,-392.79422
4138000000,-4.1117554,-392.92313
4139000000,-4.1170435,-392.9982
4140000000,-4.1275387,-393.09756
4141000000,-4.091783,-393.01846
4142000000,-4.1227899,-393.10916
4143000000,-4.1216149,-393.33542
4144000000,-4.1361914,-393.50113
4145000000,-4.0997753,-393.51828
4146000000,-4.1301184,-393.52884
4147000000,-4.1317062,-393.84003
4148000000,-4.117382,-393.74359
4149000000,-4.0985527,-393.68204
4150000000,-4.1309848,-393.9003
4151000000,-4.1393828,-394.246
4152000000,-4.1232128,-394.19666
4153000000,-4.1503372,-394.23218
4154000000,-4.1567636,-394.23328
4155000000,-4.1364408,-394.38443
4156000000,-4.1311474,-394.36044
4157000000,-4.143939,-394.5871
4158000000,-4.1561122,-394.79056
4159000000,-4.1511798,-394.74048
4160000000,-4.1577377,-394.93372
4161000000,-4.1733222,-395.02402
4162000000,-4.1375713,-394.97021
4163000000,-4.156055,-395.0842
4164000000,-4.1432533,-395.00046
4165000000,-4.1330805,-395.11646
4166000000,-4.1478672,-395.48529
4167000000,-4.1495032,-395.57678
4168000000,-4.1688519,-395.59085
4169000000,-4.1298461,-395.63263
4170000000,-4.1560454,-395.72958
4171000000,-4.1417227,-395.73026
4172000000,-4.1245532,-395.94867
4173000000,-4.1506639,-395.89807
4174000000,-4.1464453,-396.07272
4175000000,-4.1739187,-396.08521
4176000000,-4.1601739,-396.39557
4177000000,-4.1314692,-396.31702
4178000000,-4.1546726,-396.27618
4179000000,-4.1249204,-396.60522
4180000000,-4.1513209,-396.64661
4181000000,-4.158484,-396.79132
4182000000,-4.1319265,-396.69263
4183000000,-4.164937,-396.66626
4184000000,-4.1810942,-397.04959
4185000000,-4.1252575,-397.04285
4186000000,-4.1610389,-396.93829
4187000000,-4.17803,-397.33011
4188000000,-4.167098,-397.25226
4189000000,-4.1509094,-397.44296
4190000000,-4.1663384,-397.56534
4191000000,-4.150022,-397.57285
4192000000,-4.1654997,-397.74017
4193000000,-4.1665735,-397.79593
4194000000,-4.1759639,-397.67444
4195000000,-4.1461368,-397.85059
4196000000,-4.1609254,-397.93118
4197000000,-4.1820936,-398.10428
4198000000,-4.1880136,-398.13467
4199000000,-4.1578107,-398.31714
4200000000,-4.1646895,-398.18454
4201000000,-4.1617165,-398.64212
4202000000,-4.1608143,-398.46262
4203000000,-4.1635203,-398.56906
4204000000,-4.1613903,-398.87476
4205000000,-4.1629777,-399.01636
4206000000,-4.1989813,-398.90088
4207000000,-4.1879096,-398.99042
4208000000,-4.1855364,-399.00888
4209000000,-4.1553793,-399.06857
4210000000,-4.1643386,-399.32034
4211000000,-4.1811862,-399.30869
4212000000,-4.1705813,-399.40369
4213000000,-4.1811008,-399.5173
4214000000,-4.1671982,-399.62897
4215000000,-4.1526465,-399.66928
4216000000,-4.187283,-399.85544
4217000000,-4.1897106,-399.99496
4218000000,-4.1629124,-399.83356
4219000000,-4.1774373,-400.08847
4220000000,-4.1855249,-400.19556
4221000000,-4.1917486,-400.17725
4222000000,-4.1681061,-400.32523
4223000000,-4.1695395,-400.59378
4224000000,-4.1937761,-400.59277
4225000000,-4.1989851,-400.73203
4226000000,-4.184968,-400.66293
4227000000,-4.1652689,-400.7453
4228000000,-4.1905904,-400.98001
4229000000,-4.1851263,-401.09918
4230000000,-4.1955094,-401.07523
4231000000,-4.205018,-401.228
4232000000,-4.1691461,-401.14761
4233000000,-4.2010579,-401.36557
4234000000,-4.1948414,-401.47672
4235000000,-4.1912909,-401.59412
4236000000,-4.1720443,-401.58807
4237000000,-4.2088046,-401.70026
4238000000,-4.2060108,-401.70703
4239000000,-4.2266574,-401.95859
4240000000,-4.1921391,-401.82867
4241000000,-4.1852274,-402.04422
4242000000,-4.2085333,-402.08417
4243000000,-4.1967912,-402.27493
4244000000,-4.2108808,-402.28452
4245000000,-4.2258201,-402.3855
4246000000,-4.2026658,-402.48526
4247000000,-4.1884007,-402.58508
4248000000,-4.222959,-402.77048
4249000000,-4.2090201,-402.70264
4250000000,-4.2249398,-402.73569
4251000000,-4.2115698,-403.07278
4252000000,-4.2243032,-403.02332
4253000000,-4.2188325,-402.97827
4254000000,-4.199512,-403.23965
4255000000,-4.1949935,-403.09064
4256000000,-4.1902499,-403.52063
4257000000,-4.1924191,-403.3403
4258000000,-4.1904974,-403.41751
4259000000,-4.2021713,-403.57413
4260000000,-4.1911149,-403.80624
4261000000,-4.2146645,-403.6698
4262000000,-4.2048869,-403.90536
4263000000,-4.1861167,-403.96051
4264000000,-4.2038918,-404.23199
4265000000,-4.2261877,-404.15659
4266000000,-4.225666,-404.28531
4267000000,-4.2196736,-404.30313
4268000000,-4.2219291,-404.50308
4269000000,-4.2080483,-404.58817
4270000000,-4.1761632,-404.59625
4271000000,-4.2030239,-404.71753
4272000000,-4.1988411,-404.88684
4273000000,-4.2103977,-405.10181
4274000000,-4.2194104,-404.78067
4275000000,-4.2208023,-405.14713
4276000000,-4.2192292,-405.19876
4277000000,-4.233027,-405.24051
4278000000,-4.2373939,-405.31885
4279000000,-4.199965,-405.56021
4280000000,-4.2018785,-405.60614
4281000000,-4.227777,-405.59778
4282000000,-4.2337632,-405.86191
4283000000,-4.1955318,-405.87723
4284000000,-4.2148528,-406.0304
4285000000,-4.2275758,-405.97458
4286000000,-4.2128191,-406.02359
4287000000,-4.232553,-406.06268
4288000000,-4.2435918,-406.315
4289000000,-4.22087,-406.2482
4290000000,-4.2181039,-406.41205
4291000000,-4.2383986,-406.55133
4292000000,-4.2089896,-406.67838
4293000000,-4.2438521,-406.79352
4294000000,-4.2426987,-406.72256
4295000000,-4.2052283,-406.87921
4296000000,-4.2162256,-407.01422
4297000000,-4.2225804,-407.10757
4298000000,-4.220129,-407.13269
4299000000,-4.2265611,-407.28827
4300000000,-4.2173371,-407.10953
4301000000,-4.225625,-407.36581
4302000000,-4.2352977,-407.52509
4303000000,-4.2074375,-407.57831
4304000000,-4.2472334,-407.59665
4305000000,-4.2396193,-407.87592
4306000000,-4.2084503,-407.88593
4307000000,-4.2104063,-407.75244
4308000000,-4.2192822,-408.17685
4309000000,-4.197432,-408.34601
4310000000,-4.2266011,-408.06512
4311000000,-4.2258143,-408.22818
4312000000,-4.2280293,-408.22665
4313000000,-4.2290912,-408.5054
4314000000,-4.2281756,-408.68683
4315000000,-4.2221813,-408.70172
4316000000,-4.2239695,-408.63995
4317000000,-4.2131815,-408.82196
4318000000,-4.2204061,-408.88904
4319000000,-4.2333865,-409.13004
4320000000,-4.2220721,-409.01065
4321000000,-4.231142,-409.29706
4322000000,-4.225915,-409.522
4323000000,-4.217082,-409.34088
4324000000,-4.2395945,-409.60135
4325000000,-4.2209816,-409.4241
4326000000,-4.2248378,-409.5625
4327000000,-4.2044101,-409.6246
4328000000,-4.2388949,-409.67398
4329000000,-4.2274108,-409.93524
4330000000,-4.2562771,-409.88348
4331000000,-4.2153478,-410.00854
4332000000,-4.2389498,-410.26187
4333000000,-4.2182713,-410.20889
4334000000,-4.2249694,-410.40775
4335000000,-4.2174211,-410.55685
4336000000,-4.2309856,-410.41684
4337000000,-4.2254333,-410.8045
4338000000,-4.2214499,-410.67056
4339000000,-4.2170405,-410.70993
4340000000,-4.2285614,-410.62
4341000000,-4.218729,-410.95303
4342000000,-4.2178192,-411.11011
4343000000,-4.2276583,-411.16949
4344000000,-4.2288465,-411.25592
4345000000,-4.2522321,-411.34073
4346000000,-4.2427664,-411.4126
4347000000,-4.2164788,-411.46017
4348000000,-4.2229075,-411.73206
4349000000,-4.2039995,-411.7337
4350000000,-4.2526584,-411.61212
4351000000,-4.2431903,-411.83582
4352000000,-4.2524281,-411.89545
4353000000,-4.2342744,-411.99655
4354000000,-4.2134466,-412.17697
4355000000,-4.2389183,-412.45197
4356000000,-4.2336764,-412.40015
4357000000,-4.2083201,-412.4704
4358000000,-4.2465196,-412.46613
4359000000,-4.2377119,-412.69684
4360000000,-4.2366447,-412.55878
4361000000,-4.2364688,-412.92422
4362000000,-4.2266283,-412.90686
4363000000,-4.2258549,-412.87772
4364000000,-4.2392812,-413.18561
4365000000,-4.2316027,-413.13614
4366000000,-4.2063971,-413.23062
4367000000,-4.2265429,-413.50949
4368000000,-4.2078938,-413.50626
4369000000,-4.2081089,-413.65277
4370000000,-4.2290287,-413.69983
4371000000,-4.2303095,-413.7905
4372000000,-4.2363801,-413.83261
4373000000,-4.2441678,-413.95993
4374000000,-4.2220721,-413.91278
4375000000,-4.2469454,-414.15024
4376000000,-4.2249489,-414.10388
4377000000,-4.2321501,-414.17792
4378000000,-4.2395587,-414.24173
4379000000,-4.2214317,-414.37946
4380000000,-4.2195387,-414.52222
4381000000,-4.2029018,-414.63177
4382000000,-4.2166862,-414.6488
4383000000,-4.2206278,-414.79178
4384000000,-4.2051077,-414.77539
4385000000,-4.2274461,-415.04507
4386000000,-4.2383399,-415.05844
4387000000,-4.2258787,-415.20132
4388000000,-4.2457852,-415.19424
4389000000,-4.2196379,-415.28821
4390000000,-4.2112598,-415.44958
4391000000,-4.2209406,-415.41849
4392000000,-4.2361751,-415.64444
4393000000,-4.2087708,-415.69897
4394000000,-4.2116032,-415.87027
4395000000,-4.2508054,-415.84781
4396000000,-4.2157698,-415.9838
4397000000,-4.2030001,-416.03632
4398000000,-4.2354016,-416.03741
4399000000,-4.215785,-416.21213
4400000000,-4.2104001,-416.40976
4401000000,-4.2235088,-416.38153
4402000000,-4.2262726,-416.36368
4403000000,-4.2117929,-416.69629
4404000000,-4.2113299,-416.65475
4405000000,-4.2100453,-416.74866
4406000000,-4.2086139,-416.99951
4407000000,-4.1804233,-417.04575
4408000000,-4.207396,-417.23853
4409000000,-4.1825104,-417.21008
4410000000,-4.2033,-417.28784
4411000000,-4.2064028,-417.34955
4412000000,-4.1928239,-417.66788
4413000000,-4.213695,-417.57275
4414000000,-4.1884365,-417.79517
4415000000,-4.2326598,-417.67416
4416000000,-4.245172,-417.77664
4417000000,-4.2132139,-418.04095
4418000000,-4.2123041,-418.06369
4419000000,-4.1985617,-418.05075
4420000000,-4.2066021,-418.34143
4421000000,-4.2286296,-418.3067
4422000000,-4.2116237,-418.36502
4423000000,-4.203464,-418.3801
4424000000,-4.1990075,-418.75589
4425000000,-4.1933584,-418.73431
4426000000,-4.2050791,-418.80219
4427000000,-4.2116542,-418.95618
4428000000,-4.2152724,-419.013
4429000000,-4.1980114,-419.02264
4430000000,-4.1934495,-419.12805
4431000000,-4.2134314,-419.27777
4432000000,-4.2279596,-419.40506
4433000000,-4.1835771,-419.37729
4434000000,-4.2033739,-419.57727
4435000000,-4.193563,-419.59003
4436000000,-4.2074609,-419.65063
4437000000,-4.2032781,-419.77301
4438000000,-4.1986732,-419.99756
4439000000,-4.206367,-419.9538
4440000000,-4.2144051,-420.15616
4441000000,-4.1917815,-420.26712
4442000000,-4.2112913,-420.41241
4443000000,-4.2081141,-420.31793
4444000000,-4.1978569,-420.4404
4445000000,-4.1988425,-420.67374
4446000000,-4.2124696,-420.74554
4447000000,-4.2253332,-420.76822
4448000000,-4.2029057,-420.90317
4449000000,-4.1968374,-420.97882
4450000000,-4.1954441,-421.09064
4451000000,-4.2184181,-421.15381
4452000000,-4.2086687,-421.32361
4453000000,-4.2068982,-421.38464
4454000000,-4.1931577,-421.49792
4455000000,-4.2036791,-421.53183
4456000000,-4.1930914,-421.43018
4457000000,-4.213201,-421.64932
4458000000,-4.1938329,-421.7645
4459000000,-4.2112904,-421.96909
4460000000,-4.1637549,-421.93692
4461000000,-4.2054839,-422.06387
4462000000,-4.1970897,-422.12399
4463000000,-4.165204,-422.21979
4464000000,-4.1869526,-422.33832
4465000000,-4.1950159,-422.47928
4466000000,-4.2068272,-422.54977
4467000000,-4.226202,-422.58444
4468000000,-4.1826687,-422.58951
4469000000,-4.1649833,-422.73508
4470000000,-4.19168,-423.04288
4471000000,-4.2006063,-423.12613
4472000000,-4.1795626,-423.18723
4473000000,-4.1944809,-423.22061
4474000000,-4.189476,-423.46756
4475000000,-4.2095661,-423.40817
4476000000,-4.1955757,-423.57034
4477000000,-4.1792507,-423.61279
4478000000,-4.190073,-423.896
4479000000,-4.1891637,-423.73306
4480000000,-4.173295,-423.8764
4481000000,-4.2109241,-423.89328
4482000000,-4.1898031,-424.03079
4483000000,-4.2032452,-424.05377
4484000000,-4.1869564,-424.15216
4485000000,-4.2014055,-424.20071
4486000000,-4.180881,-424.6196
4487000000,-4.1668282,-424.4928
4488000000,-4.2139082,-424.56406
4489000000,-4.1751494,-424.90759
4490000000,-4.1736984,-424.94028
4491000000,-4.1522923,-425.0538
4492000000,-4.1480474,-425.18954
4493000000,-4.1691356,-425.39017
4494000000,-4.1776671,-425.28043
4495000000,-4.1785007,-425.32986
4496000000,-4.1905551,-425.48093
4497000000,-4.191164,-425.65131
4498000000,-4.2033134,-425.56592
4499000000,-4.1829519,-425.68167
4500000000,-4.1966205,-425.96213
4501000000,-4.1967454,-426.05551
4502000000,-4.1726708,-426.05618
4503000000,-4.1898828,-426.09821
4504000000,-4.1924953,-426.15036
4505000000,-4.1750436,-426.25003
4506000000,-4.2016459,-426.64343
4507000000,-4.1844015,-426.53326
4508000000,-4.1657786,-426.47205
4509000000,-4.1717153,-426.74405
4510000000,-4.1622124,-426.67453
4511000000,-4.2045088,-427.01025
4512000000,-4.184093,-426.96344
4513000000,-4.1702499,-427.07077
4514000000,-4.2040572,-427.38666
4515000000,-4.2080717,-427.32367
4516000000,-4.1834159,-427.54071
4517000000,-4.1788707,-427.65076
4518000000,-4.1774998,-427.55679
4519000000,-4.1875634,-427.73611
4520000000,-4.1874681,-427.81686
4521000000,-4.195416,-428.11591
4522000000,-4.1887689,-427.99106
4523000000,-4.1857471,-428.06894
4524000000,-4.2019024,-428.01932
4525000000,-4.1889882,-428.32367
4526000000,-4.2095408,-428.28732
4527000000,-4.1996007,-428.46991
4528000000,-4.196074,-428.60507
4529000000,-4.1846652,-428.74677
4530000000,-4.1640339,-428.90918
4531000000,-4.2044735,-428.89117
4532000000,-4.1877832,-428.82297
4533000000,-4.1871438,-428.99481
4534000000,-4.1879497,-429.38281
4535000000,-4.166718,-429.20233
4536000000,-4.1700459,-429.35516
4537000000,-4.1902494,-429.32748
4538000000,-4.1623087,-429.62277
4539000000,-4.1585617,-429.57687
4540000000,-4.16576,-429.81647
4541000000,-4.1615052,-429.80762
4542000000,-4.2067294,-429.85144
4543000000,-4.1645799,-430.0433
4544000000,-4.1711674,-430.27945
4545000000,-4.1607609,-430.20331
4546000000,-4.1689358,-430.48734
4547000000,-4.1723013,-430.49747
4548000000,-4.1708264,-430.49042
4549000000,-4.1975636,-430.71533
4550000000,-4.1617856,-430.55069
4551000000,-4.16921,-430.80316
4552000000,-4.1710944,-430.86551
4553000000,-4.1738539,-431.06686
4554000000,-4.2010536,-431.30652
4555000000,-4.1798925,-431.22665
4556000000,-4.1760726,-431.38687
4557000000,-4.1736059,-431.53827
4558000000,-4.1780429,-431.61899
4559000000,-4.1961813,-431.67288
4560000000,-4.1766329,-431.74109
4561000000,-4.1772156,-431.94714
4562000000,-4.1728716,-431.93906
4563000000,-4.1925921,-432.09857
4564000000,-4.1690197,-432.16635
4565000000,-4.1515841,-432.24347
4566000000,-4.1965065,-432.27487
4567000000,-4.1834478,-432.50949
4568000000,-4.172276,-432.39639
4569000000,-4.1781554,-432.66611
4570000000,-4.1742887,-432.77533
4571000000,-4.1677113,-432.77341
4572000000,-4.1768737,-432.96973
4573000000,-4.1915727,-433.16077
4574000000,-4.1760983,-432.9393
4575000000,-4.1890101,-433.22763
4576000000,-4.1783953,-433.24869
4577000000,-4.1670213,-433.44955
4578000000,-4.1697865,-433.49146
4579000000,-4.1891074,-433.65829
4580000000,-4.1729932,-433.7637
4581000000,-4.193399,-433.75113
4582000000,-4.1771498,-433.88385
4583000000,-4.1902132,-433.96957
4584000000,-4.1457572,-434.19449
4585000000,-4.1776681,-434.19867
4586000000,-4.1829166,-434.37125
4587000000,-4.1696568,-434.28995
4588000000,-4.1847219,-434.50311
4589000000,-4.1696396,-434.57761
4590000000,-4.1573763,-434.69629
4591000000,-4.1939182,-434.82867
4592000000,-4.1832972,-434.98138
4593000000,-4.1814876,-435.15009
4594000000,-4.1558142,-435.13623
4595000000,-4.1758366,-435.05179
4596000000,-4.1800303,-435.30548
4597000000,-4.1869817,-435.37735
4598000000,-4.1654201,-435.48239
4599000000,-4.1715517,-435.60834
4600000000,-4.1664333,-435.7157
4601000000,-4.1819787,-435.64969
4602000000,-4.1898789,-435.81619
4603000000,-4.1501555,-435.9808
4604000000,-4.2071962,-436.19492
4605000000,-4.1645708,-436.27808
4606000000,-4.1736093,-436.44397
4607000000,-4.1608968,-436.2074
4608000000,-4.1753383,-436.48639
4609000000,-4.181591,-436.50336
4610000000,-4.1901708,-436.66013
4611000000,-4.1626997,-436.71231
4612000000,-4.1790347,-436.85315
4613000000,-4.1899104,-437.07681
4614000000,-4.1654167,-437.17889
4615000000,-4.1864495,-437.13681
4616000000,-4.1659575,-437.13852
4617000000,-4.2006564,-437.42169
4618000000,-4.190454,-437.45462
4619000000,-4.1646318,-437.62085
4620000000,-4.1746745,-437.65271
4621000000,-4.163691,-437.74908
4622000000,-4.1741819,-438.04614
4623000000,-4.1598606,-437.88846
4624000000,-4.1728315,-438.18271
4625000000,-4.1697078,-438.04431
4626000000,-4.1872325,-438.29889
4627000000,-4.1769137,-438.47421
4628000000,-4.1600981,-438.32285
4629000000,-4.1615968,-438.78766
4630000000,-4.174778,-438.84799
4631000000,-4.1823025,-438.84741
4632000000,-4.1663713,-438.89078
4633000000,-4.1836987,-439.17966
4634000000,-4.1483006,-439.14362
4635000000,-4.1874285,-439.09216
4636000000,-4.1763067,-439.31812
4637000000,-4.1441994,-439.37756
4638000000,-4.1972718,-439.43002
4639000000,-4.1804543,-439.5722
4640000000,-4.1900587,-439.7085
4641000000,-4.1897378,-439.59854
4642000000,-4.1756196,-439.841
4643000000,-4.1834393,-440.10135
4644000000,-4.1736817,-440.13184
4645000000,-4.1645913,-440.05896
4646000000,-4.2018132,-440.33981
4647000000,-4.1554809,-440.32544
4648000000,-4.163249,-440.46912
4649000000,-4.1803503,-440.56104
4650000000,-4.1801615,-440.82797
4651000000,-4.1806712,-440.78418
4652000000,-4.1888599,-440.89099
4653000000,-4.1799698,-440.94592
4654000000,-4.1866093,-441.04001
4655000000,-4.1780972,-441.13736
4656000000,-4.1748772,-441.47684
4657000000,-4.1828623,-441.4408
4658000000,-4.1914296,-441.39847
4659000000,-4.1797361,-441.71494
4660000000,-4.1873121,-441.62946
4661000000,-4.165184,-441.80518
4662000000,-4.1756597,-442.03033
4663000000,-4.1559696,-441.96191
4664000000,-4.1661882,-442.17151
4665000000,-4.1832194,-442.2157
4666000000,-4.1703911,-442.34979
4667000000,-4.187212,-442.44778
4668000000,-4.1701922,-442.54419
4669000000,-4.1924405,-442.43472
4670000000,-4.1847672,-442.60776
4671000000,-4.1861439,-442.82544
4672000000,-4.1915712,-442.90906
4673000000,-4.1748834,-442.9277
4674000000,-4.1905141,-443.01498
4675000000,-4.1754456,-443.26132
4676000000,-4.18751,-443.34375
4677000000,-4.1996965,-443.3562
4678000000,-4.175827,-443.48141
4679000000,-4.1785073,-443.48318
4680000000,-4.2064009,-443.66595
4681000000,-4.1637421,-443.61227
4682000000,-4.1915193,-444.03864
4683000000,-4.1935182,-443.9101
4684000000,-4.1841521,-443.93695
4685000000,-4.1925907,-444.40952
4686000000,-4.1955199,-444.27475
4687000000,-4.1869192,-444.19827
4688000000,-4.1952968,-444.37436
4689000000,-4.1678147,-444.56586
4690000000,-4.1978688,-444.65997
4691000000,-4.1864243,-444.81943
4692000000,-4.1875796,-444.92499
4693000000,-4.2093902,-444.9805
4694000000,-4.1729088,-445.06696
4695000000,-4.1904955,-445.29849
4696000000,-4.1646643,-445.49158
4697000000,-4.2192783,-445.37454
4698000000,-4.1943316,-445.50595
4699000000,-4.2019281,-445.62097
4700000000,-4.1958776,-445.78256
4701000000,-4.1926327,-445.77252
4702000000,-4.1939554,-445.84845
4703000000,-4.1859131,-445.97092
4704000000,-4.2009606,-446.15427
4705000000,-4.2003746,-446.10883
4706000000,-4.2083993,-446.41763
4707000000,-4.1672492,-446.45117
4708000000,-4.2037621,-446.45935
4709000000,-4.1698198,-446.48987
4710000000,-4.1717834,-446.79779
4711000000,-4.2154307,-446.74115
4712000000,-4.1960301,-446.88602
4713000000,-4.1992803,-446.95972
4714000000,-4.2085042,-446.94946
4715000000,-4.1847506,-447.23788
4716000000,-4.1899624,-447.22495
4717000000,-4.1915746,-447.49414
4718000000,-4.1792111,-447.5311
4719000000,-4.2151504,-447.48761
4720000000,-4.2198381,-447.76328
4721000000,-4.2002068,-447.77087
4722000000,-4.2072411,-447.7868
4723000000,-4.1829028,-448.02332
4724000000,-4.1920176,-448.02887
4725000000,-4.1885319,-448.2612
4726000000,-4.1983848,-448.27161
4727000000,-4.2246571,-448.43396
4728000000,-4.2075768,-448.53488
4729000000,-4.2016211,-448.55832
4730000000,-4.2061415,-448.69098
4731000000,-4.2032146,-448.8642
4732000000,-4.2121115,-448.81058
4733000000,-4.2114525,-448.97629
4734000000,-4.1961789,-449.24496
4735000000,-4.2067175,-449.3096
4736000000,-4.1972756,-449.30026
4737000000,-4.1983166,-449.38272
4738000000,-4.2021809,-449.49704
4739000000,-4.2067938,-449.56757
4740000000,-4.2338514,-449.91125
4741000000,-4.2250209,-449.91357
4742000000,-4.1932297,-449.76672
4743000000,-4.2044363,-450.09103
4744000000,-4.2156196,-450.21909
4745000000,-4.2002316,-450.29123
4746000000,-4.1912856,-450.50781
4747000000,-4.214376,-450.42932
4748000000,-4.195703,-450.44641
4749000000,-4.2019148,-450.70163
4750000000,-4.2048273,-450.72546
4751000000,-4.2063184,-450.93668
4752000000,-4.1747885,-450.98383
4753000000,-4.1874056,-451.09976
4754000000,-4.208138,-451.14584
4755000000,-4.1994772,-451.3298
4756000000,-4.2064314,-451.44131
4757000000,-4.2185121,-451.50168
4758000000,-4.215138,-451.38251
4759000000,-4.1808238,-451.56021
4760000000,-4.1996908,-451.54831
4761000000,-4.2145295,-451.84393
4762000000,-4.2262516,-451.75836
4763000000,-4.2030101,-451.96161
4764000000,-4.2182455,-452.21835
4765000000,-4.2109303,-452.14911
4766000000,-4.2066898,-452.49084
4767000000,-4.2256575,-452.41714
4768000000,-4.2278805,-452.44009
4769000000,-4.2514653,-452.67499
4770000000,-4.2171187,-452.70648
4771000000,-4.2184753,-452.82053
4772000000,-4.2112837,-453.00308
4773000000,-4.2155452,-453.11194
4774000000,-4.2171531,-453.1199
4775000000,-4.1766276,-453.18213
4776000000,-4.1998091,-453.38281
4777000000,-4.216548,-453.52368
4778000000,-4.1987038,-453.44797
4779000000,-4.1972523,-453.62735
4780000000,-4.2040567,-453.82047
4781000000,-4.2150321,-453.95587
4782000000,-4.2186208,-454.01929
4783000000,-4.2189326,-454.0997
4784000000,-4.203022,-454.32632
4785000000,-4.1856008,-454.29614
4786000000,-4.1951079,-454.46317
4787000000,-4.1966028,-454.62262
4788000000,-4.2195554,-454.59543
4789000000,-4.2316084,-454.71417
4790000000,-4.2228246,-454.83585
4791000000,-4.2422605,-454.72296
4792000000,-4.2083716,-454.97525
4793000000,-4.2065654,-455.19958
4794000000,-4.2143483,-455.05722
4795000000,-4.217319,-455.33142
4796000000,-4.2305346,-455.44217
4797000000,-4.2095947,-455.40167
4798000000,-4.1843886,-455.48129
4799000000,-4.2140598,-455.78958
4800000000,-4.1843686,-455.76779
4801000000,-4.2025185,-455.83102
4802000000,-4.204545,-455.94113
4803000000,-4.2215633,-456.15417
4804000000,-4.2004766,-456.11053
4805000000,-4.2175951,-456.33295
4806000000,-4.2044683,-456.51413
4807000000,-4.2088075,-456.64471
4808000000,-4.2075963,-456.73883
4809000000,-4.2237482,-456.72345
4810000000,-4.2272801,-456.83939
4811000000,-4.23774,-456.81104
4812000000,-4.2100387,-457.14069
4813000000,-4.2149701,-457.13101
4814000000,-4.2281275,-457.0899
4815000000,-4.2093635,-457.3743
4816000000,-4.2234974,-457.50052
4817000000,-4.2388387,-457.60153
4818000000,-4.2350192,-457.42218
4819000000,-4.239049,-457.91876
4820000000,-4.2189989,-457.79861
4821000000,-4.2037148,-457.98529
4822000000,-4.1873612,-458.11026
4823000000,-4.2174263,-458.11203
4824000000,-4.2483521,-458.23227
4825000000,-4.2145624,-458.3663
4826000000,-4.2196965,-458.42065
4827000000,-4.2215137,-458.54373
4828000000,-4.2245851,-458.70468
4829000000,-4.2544727,-458.85223
4830000000,-4.2015791,-458.71268
4831000000,-4.204546,-459.01318
4832000000,-4.197206,-459.03046
4833000000,-4.2398996,-459.15369
4834000000,-4.2229385,-459.42389
4835000000,-4.1974177,-459.35208
4836000000,-4.223455,-459.44666
4837000000,-4.2315893,-459.62769
4838000000,-4.2132354,-459.76144
4839000000,-4.2523232,-459.8895
4840000000,-4.2226343,-459.92462
4841000000,-4.2292509,-459.96774
4842000000,-4.2184768,-460.07123
4843000000,-4.2272224,-460.18082
4844000000,-4.2127271,-460.21164
4845000000,-4.2276254,-460.39578
4846000000,-4.2373843,-460.61447
4847000000,-4.2454801,-460.70096
4848000000,-4.2393794,-460.82724
4849000000,-4.2132883,-460.85315
4850000000,-4.2424722,-460.92642
4851000000,-4.2462001,-461.11078
4852000000,-4.2162113,-461.27142
4853000000,-4.2156487,-461.19519
4854000000,-4.2377434,-461.38583
4855000000,-4.2216272,-461.36005
4856000000,-4.2219877,-461.64987
4857000000,-4.232697,-461.59964
4858000000,-4.2244177,-461.82248
4859000000,-4.2354236,-462.02924
4860000000,-4.2286363,-461.72522
4861000000,-4.2383747,-462.11438
4862000000,-4.2391539,-462.44397
4863000000,-4.2328372,-462.15256
4864000000,-4.2357049,-462.16815
4865000000,-4.2217698,-462.49741
4866000000,-4.2471366,-462.71741
4867000000,-4.2443442,-462.76483
4868000000,-4.2564335,-462.68423
4869000000,-4.2608709,-462.9342
4870000000,-4.2544737,-463.00613
4871000000,-4.2429523,-463.0246
4872000000,-4.2686429,-463.06329
4873000000,-4.2282438,-463.35779
4874000000,-4.2559314,-463.25644
4875000000,-4.2527108,-463.39966
4876000000,-4.2248235,-463.51544
4877000000,-4.2382975,-463.70593
4878000000,-4.252336,-463.76389
4879000000,-4.2262816,-464.02481
4880000000,-4.2391186,-464.04584
4881000000,-4.243494,-464.16327
4882000000,-4.2697101,-464.21448
4883000000,-4.2329974,-464.24554
4884000000,-4.2365861,-464.46439
4885000000,-4.2466025,-464.48767
4886000000,-4.2403288,-464.64569
4887000000,-4.275455,-464.80536
4888000000,-4.2425499,-465.03607
4889000000,-4.2535043,-465.00403
4890000000,-4.2216029,-465.13956
4891000000,-4.2618027,-465.14633
4892000000,-4.2567792,-465.32669
4893000000,-4.231833,-465.51428
4894000000,-4.2677417,-465.52368
4895000000,-4.2413568,-465.56454
4896000000,-4.2448978,-465.73749
4897000000,-4.2458882,-465.81082
4898000000,-4.2534781,-465.8212
4899000000,-4.2628508,-465.93719
4900000000,-4.2740288,-466.01016
4901000000,-4.2923856,-466.28778
4902000000,-4.2595396,-466.22403
4903000000,-4.2589607,-466.24414
4904000000,-4.2557101,-466.40378
4905000000,-4.2701674,-466.46542
4906000000,-4.258038,-466.63901
4907000000,-4.2760415,-466.65308
4908000000,-4.2582636,-466.92224
4909000000,-4.2472363,-467.05511
4910000000,-4.2532878,-467.27957
4911000000,-4.253036,-467.28772
4912000000,-4.2463017,-467.42194
4913000000,-4.2760344,-467.49863
4914000000,-4.288096,-467.49722
4915000000,-4.282269,-467.64059
4916000000,-4.2702184,-467.83737
4917000000,-4.2830787,-467.83801
4918000000,-4.2599664,-467.99234
4919000000,-4.2703247,-468.18149
4920000000,-4.258266,-468.23981
4921000000,-4.2713704,-468.29181
4922000000,-4.256917,-468.30142
4923000000,-4.2973137,-468.54279
4924000000,-4.2807941,-468.72333
4925000000,-4.2749705,-468.7814
4926000000,-4.2875042,-468.77512
4927000000,-4.277657,-468.97806
4928000000,-4.2822185,-469.05804
4929000000,-4.2614141,-469.15112
4930000000,-4.2733479,-469.23172
4931000000,-4.2722383,-469.57349
4932000000,-4.2816806,-469.4472
4933000000,-4.2770014,-469.5654
4934000000,-4.2642627,-469.54507
4935000000,-4.2790036,-469.84418
4936000000,-4.2748842,-469.87485
4937000000,-4.2725153,-469.94455
4938000000,-4.2883172,-470.24454
4939000000,-4.2955456,-470.10275
4940000000,-4.3091588,-470.45413
4941000000,-4.3072715,-470.35208
4942000000,-4.2931213,-470.72095
4943000000,-4.274662,-470.64185
4944000000,-4.2830153,-470.52039
4945000000,-4.2974281,-470.92209
4946000000,-4.3009501,-470.8486
4947000000,-4.2792344,-471.07843
4948000000,-4.2827506,-471.11374
4949000000,-4.2825756,-471.24655
4950000000,-4.3076725,-471.39005
4951000000,-4.2873783,-471.54282
4952000000,-4.3012228,-471.45227
4953000000,-4.2861314,-471.66211
4954000000,-4.2635126,-471.64545
4955000000,-4.2833571,-471.71832
4956000000,-4.29951,-471.85629
4957000000,-4.2965484,-471.92514
4958000000,-4.2978611,-472.0748
4959000000,-4.300725,-472.40213
4960000000,-4.3026505,-472.42822
4961000000,-4.2910366,-472.46808
4962000000,-4.3126841,-472.64456
4963000000,-4.310555,-472.52167
4964000000,-4.2771654,-472.90601
4965000000,-4.3100514,-472.95349
4966000000,-4.308814,-473.07852
4967000000,-4.3038335,-473.00879
4968000000,-4.325655,-473.25174
4969000000,-4.2948833,-473.29517
4970000000,-4.3049555,-473.38019
4971000000,-4.3282957,-473.61526
4972000000,-4.3118873,-473.7869
4973000000,-4.3193884,-473.82803
4974000000,-4.3181853,-473.92709
4975000000,-4.3143268,-473.94873
4976000000,-4.3196249,-473.94077
4977000000,-4.3196225,-474.22363
4978000000,-4.2828522,-474.23972
4979000000,-4.3264709,-474.30429
4980000000,-4.3274584,-474.56122
4981000000,-4.3158803,-474.65604
4982000000,-4.2989464,-474.68869
4983000000,-4.3219275,-474.79492
4984000000,-4.3094621,-474.86426
4985000000,-4.3334327,-475.01852
4986000000,-4.3001738,-475.21304
4987000000,-4.331872,-475.09125
4988000000,-4.3275266,-475.30325
4989000000,-4.3031492,-475.39221
4990000000,-4.3430691,-475.75015
4991000000,-4.3487096,-475.48962
4992000000,-4.3465815,-475.84201
4993000000,-4.3188257,-475.81296
4994000000,-4.3314447,-476.03873
4995000000,-4.3369231,-475.96069
4996000000,-4.3248906,-476.18118
4997000000,-4.3465986,-476.06485
4998000000,-4.3360853,-476.1637
4999000000,-4.3430777,-476.45493
5000000000,-4.3223276,-476.60477
END

