!CSV A.01.01
!Agilent Technologies,E8362C,MY49020225,A.09.42.22
!Agilent E8362C: A.09.42.22
!Date: Friday, March 04, 2016 14:45:14
!Source: Standard

BEGIN CH1_DATA
Freq(Hz),S11 Phase(°),S21 Phase(°)
1000000000,-114.11719,173.57712
1001000000,-114.46307,173.40599
1002000000,-113.61416,173.30722
1003000000,-113.6086,173.22786
1004000000,-113.16366,172.88252
1005000000,-112.74345,172.80209
1006000000,-112.31264,172.59409
1007000000,-111.38975,172.51248
1008000000,-111.26517,172.12592
1009000000,-111.06688,171.93207
1010000000,-111.37875,171.81044
1011000000,-111.3289,171.28807
1012000000,-110.93526,171.26529
1013000000,-110.69262,170.88852
1014000000,-110.74467,170.73247
1015000000,-110.0713,170.67865
1016000000,-110.13462,170.38025
1017000000,-109.7374,170.19171
1018000000,-109.79842,170.06648
1019000000,-109.77684,169.93138
1020000000,-109.43105,169.77513
1021000000,-109.29264,169.41531
1022000000,-109.84189,169.40485
1023000000,-109.60276,169.09491
1024000000,-109.64098,168.8989
1025000000,-109.08714,168.74513
1026000000,-109.47855,168.54756
1027000000,-109.16838,168.19458
1028000000,-109.00298,167.96977
1029000000,-109.03191,167.89104
1030000000,-109.19257,167.64615
1031000000,-109.1113,167.44037
1032000000,-108.75779,167.34996
1033000000,-109.0106,166.97261
1034000000,-109.0223,166.8174
1035000000,-109.06733,166.66696
1036000000,-108.92999,166.53204
1037000000,-109.20346,166.26144
1038000000,-109.17942,165.98174
1039000000,-109.05494,165.83777
1040000000,-109.48296,165.62506
1041000000,-109.32623,165.41498
1042000000,-109.49335,165.37109
1043000000,-109.09689,165.04883
1044000000,-109.67663,164.74457
1045000000,-109.27495,164.65625
1046000000,-109.76667,164.44388
1047000000,-110.25625,164.07446
1048000000,-109.85691,164.02025
1049000000,-109.88128,163.85391
1050000000,-109.96564,163.71013
1051000000,-110.68159,163.23959
1052000000,-110.62032,163.09344
1053000000,-110.15723,163.00272
1054000000,-110.2506,163.05325
1055000000,-110.40562,162.64244
1056000000,-110.72739,162.44096
1057000000,-110.93777,162.14232
1058000000,-110.55699,161.88533
1059000000,-110.94212,161.79742
1060000000,-110.73863,161.71365
1061000000,-110.68225,161.58046
1062000000,-111.20248,161.21629
1063000000,-111.56738,161.00278
1064000000,-111.51006,160.72707
1065000000,-111.20951,160.75548
1066000000,-111.62523,160.35724
1067000000,-111.53515,160.21562
1068000000,-111.39233,160.08449
1069000000,-111.91498,159.76755
1070000000,-111.87382,159.62221
1071000000,-111.90556,159.39612
1072000000,-111.9337,159.18742
1073000000,-112.17981,158.81047
1074000000,-112.34399,158.75409
1075000000,-112.23825,158.37933
1076000000,-113.13144,158.46254
1077000000,-112.34575,158.22484
1078000000,-112.8643,157.83989
1079000000,-113.31243,157.61418
1080000000,-113.34441,157.44003
1081000000,-113.28506,157.0576
1082000000,-113.90827,157.1248
1083000000,-113.63913,157.06926
1084000000,-113.7261,156.78702
1085000000,-114.03017,156.44362
1086000000,-114.01434,156.37323
1087000000,-114.11251,156.22467
1088000000,-114.40652,155.8356
1089000000,-114.33089,155.92261
1090000000,-114.44523,155.62282
1091000000,-114.68199,155.34154
1092000000,-114.76634,155.08304
1093000000,-114.95557,155.06306
1094000000,-115.38289,154.70451
1095000000,-115.33992,154.46977
1096000000,-115.43694,154.27438
1097000000,-115.62907,154.05141
1098000000,-116.19762,153.77748
1099000000,-115.66409,153.78343
1100000000,-115.94213,153.52498
1101000000,-115.83462,153.24715
1102000000,-116.42488,153.02612
1103000000,-116.4483,152.74124
1104000000,-116.86745,152.7314
1105000000,-116.79102,152.55261
1106000000,-116.95547,152.2206
1107000000,-117.18188,152.00401
1108000000,-117.32175,151.91412
1109000000,-117.40794,151.48465
1110000000,-117.4518,151.38852
1111000000,-117.65482,151.29475
1112000000,-118.20232,151.1322
1113000000,-118.01521,150.80148
1114000000,-118.39988,150.53674
1115000000,-118.35156,150.39276
1116000000,-118.60222,150.23448
1117000000,-118.42772,149.85864
1118000000,-118.70357,149.79378
1119000000,-119.08307,149.62413
1120000000,-119.08919,149.3098
1121000000,-119.20914,149.13632
1122000000,-119.18623,149.08076
1123000000,-119.51466,148.92108
1124000000,-119.56776,148.66667
1125000000,-119.8997,148.44954
1126000000,-120.08608,148.1837
1127000000,-120.35769,148.03207
1128000000,-120.41081,147.79047
1129000000,-120.42657,147.45874
1130000000,-120.87688,147.35603
1131000000,-120.47708,147.30498
1132000000,-121.35884,146.84
1133000000,-121.32874,146.56334
1134000000,-121.39124,146.54991
1135000000,-121.309,146.34569
1136000000,-121.78984,146.05518
1137000000,-121.86159,146.04906
1138000000,-122.07806,145.58023
1139000000,-122.53888,145.48187
1140000000,-122.16927,145.44359
1141000000,-122.89083,145.05748
1142000000,-122.22926,144.7403
1143000000,-122.94321,144.59128
1144000000,-123.05312,144.40466
1145000000,-122.91887,144.30022
1146000000,-123.43577,144.04726
1147000000,-123.31905,143.71553
1148000000,-123.71149,143.49425
1149000000,-123.93123,143.35278
1150000000,-123.63992,143.30315
1151000000,-124.00984,143.09836
1152000000,-124.33131,142.9612
1153000000,-124.46873,142.61023
1154000000,-124.39164,142.48862
1155000000,-124.87917,142.24535
1156000000,-124.65997,141.95007
1157000000,-124.75784,141.85014
1158000000,-125.17503,141.59235
1159000000,-125.31031,141.52826
1160000000,-125.22861,141.28374
1161000000,-125.18626,140.97522
1162000000,-125.9163,140.79741
1163000000,-125.51849,140.7612
1164000000,-125.80489,140.56538
1165000000,-126.36919,140.03712
1166000000,-126.1051,140.12903
1167000000,-126.3582,139.74292
1168000000,-126.91103,139.44603
1169000000,-126.87023,139.57701
1170000000,-126.89537,139.13229
1171000000,-127.21989,138.93062
1172000000,-127.54514,138.72118
1173000000,-127.29955,138.62527
1174000000,-127.88121,138.44064
1175000000,-128.01433,138.01857
1176000000,-127.95787,138.00734
1177000000,-128.03828,137.53787
1178000000,-128.13438,137.53055
1179000000,-128.2785,137.40175
1180000000,-128.5656,137.09923
1181000000,-128.4995,137.14212
1182000000,-129.14789,136.84906
1183000000,-128.89256,136.47798
1184000000,-129.39532,136.50623
1185000000,-129.63075,136.02063
1186000000,-129.69595,135.84811
1187000000,-129.93919,135.71178
1188000000,-129.94458,135.56566
1189000000,-129.75682,135.4637
1190000000,-130.34225,134.91179
1191000000,-130.50293,134.78403
1192000000,-130.71393,134.56322
1193000000,-130.46286,134.57732
1194000000,-130.84853,134.21613
1195000000,-130.94807,133.83916
1196000000,-131.40814,133.69617
1197000000,-131.47021,133.72137
1198000000,-131.44897,133.67815
1199000000,-131.53984,133.22438
1200000000,-132.04707,132.92734
1201000000,-132.02084,132.72089
1202000000,-132.14883,132.51332
1203000000,-132.29855,132.29185
1204000000,-132.35617,132.24518
1205000000,-132.75432,131.97511
1206000000,-132.81561,131.79628
1207000000,-133.36363,131.51579
1208000000,-133.09198,131.29083
1209000000,-133.67256,131.14207
1210000000,-133.40262,130.8801
1211000000,-133.82436,130.76256
1212000000,-134.01373,130.57118
1213000000,-133.8718,130.41783
1214000000,-134.22906,130.25217
1215000000,-134.09964,129.97177
1216000000,-134.26799,129.79297
1217000000,-134.73491,129.54903
1218000000,-134.87936,129.36472
1219000000,-135.19661,129.19197
1220000000,-135.3573,129.06024
1221000000,-135.31305,128.71634
1222000000,-135.67018,128.50648
1223000000,-135.81548,128.27827
1224000000,-136.17575,127.94532
1225000000,-136.19817,127.76776
1226000000,-136.06618,127.76623
1227000000,-136.33945,127.47418
1228000000,-136.63826,127.2907
1229000000,-136.82076,127.01096
1230000000,-136.73715,126.90377
1231000000,-137.15854,126.61103
1232000000,-137.53699,126.39406
1233000000,-137.37538,126.28159
1234000000,-137.68375,125.86065
1235000000,-137.99445,125.91787
1236000000,-138.12518,125.63239
1237000000,-137.84274,125.46169
1238000000,-138.58693,125.07766
1239000000,-138.36884,125.01715
1240000000,-138.92397,124.64909
1241000000,-139.15814,124.39795
1242000000,-139.02682,124.21848
1243000000,-139.14784,124.1251
1244000000,-139.55931,123.75998
1245000000,-139.61478,123.68392
1246000000,-139.81908,123.49955
1247000000,-139.6694,123.2214
1248000000,-139.87279,123.14942
1249000000,-140.07388,122.98801
1250000000,-140.30272,122.76299
1251000000,-140.81673,122.53764
1252000000,-140.69531,122.41855
1253000000,-141.11867,121.91154
1254000000,-141.15836,121.98897
1255000000,-141.58806,121.71079
1256000000,-141.44487,121.59234
1257000000,-141.83109,121.29187
1258000000,-141.75499,121.09615
1259000000,-142.41402,120.95849
1260000000,-142.50336,120.48946
1261000000,-142.09819,120.49777
1262000000,-142.58221,120.34572
1263000000,-142.57486,120.12623
1264000000,-142.76323,119.82523
1265000000,-142.8965,119.64445
1266000000,-143.2112,119.63226
1267000000,-143.80988,119.02914
1268000000,-143.59724,119.08459
1269000000,-143.83539,118.69303
1270000000,-144.1499,118.46404
1271000000,-144.20093,118.2786
1272000000,-144.07202,118.2814
1273000000,-144.35381,117.95152
1274000000,-144.89563,117.52683
1275000000,-144.71564,117.3363
1276000000,-144.90009,117.18154
1277000000,-145.45918,116.87652
1278000000,-145.2623,116.8343
1279000000,-145.41379,116.61331
1280000000,-145.1263,116.53526
1281000000,-145.95786,116.17473
1282000000,-145.95921,116.0428
1283000000,-146.04669,115.89336
1284000000,-146.07999,115.72648
1285000000,-146.61217,115.15856
1286000000,-146.44603,115.33797
1287000000,-146.97388,114.95251
1288000000,-147.11765,114.82463
1289000000,-147.14719,114.62215
1290000000,-147.47375,114.26819
1291000000,-147.45889,114.12817
1292000000,-147.85597,113.97395
1293000000,-147.72137,113.86662
1294000000,-147.73769,113.50796
1295000000,-148.14607,113.37689
1296000000,-148.14299,113.15913
1297000000,-147.69862,112.81409
1298000000,-148.45558,112.77129
1299000000,-149.02132,112.36588
1300000000,-148.79233,112.27492
1301000000,-148.81256,112.234
1302000000,-149.43564,111.99053
1303000000,-149.31454,111.66167
1304000000,-149.6134,111.51331
1305000000,-149.36728,111.24207
1306000000,-150.1131,110.96252
1307000000,-150.22879,110.77162
1308000000,-150.19043,110.45879
1309000000,-150.44177,110.36569
1310000000,-150.23018,110.21814
1311000000,-150.37811,109.90846
1312000000,-150.79686,109.74426
1313000000,-150.83797,109.50713
1314000000,-151.07277,109.23727
1315000000,-151.56142,109.13083
1316000000,-151.34723,108.81139
1317000000,-151.66824,108.68549
1318000000,-151.42532,108.46799
1319000000,-151.97876,108.09509
1320000000,-152.24644,108.00243
1321000000,-152.44736,107.65193
1322000000,-152.25583,107.67065
1323000000,-152.72896,107.38953
1324000000,-152.75195,107.32015
1325000000,-152.92043,106.87572
1326000000,-153.1523,106.77207
1327000000,-153.3638,106.64288
1328000000,-153.28824,106.37477
1329000000,-153.35529,106.22446
1330000000,-153.78636,105.95407
1331000000,-153.72472,105.78651
1332000000,-154.15163,105.52274
1333000000,-154.24063,105.23122
1334000000,-154.53886,105.10005
1335000000,-154.6519,104.83784
1336000000,-154.75449,104.68873
1337000000,-154.84918,104.3765
1338000000,-155.03734,104.19137
1339000000,-154.90028,104.07621
1340000000,-155.33649,103.64451
1341000000,-155.35634,103.52905
1342000000,-155.70483,103.34591
1343000000,-155.85667,103.08156
1344000000,-155.99229,102.79658
1345000000,-155.87717,102.79348
1346000000,-156.10556,102.46518
1347000000,-156.30185,102.45206
1348000000,-156.59843,102.06776
1349000000,-156.5885,101.89151
1350000000,-156.83247,101.77118
1351000000,-156.92783,101.48907
1352000000,-157.23775,101.19556
1353000000,-157.10117,101.00736
1354000000,-157.45291,100.76392
1355000000,-157.48686,100.63695
1356000000,-158.12868,100.29508
1357000000,-157.61449,100.15706
1358000000,-157.92993,100.03839
1359000000,-158.34772,99.69767
1360000000,-158.19447,99.510696
1361000000,-158.36273,99.202744
1362000000,-158.43538,99.099449
1363000000,-158.83795,98.804504
1364000000,-158.96671,98.679718
1365000000,-158.61787,98.323608
1366000000,-159.2583,98.192657
1367000000,-159.399,98.037262
1368000000,-159.5706,97.758537
1369000000,-159.54866,97.597496
1370000000,-159.51181,97.187416
1371000000,-159.79305,97.116653
1372000000,-160.23576,96.916855
1373000000,-160.35934,96.790321
1374000000,-159.95245,96.633163
1375000000,-159.79691,96.479103
1376000000,-160.41676,96.142265
1377000000,-160.9164,95.859634
1378000000,-160.87923,95.812294
1379000000,-161.1993,95.328812
1380000000,-160.97925,95.458084
1381000000,-161.36729,95.041145
1382000000,-161.80533,94.79921
1383000000,-161.71017,94.625465
1384000000,-161.61237,94.423149
1385000000,-162.11951,94.083717
1386000000,-162.29311,93.915215
1387000000,-162.33971,93.645065
1388000000,-162.57495,93.444504
1389000000,-162.77263,93.200577
1390000000,-162.56427,92.776848
1391000000,-163.153,92.680878
1392000000,-163.16106,92.535286
1393000000,-163.09018,92.330704
1394000000,-163.10052,92.160553
1395000000,-163.24741,91.846413
1396000000,-163.5674,91.657822
1397000000,-163.39467,91.476151
1398000000,-163.36305,91.236946
1399000000,-164.0632,90.988983
1400000000,-164.29573,90.812012
1401000000,-164.30002,90.594284
1402000000,-164.17467,90.43895
1403000000,-164.50764,90.328293
1404000000,-164.64232,90.057594
1405000000,-164.70276,89.86351
1406000000,-165.13263,89.544891
1407000000,-165.03751,89.221794
1408000000,-165.17299,89.101051
1409000000,-165.34673,88.740059
1410000000,-165.5354,88.735306
1411000000,-165.16208,88.219421
1412000000,-164.97261,88.321159
1413000000,-166.16806,87.867653
1414000000,-166.11275,87.634583
1415000000,-165.97137,87.595352
1416000000,-166.30943,87.204147
1417000000,-166.22754,87.099731
1418000000,-167.01166,86.703804
1419000000,-166.25528,86.83754
1420000000,-166.45381,86.447258
1421000000,-166.73285,86.102806
1422000000,-167.09654,86.094627
1423000000,-167.30685,85.685547
1424000000,-166.84743,85.730431
1425000000,-167.33549,85.416451
1426000000,-167.56483,85.202957
1427000000,-167.65195,84.954163
1428000000,-167.84953,84.634399
1429000000,-167.96521,84.554886
1430000000,-167.57561,84.233627
1431000000,-168.01892,83.934731
1432000000,-168.54143,83.648384
1433000000,-168.48238,83.419006
1434000000,-168.30872,83.368057
1435000000,-168.76532,83.046814
1436000000,-168.94301,82.69146
1437000000,-168.7119,82.614197
1438000000,-169.06807,82.397156
1439000000,-168.95766,82.273613
1440000000,-168.7148,81.971321
1441000000,-168.99426,81.688118
1442000000,-169.52571,81.446739
1443000000,-169.22128,81.4189
1444000000,-170.08621,80.983994
1445000000,-168.98529,80.9935
1446000000,-169.89645,80.613358
1447000000,-169.95291,80.277229
1448000000,-169.73781,80.251862
1449000000,-170.19083,79.976936
1450000000,-169.44029,79.853195
1451000000,-170.36731,79.500206
1452000000,-170.08841,79.306572
1453000000,-170.24908,79.167313
1454000000,-170.52533,79.012672
1455000000,-170.72815,78.387833
1456000000,-170.4847,78.544952
1457000000,-170.5352,78.106155
1458000000,-170.36302,78.060844
1459000000,-170.5502,77.656952
1460000000,-171.35306,77.436401
1461000000,-170.9679,76.996262
1462000000,-170.69124,76.984451
1463000000,-170.80637,76.778076
1464000000,-171.38254,76.651833
1465000000,-171.02013,76.342018
1466000000,-171.38196,76.28315
1467000000,-170.95949,75.912003
1468000000,-171.14647,75.770035
1469000000,-171.41544,75.471397
1470000000,-171.88199,75.169632
1471000000,-171.99306,74.899902
1472000000,-171.97116,74.622154
1473000000,-172.24083,74.467224
1474000000,-171.97276,74.31778
1475000000,-172.21327,73.957207
1476000000,-171.99695,73.737915
1477000000,-172.01642,73.660721
1478000000,-171.33472,73.399673
1479000000,-171.78934,73.193047
1480000000,-172.33041,72.814461
1481000000,-172.33937,72.676659
1482000000,-172.14729,72.395447
1483000000,-172.35919,72.254097
1484000000,-172.07269,71.79023
1485000000,-172.42261,71.612175
1486000000,-172.33665,71.496643
1487000000,-172.32838,71.304703
1488000000,-172.86533,70.944725
1489000000,-172.7462,70.783867
1490000000,-173.11653,70.424911
1491000000,-172.82574,70.231049
1492000000,-172.70097,70.221283
1493000000,-172.71344,69.630768
1494000000,-172.14452,69.743492
1495000000,-172.74297,69.420799
1496000000,-172.75652,69.083725
1497000000,-172.69498,68.92514
1498000000,-172.53529,68.865402
1499000000,-171.88066,68.557884
1500000000,-172.56422,68.323746
1501000000,-172.61072,67.943939
1502000000,-172.19762,68.035957
1503000000,-172.48012,67.452965
1504000000,-172.89262,67.259186
1505000000,-172.61737,67.243942
1506000000,-172.77942,66.786781
1507000000,-172.8092,66.645767
1508000000,-172.79356,66.34716
1509000000,-172.41887,66.017082
1510000000,-172.7995,65.806503
1511000000,-172.5231,65.601524
1512000000,-172.27618,65.549416
1513000000,-172.11903,65.220581
1514000000,-172.32938,65.012566
1515000000,-172.12672,64.793182
1516000000,-171.76622,64.485168
1517000000,-171.95996,64.249359
1518000000,-171.77347,64.054085
1519000000,-171.84755,63.629967
1520000000,-171.53462,63.549168
1521000000,-170.89246,63.317909
1522000000,-171.51591,62.978588
1523000000,-171.19339,62.768082
1524000000,-171.2661,62.440041
1525000000,-170.8618,62.268684
1526000000,-170.73067,62.094021
1527000000,-170.34657,62.022026
1528000000,-170.55394,61.704681
1529000000,-170.01154,61.248928
1530000000,-170.29295,61.047813
1531000000,-170.10689,60.972492
1532000000,-169.92523,60.759396
1533000000,-170.256,60.350185
1534000000,-169.63522,60.196331
1535000000,-169.42317,59.819359
1536000000,-168.87167,59.674477
1537000000,-169.17844,59.357471
1538000000,-168.83089,59.233841
1539000000,-168.17682,58.970802
1540000000,-168.40778,58.813183
1541000000,-168.14565,58.43005
1542000000,-167.85338,58.375687
1543000000,-167.92921,57.963745
1544000000,-167.26755,57.738548
1545000000,-167.26949,57.393433
1546000000,-166.97556,57.481361
1547000000,-166.55417,57.012623
1548000000,-166.57668,56.651798
1549000000,-165.93356,56.450912
1550000000,-165.64949,56.356464
1551000000,-165.14449,56.024811
1552000000,-165.25822,55.682426
1553000000,-164.78873,55.460484
1554000000,-164.5441,55.27047
1555000000,-163.75182,55.030102
1556000000,-163.91982,54.910622
1557000000,-163.21254,54.740154
1558000000,-162.47397,54.297752
1559000000,-162.30777,54.077953
1560000000,-162.00771,53.933083
1561000000,-161.12082,53.656681
1562000000,-160.91251,53.315987
1563000000,-160.8902,53.082027
1564000000,-159.9792,52.882469
1565000000,-160.0213,52.36866
1566000000,-158.23816,52.359467
1567000000,-158.07463,52.051643
1568000000,-158.35609,51.658665
1569000000,-157.29138,51.568382
1570000000,-156.68196,51.407993
1571000000,-156.75743,51.052208
1572000000,-155.53445,50.909569
1573000000,-154.5412,50.714149
1574000000,-154.56474,50.375172
1575000000,-154.37743,50.002758
1576000000,-152.95674,49.839821
1577000000,-152.51753,49.732597
1578000000,-151.83076,49.321579
1579000000,-150.96376,49.129761
1580000000,-150.42381,48.972607
1581000000,-149.47371,48.810902
1582000000,-149.04008,48.404263
1583000000,-148.52541,48.090454
1584000000,-148.22467,47.871582
1585000000,-147.07944,47.545071
1586000000,-146.23357,47.393311
1587000000,-145.74615,47.17482
1588000000,-144.81169,46.756718
1589000000,-143.97073,46.518978
1590000000,-143.81546,46.352684
1591000000,-141.72781,46.253742
1592000000,-141.28128,45.825142
1593000000,-140.99324,45.593903
1594000000,-139.7775,45.262577
1595000000,-139.06859,45.052856
1596000000,-138.53539,44.837467
1597000000,-137.66689,44.626759
1598000000,-136.76616,44.468014
1599000000,-135.73972,43.977222
1600000000,-134.90089,43.873417
1601000000,-133.75696,43.567486
1602000000,-133.23747,43.292538
1603000000,-132.38232,42.959862
1604000000,-131.25499,42.858574
1605000000,-130.17848,42.582016
1606000000,-130.12117,42.260124
1607000000,-129.03822,42.162678
1608000000,-128.4482,41.862865
1609000000,-127.92614,41.537548
1610000000,-126.63989,41.09507
1611000000,-125.62774,40.989357
1612000000,-124.94122,40.729874
1613000000,-124.59802,40.438843
1614000000,-123.88988,40.032314
1615000000,-122.54285,40.015976
1616000000,-122.21533,39.616856
1617000000,-121.63602,39.354763
1618000000,-120.57083,39.157936
1619000000,-119.27605,39.011646
1620000000,-119.0589,38.723347
1621000000,-118.48709,38.44418
1622000000,-117.77338,38.130993
1623000000,-117.25703,37.75494
1624000000,-116.11393,37.552715
1625000000,-115.86147,37.364067
1626000000,-114.9677,37.077351
1627000000,-114.80936,36.732368
1628000000,-113.72539,36.646973
1629000000,-113.55701,36.201714
1630000000,-112.68591,36.166359
1631000000,-111.94056,35.790295
1632000000,-112.23289,35.548847
1633000000,-111.26521,35.331875
1634000000,-110.88947,34.94133
1635000000,-110.58368,34.713867
1636000000,-109.48028,34.556614
1637000000,-109.27589,34.045898
1638000000,-109.11157,33.925488
1639000000,-108.40234,33.504902
1640000000,-107.8063,33.517982
1641000000,-107.897,33.018368
1642000000,-107.06376,32.78791
1643000000,-106.99918,32.427811
1644000000,-106.27075,32.341793
1645000000,-105.88888,31.962673
1646000000,-105.81865,31.718197
1647000000,-105.23818,31.460798
1648000000,-105.05353,31.395723
1649000000,-104.75121,31.020569
1650000000,-104.20815,30.825167
1651000000,-104.14084,30.433605
1652000000,-103.6545,30.125273
1653000000,-103.46246,29.990723
1654000000,-103.35244,29.722979
1655000000,-102.72243,29.544239
1656000000,-102.55643,29.235693
1657000000,-102.54562,28.91906
1658000000,-102.1518,28.579329
1659000000,-101.75256,28.449755
1660000000,-101.7031,27.963675
1661000000,-101.65612,27.64296
1662000000,-101.45087,27.449326
1663000000,-101.15266,27.269808
1664000000,-100.73221,27.16082
1665000000,-100.80341,26.706438
1666000000,-100.63764,26.454733
1667000000,-100.51997,26.179346
1668000000,-100.29243,26.062733
1669000000,-100.42797,25.571318
1670000000,-100.13403,25.338722
1671000000,-99.833244,25.265436
1672000000,-99.73439,24.923622
1673000000,-99.662231,24.580441
1674000000,-99.54435,24.343361
1675000000,-99.659309,23.939075
1676000000,-99.796188,23.7493
1677000000,-99.632248,23.50036
1678000000,-99.500717,23.323475
1679000000,-99.340446,22.962765
1680000000,-99.144173,22.55678
1681000000,-99.191429,22.360779
1682000000,-99.257126,22.013113
1683000000,-99.294678,21.761581
1684000000,-98.675949,21.665098
1685000000,-99.271606,21.237776
1686000000,-98.950195,21.24325
1687000000,-99.135223,20.786625
1688000000,-99.188354,20.349474
1689000000,-99.12558,20.149401
1690000000,-99.093323,19.979666
1691000000,-99.056587,19.633965
1692000000,-99.090477,19.221254
1693000000,-98.814354,19.170822
1694000000,-99.050774,18.702276
1695000000,-99.170006,18.532545
1696000000,-98.991249,18.281229
1697000000,-98.892647,18.051195
1698000000,-98.922714,17.704256
1699000000,-99.195145,17.409544
1700000000,-98.969368,17.116306
1701000000,-99.224701,16.814789
1702000000,-99.222115,16.68462
1703000000,-99.155609,16.304279
1704000000,-99.246941,16.047678
1705000000,-99.318977,15.813479
1706000000,-99.326164,15.442812
1707000000,-99.465073,15.192553
1708000000,-99.445511,14.930022
1709000000,-99.477097,14.748634
1710000000,-99.523491,14.452296
1711000000,-99.70575,14.008101
1712000000,-99.605942,13.946179
1713000000,-100.05166,13.40801
1714000000,-99.759132,13.370367
1715000000,-100.0771,12.975435
1716000000,-100.16473,12.655604
1717000000,-100.42002,12.322931
1718000000,-100.09876,12.295518
1719000000,-100.37888,11.72004
1720000000,-100.44899,11.50877
1721000000,-100.64068,11.309705
1722000000,-100.82774,10.933793
1723000000,-100.80913,10.780545
1724000000,-100.90235,10.496881
1725000000,-100.69475,10.382376
1726000000,-101.25819,9.8408775
1727000000,-101.17914,9.7321377
1728000000,-101.29759,9.3071232
1729000000,-101.56768,8.9168167
1730000000,-101.59988,8.8517036
1731000000,-101.78587,8.5331392
1732000000,-101.87198,8.2449789
1733000000,-102.06308,7.9654231
1734000000,-102.27631,7.6144161
1735000000,-102.21693,7.3935528
1736000000,-102.63425,6.9233627
1737000000,-102.6532,6.720655
1738000000,-102.72301,6.6434131
1739000000,-102.73931,6.3715472
1740000000,-102.88747,5.876687
1741000000,-103.2532,5.6752949
1742000000,-103.25935,5.308969
1743000000,-103.40667,5.0865169
1744000000,-103.50391,4.6774015
1745000000,-103.72491,4.4929228
1746000000,-103.93388,4.0687938
1747000000,-103.74131,4.0208106
1748000000,-104.16821,3.5447364
1749000000,-104.18774,3.3635378
1750000000,-104.45589,3.1921549
1751000000,-104.75829,2.8870099
1752000000,-104.87622,2.4551575
1753000000,-104.94865,2.3753476
1754000000,-104.95962,1.8027977
1755000000,-105.10616,1.7079235
1756000000,-105.50682,1.3159668
1757000000,-105.68555,1.1142926
1758000000,-106.06365,0.76729119
1759000000,-106.17467,0.57354522
1760000000,-106.07248,0.36063352
1761000000,-106.29283,-0.1211161
1762000000,-106.52096,-0.25871253
1763000000,-106.62134,-0.56932276
1764000000,-106.67937,-0.7628054
1765000000,-106.95821,-1.1456932
1766000000,-107.21503,-1.3395479
1767000000,-107.4081,-1.8497407
1768000000,-107.51608,-1.9086244
1769000000,-107.82851,-2.4062965
1770000000,-108.04512,-2.5165777
1771000000,-108.25395,-2.9259272
1772000000,-108.41352,-3.2040699
1773000000,-108.38927,-3.362057
1774000000,-108.69259,-3.7500641
1775000000,-108.78773,-3.9158251
1776000000,-109.14912,-4.3189955
1777000000,-109.31741,-4.7941794
1778000000,-109.5254,-4.9255185
1779000000,-109.52373,-4.9265032
1780000000,-109.90388,-5.5611029
1781000000,-110.05814,-5.5680141
1782000000,-110.31768,-6.103096
1783000000,-110.42203,-6.2788281
1784000000,-110.60064,-6.6085253
1785000000,-110.69983,-6.8767157
1786000000,-111.04125,-7.0680275
1787000000,-111.30389,-7.4997587
1788000000,-111.56184,-7.7280722
1789000000,-111.653,-7.9689875
1790000000,-112.0257,-8.348279
1791000000,-112.14118,-8.6440506
1792000000,-112.56207,-9.0900602
1793000000,-112.63006,-9.1221495
1794000000,-112.77124,-9.4258356
1795000000,-112.70372,-9.7929859
1796000000,-112.97782,-9.9524412
1797000000,-113.56583,-10.314007
1798000000,-113.64293,-10.581342
1799000000,-113.88294,-10.947584
1800000000,-113.90161,-11.163862
1801000000,-114.03921,-11.126996
1802000000,-114.36449,-11.707377
1803000000,-114.73032,-12.110777
1804000000,-114.91084,-12.355966
1805000000,-114.98169,-12.511541
1806000000,-115.39479,-12.978791
1807000000,-115.61557,-13.210775
1808000000,-115.8344,-13.547935
1809000000,-115.95087,-13.855857
1810000000,-116.15788,-14.025117
1811000000,-116.1305,-14.171797
1812000000,-116.6707,-14.750624
1813000000,-116.91215,-14.777113
1814000000,-117.15858,-15.171737
1815000000,-117.34705,-15.349966
1816000000,-117.62445,-15.765551
1817000000,-117.79551,-15.94889
1818000000,-117.8599,-16.243799
1819000000,-118.14958,-16.598982
1820000000,-118.4184,-16.825857
1821000000,-118.73682,-17.273075
1822000000,-118.89101,-17.38962
1823000000,-119.07521,-17.783211
1824000000,-119.04945,-17.97435
1825000000,-119.41563,-18.435431
1826000000,-119.56409,-18.543991
1827000000,-119.9371,-18.950884
1828000000,-120.1171,-19.188246
1829000000,-120.3452,-19.482599
1830000000,-120.78829,-19.94566
1831000000,-121.09447,-20.139116
1832000000,-121.24995,-20.529217
1833000000,-121.21938,-20.4744
1834000000,-121.67788,-20.873041
1835000000,-121.63208,-21.149996
1836000000,-122.02566,-21.339144
1837000000,-122.23782,-21.776808
1838000000,-122.34815,-22.002901
1839000000,-122.78933,-22.389336
1840000000,-123.11858,-22.628641
1841000000,-123.30611,-23.00676
1842000000,-123.43235,-23.230963
1843000000,-123.47904,-23.357714
1844000000,-123.79758,-23.82188
1845000000,-124.29665,-24.217663
1846000000,-124.252,-24.164536
1847000000,-124.6935,-24.55463
1848000000,-124.75141,-24.792763
1849000000,-125.16286,-25.213543
1850000000,-125.33768,-25.470636
1851000000,-125.57942,-25.860029
1852000000,-125.65768,-25.871607
1853000000,-125.98649,-26.217688
1854000000,-126.23859,-26.574276
1855000000,-126.47675,-26.973354
1856000000,-126.57301,-27.211533
1857000000,-126.89986,-27.461065
1858000000,-127.26563,-27.61128
1859000000,-127.31888,-27.805607
1860000000,-127.54466,-28.232841
1861000000,-127.77746,-28.513355
1862000000,-128.12761,-28.836943
1863000000,-128.47154,-29.22209
1864000000,-128.49055,-29.388283
1865000000,-128.76379,-29.572212
1866000000,-129.06477,-29.946978
1867000000,-129.29109,-30.276138
1868000000,-129.49081,-30.53401
1869000000,-129.75729,-30.850277
1870000000,-130.12527,-31.14719
1871000000,-130.23436,-31.416746
1872000000,-130.4198,-31.693537
1873000000,-130.60924,-31.850258
1874000000,-131.00246,-32.105545
1875000000,-131.23595,-32.553043
1876000000,-131.48022,-32.867577
1877000000,-131.6857,-33.220112
1878000000,-131.93561,-33.32605
1879000000,-132.18011,-33.508526
1880000000,-132.42227,-33.802216
1881000000,-132.59416,-34.082008
1882000000,-132.7692,-34.4631
1883000000,-133.14981,-34.904182
1884000000,-133.4977,-35.091099
1885000000,-133.68858,-35.293228
1886000000,-133.97516,-35.73489
1887000000,-134.15942,-36.056866
1888000000,-134.36813,-36.13158
1889000000,-134.70743,-36.583916
1890000000,-134.81,-36.772026
1891000000,-135.06909,-36.888046
1892000000,-135.51123,-37.281666
1893000000,-135.78146,-37.762829
1894000000,-135.83577,-37.863976
1895000000,-136.03955,-38.122856
1896000000,-136.3429,-38.350624
1897000000,-136.38324,-38.558193
1898000000,-136.84622,-39.094978
1899000000,-137.12531,-39.26012
1900000000,-137.11264,-39.452602
1901000000,-137.57344,-39.908894
1902000000,-137.67807,-40.008518
1903000000,-138.133,-40.425774
1904000000,-138.25887,-40.631676
1905000000,-138.57274,-40.856277
1906000000,-138.7791,-41.200459
1907000000,-138.86072,-41.3498
1908000000,-139.31683,-41.8167
1909000000,-139.54515,-42.028854
1910000000,-139.84192,-42.469166
1911000000,-139.89677,-42.561596
1912000000,-139.94261,-42.68211
1913000000,-140.43271,-43.138779
1914000000,-140.7989,-43.537472
1915000000,-140.97267,-43.797096
1916000000,-141.10724,-43.954067
1917000000,-141.33441,-44.165928
1918000000,-141.71471,-44.629917
1919000000,-142.13451,-44.974827
1920000000,-142.23521,-45.206455
1921000000,-142.26253,-45.29937
1922000000,-142.7124,-45.96032
1923000000,-142.80035,-45.9631
1924000000,-143.12802,-46.242607
1925000000,-143.38406,-46.485962
1926000000,-143.45393,-46.817883
1927000000,-143.75316,-46.998554
1928000000,-143.9606,-47.198223
1929000000,-144.54747,-47.871574
1930000000,-144.66322,-47.810261
1931000000,-145.03104,-48.355644
1932000000,-145.11536,-48.47205
1933000000,-145.05637,-48.464344
1934000000,-145.52638,-49.012375
1935000000,-145.77367,-49.154903
1936000000,-145.80566,-49.553875
1937000000,-146.33653,-49.889111
1938000000,-146.59605,-50.045048
1939000000,-146.76169,-50.313831
1940000000,-146.93996,-50.645325
1941000000,-147.35072,-50.89682
1942000000,-147.51395,-51.177139
1943000000,-147.87897,-51.377403
1944000000,-147.86583,-51.745689
1945000000,-148.25827,-52.021629
1946000000,-148.54564,-52.339851
1947000000,-148.5408,-52.391705
1948000000,-148.77704,-52.643196
1949000000,-149.2428,-53.13279
1950000000,-149.52492,-53.439083
1951000000,-149.61784,-53.655449
1952000000,-150.047,-53.904629
1953000000,-149.97107,-53.778236
1954000000,-150.41449,-54.441761
1955000000,-150.65913,-54.674706
1956000000,-151.01286,-55.015236
1957000000,-151.04324,-55.286671
1958000000,-151.30824,-55.603394
1959000000,-151.76697,-55.822803
1960000000,-151.8035,-55.907848
1961000000,-151.9306,-56.26038
1962000000,-152.2397,-56.327179
1963000000,-152.49442,-56.748703
1964000000,-152.80684,-57.132816
1965000000,-153.07512,-57.431702
1966000000,-153.20854,-57.568851
1967000000,-153.55939,-57.87558
1968000000,-153.82724,-58.159729
1969000000,-154.05113,-58.488937
1970000000,-154.42268,-58.834984
1971000000,-154.58844,-58.952854
1972000000,-154.76707,-59.406998
1973000000,-154.82413,-59.753925
1974000000,-155.28438,-59.85471
1975000000,-155.39297,-60.13578
1976000000,-155.75323,-60.278114
1977000000,-156.14265,-60.587753
1978000000,-156.28749,-61.042725
1979000000,-156.61198,-61.106636
1980000000,-156.65834,-61.393532
1981000000,-157.04962,-61.792004
1982000000,-157.36678,-61.980587
1983000000,-157.67577,-62.410446
1984000000,-157.74661,-62.571815
1985000000,-157.75922,-62.648422
1986000000,-158.22194,-63.064735
1987000000,-158.3797,-63.319695
1988000000,-158.57562,-63.522987
1989000000,-158.70251,-63.746284
1990000000,-158.83571,-63.89119
1991000000,-159.2935,-64.265327
1992000000,-159.8903,-64.682594
1993000000,-159.83817,-64.85321
1994000000,-160.17766,-65.258209
1995000000,-160.41212,-65.455551
1996000000,-160.59998,-65.804482
1997000000,-160.52888,-65.73317
1998000000,-160.98215,-66.159225
1999000000,-161.34543,-66.588188
2000000000,-161.31993,-66.765999
2001000000,-161.78967,-67.102814
2002000000,-161.93877,-67.390396
2003000000,-162.11278,-67.468903
2004000000,-162.44745,-67.816757
2005000000,-162.59647,-68.038391
2006000000,-163.01749,-68.562691
2007000000,-163.08374,-68.792198
2008000000,-163.25249,-68.707947
2009000000,-163.66238,-69.130066
2010000000,-164.06082,-69.433846
2011000000,-164.17392,-69.649445
2012000000,-164.15669,-69.901596
2013000000,-164.60925,-70.173119
2014000000,-164.87152,-70.483162
2015000000,-165.05042,-70.652985
2016000000,-165.13025,-70.848137
2017000000,-165.6322,-71.175919
2018000000,-165.59709,-71.278313
2019000000,-166.11636,-71.738884
2020000000,-166.13618,-71.858116
2021000000,-166.5155,-72.174034
2022000000,-166.76874,-72.542938
2023000000,-166.92203,-72.775757
2024000000,-167.17166,-72.944344
2025000000,-167.49332,-73.321136
2026000000,-167.72412,-73.696045
2027000000,-167.99426,-73.943062
2028000000,-168.13966,-74.092735
2029000000,-168.46886,-74.275223
2030000000,-168.58878,-74.549644
2031000000,-168.82967,-74.790596
2032000000,-169.02626,-74.99041
2033000000,-169.27222,-75.193222
2034000000,-169.66969,-75.640503
2035000000,-169.81549,-75.766289
2036000000,-170.24394,-76.165833
2037000000,-170.37173,-76.339325
2038000000,-170.44656,-76.518112
2039000000,-170.80023,-76.906097
2040000000,-171.06248,-77.205215
2041000000,-171.30011,-77.548134
2042000000,-171.42053,-77.757156
2043000000,-171.80795,-78.024193
2044000000,-171.98334,-78.392715
2045000000,-171.82619,-78.201775
2046000000,-172.30975,-78.58358
2047000000,-172.56662,-78.959053
2048000000,-172.4678,-79.052803
2049000000,-173.26215,-79.564842
2050000000,-173.23946,-79.72271
2051000000,-173.49736,-79.872185
2052000000,-173.61151,-80.217499
2053000000,-174.06641,-80.565033
2054000000,-174.27209,-80.878059
2055000000,-174.58035,-81.144478
2056000000,-174.65012,-81.225868
2057000000,-174.84843,-81.45948
2058000000,-175.30266,-81.755791
2059000000,-175.47951,-82.004845
2060000000,-175.67274,-82.4067
2061000000,-175.84438,-82.638481
2062000000,-175.98894,-82.693245
2063000000,-176.20558,-83.046669
2064000000,-176.55737,-83.267715
2065000000,-176.90315,-83.6828
2066000000,-176.88342,-83.683815
2067000000,-177.15132,-83.937897
2068000000,-177.56691,-84.267998
2069000000,-177.79694,-84.556488
2070000000,-178.03717,-84.961319
2071000000,-178.37672,-85.175728
2072000000,-178.53763,-85.409958
2073000000,-178.82649,-85.777306
2074000000,-178.8866,-85.828407
2075000000,-179.0265,-86.08535
2076000000,-179.30513,-86.308517
2077000000,-179.69009,-86.565804
2078000000,-179.66521,-86.723511
2079000000,179.51175,-87.476349
2080000000,179.58896,-87.525452
2081000000,179.33754,-87.500526
2082000000,179.27026,-87.832642
2083000000,178.83142,-88.347015
2084000000,178.63808,-88.546013
2085000000,178.78946,-88.387352
2086000000,178.25792,-88.966537
2087000000,178.22601,-88.946083
2088000000,177.75667,-89.426712
2089000000,177.38329,-89.769897
2090000000,177.29752,-89.844231
2091000000,177.07353,-90.269531
2092000000,176.74533,-90.612709
2093000000,176.52617,-90.792145
2094000000,176.12479,-91.179886
2095000000,176.0753,-91.287575
2096000000,175.50203,-91.827736
2097000000,175.69415,-91.609917
2098000000,175.52831,-92.110947
2099000000,175.2513,-92.309746
2100000000,175.14125,-92.533684
2101000000,174.73589,-92.755478
2102000000,174.64832,-93.089859
2103000000,174.33598,-93.306389
2104000000,174.06332,-93.469902
2105000000,173.81995,-93.860123
2106000000,173.64221,-94.089539
2107000000,173.58463,-94.096657
2108000000,172.93962,-94.625221
2109000000,172.84575,-94.991341
2110000000,172.34642,-95.076965
2111000000,171.98378,-95.535591
2112000000,172.00307,-95.653305
2113000000,171.93105,-95.978592
2114000000,171.50308,-96.152107
2115000000,171.5889,-96.346596
2116000000,171.17688,-96.688301
2117000000,171.01144,-96.81813
2118000000,170.44876,-97.482521
2119000000,170.63599,-97.271973
2120000000,170.40511,-97.659431
2121000000,169.83691,-98.253319
2122000000,169.68768,-98.293449
2123000000,169.47304,-98.622604
2124000000,169.24626,-98.825562
2125000000,168.91864,-99.069778
2126000000,168.79651,-99.475456
2127000000,168.51468,-99.389961
2128000000,168.24231,-99.879059
2129000000,168.10536,-99.886772
2130000000,167.63708,-100.36051
2131000000,167.6516,-100.53018
2132000000,167.3418,-100.83924
2133000000,166.99789,-101.09786
2134000000,167.00815,-101.19968
2135000000,166.46802,-101.54746
2136000000,166.27766,-101.77286
2137000000,166.23994,-101.87936
2138000000,165.87601,-102.33938
2139000000,165.64622,-102.74545
2140000000,165.47739,-103.03618
2141000000,165.20879,-103.23546
2142000000,164.97388,-103.62731
2143000000,164.63853,-103.82297
2144000000,164.30922,-103.96535
2145000000,164.2655,-104.21594
2146000000,164.01991,-104.56828
2147000000,163.66618,-104.62774
2148000000,163.63716,-105.04089
2149000000,163.27727,-105.24002
2150000000,162.86464,-105.62161
2151000000,162.86931,-105.66738
2152000000,162.8123,-106.01858
2153000000,162.37602,-106.52209
2154000000,161.97021,-106.66696
2155000000,161.73991,-106.78472
2156000000,161.66061,-107.06896
2157000000,161.33826,-107.50421
2158000000,160.97958,-107.87798
2159000000,160.73747,-108.17107
2160000000,160.53114,-108.40607
2161000000,160.34303,-108.63637
2162000000,159.96053,-108.89993
2163000000,159.82109,-109.12393
2164000000,159.63843,-109.20067
2165000000,159.18201,-109.83391
2166000000,159.1898,-109.81371
2167000000,158.96713,-110.07881
2168000000,158.66533,-110.37463
2169000000,158.20737,-110.70676
2170000000,157.85283,-111.14632
2171000000,157.82031,-111.37685
2172000000,157.49779,-111.72556
2173000000,157.49153,-111.80703
2174000000,157.15054,-112.04922
2175000000,156.88304,-112.37849
2176000000,156.62628,-112.68787
2177000000,156.34456,-112.98923
2178000000,155.99991,-113.47279
2179000000,155.89308,-113.53828
2180000000,155.57922,-113.7541
2181000000,155.36195,-114.12122
2182000000,155.1454,-114.43423
2183000000,154.7901,-114.57732
2184000000,154.70059,-114.86954
2185000000,154.37965,-115.06492
2186000000,154.44601,-115.35207
2187000000,154.05823,-115.534
2188000000,153.64349,-115.93679
2189000000,153.43834,-116.39339
2190000000,153.34541,-116.41573
2191000000,152.81062,-116.96311
2192000000,152.76302,-117.21543
2193000000,152.34944,-117.437
2194000000,152.18382,-117.56091
2195000000,151.97398,-118.04258
2196000000,151.59882,-118.43259
2197000000,151.22307,-118.78061
2198000000,150.94389,-119.12115
2199000000,150.87294,-119.09872
2200000000,150.49339,-119.51184
2201000000,150.27863,-119.74728
2202000000,150.07762,-120.1692
2203000000,149.60655,-120.42476
2204000000,149.59282,-120.62803
2205000000,149.22641,-120.91149
2206000000,148.87323,-121.25221
2207000000,148.32913,-121.82611
2208000000,148.34065,-122.08881
2209000000,148.17162,-122.28249
2210000000,148.08202,-122.51399
2211000000,147.63055,-122.95625
2212000000,147.17413,-123.39803
2213000000,146.78008,-123.64902
2214000000,146.73073,-123.83297
2215000000,146.63269,-124.01089
2216000000,146.36417,-124.39055
2217000000,146.14352,-124.63101
2218000000,146.00189,-124.67928
2219000000,145.41649,-125.43468
2220000000,145.35049,-125.68787
2221000000,144.79649,-125.9329
2222000000,144.70927,-126.26177
2223000000,144.43954,-126.59656
2224000000,144.10052,-126.84619
2225000000,143.65707,-127.30318
2226000000,143.52887,-127.55148
2227000000,143.43382,-127.82848
2228000000,143.1745,-128.09793
2229000000,142.66983,-128.55721
2230000000,142.48494,-128.82292
2231000000,142.12744,-129.15849
2232000000,141.96332,-129.4984
2233000000,141.4223,-129.81325
2234000000,141.38985,-130.05502
2235000000,141.15213,-130.46724
2236000000,140.84355,-130.77672
2237000000,140.51297,-131.18181
2238000000,140.22467,-131.52824
2239000000,139.65385,-131.98837
2240000000,139.46539,-132.1924
2241000000,139.07016,-132.78226
2242000000,139.0834,-132.71623
2243000000,138.65961,-133.31148
2244000000,138.52689,-133.57646
2245000000,138.34789,-133.82587
2246000000,137.91841,-134.24193
2247000000,137.60065,-134.68063
2248000000,137.27338,-134.90329
2249000000,137.03668,-135.231
2250000000,136.61305,-135.73425
2251000000,136.40341,-135.99863
2252000000,135.87392,-136.6398
2253000000,135.62202,-136.98048
2254000000,135.34479,-137.09334
2255000000,134.84834,-137.5453
2256000000,134.62793,-138.04153
2257000000,134.57034,-138.09035
2258000000,134.24052,-138.40846
2259000000,133.96724,-139.0777
2260000000,133.84177,-139.1494
2261000000,133.14691,-139.66705
2262000000,132.97462,-139.99368
2263000000,132.71118,-140.46475
2264000000,132.42947,-140.81036
2265000000,131.99814,-141.25076
2266000000,131.91183,-141.46291
2267000000,131.27193,-142.231
2268000000,131.13335,-142.3222
2269000000,130.91301,-142.75401
2270000000,130.64243,-142.94618
2271000000,130.16319,-143.51877
2272000000,129.87813,-143.78027
2273000000,129.61993,-144.21979
2274000000,129.26884,-144.61636
2275000000,128.76208,-145.18602
2276000000,128.58754,-145.58267
2277000000,127.99734,-146.05321
2278000000,127.74118,-146.53267
2279000000,127.43707,-146.80022
2280000000,127.3298,-147.08354
2281000000,126.69224,-147.74834
2282000000,126.39136,-147.95554
2283000000,126.22104,-148.36086
2284000000,125.75377,-148.89941
2285000000,125.48045,-149.23727
2286000000,124.98743,-149.86613
2287000000,124.78499,-150.17206
2288000000,124.62918,-150.36687
2289000000,124.1377,-151.07527
2290000000,123.6329,-151.60411
2291000000,123.36407,-152.14519
2292000000,122.97024,-152.61005
2293000000,122.66319,-152.89301
2294000000,122.43146,-153.2504
2295000000,122.00206,-153.75958
2296000000,121.64701,-154.42879
2297000000,120.97382,-154.93575
2298000000,120.92189,-155.06886
2299000000,120.55203,-155.81378
2300000000,120.0085,-156.35838
2301000000,119.84055,-156.68649
2302000000,119.78025,-156.9705
2303000000,119.09636,-157.79199
2304000000,118.90816,-158.20052
2305000000,118.39825,-158.44273
2306000000,118.0808,-159.00023
2307000000,117.54354,-159.76338
2308000000,117.4654,-159.9202
2309000000,116.90597,-160.64299
2310000000,116.30005,-161.38483
2311000000,116.19827,-161.80908
2312000000,115.79958,-162.21745
2313000000,115.52802,-162.66693
2314000000,115.25188,-163.13954
2315000000,114.71348,-163.81117
2316000000,114.18627,-164.51616
2317000000,113.77617,-165.06445
2318000000,113.67126,-165.44418
2319000000,113.22598,-165.9928
2320000000,112.83699,-166.51018
2321000000,112.72295,-166.96629
2322000000,112.11802,-167.71457
2323000000,111.73978,-168.27159
2324000000,111.36332,-168.76443
2325000000,110.92492,-169.36765
2326000000,110.65594,-169.91226
2327000000,110.27902,-170.79906
2328000000,110.06023,-170.93602
2329000000,109.45779,-171.74164
2330000000,109.19516,-172.32686
2331000000,108.60597,-173.02879
2332000000,108.67049,-173.30931
2333000000,108.07159,-174.06628
2334000000,107.94386,-174.53564
2335000000,107.55116,-175.35143
2336000000,107.1392,-175.96014
2337000000,106.6496,-176.69359
2338000000,106.31042,-177.21315
2339000000,106.22888,-177.88887
2340000000,105.77649,-178.38406
2341000000,105.64064,-179.16803
2342000000,104.94801,-179.98271
2343000000,104.68184,179.66417
2344000000,104.48755,178.86166
2345000000,104.26758,178.23245
2346000000,104.13265,177.70683
2347000000,103.89245,176.92587
2348000000,103.43694,176.28526
2349000000,103.14485,175.28058
2350000000,102.97241,174.77531
2351000000,102.70703,174.09113
2352000000,102.70882,173.40506
2353000000,102.3308,172.70601
2354000000,102.22533,172.16266
2355000000,102.11437,171.21013
2356000000,101.84127,170.4796
2357000000,101.94604,169.8842
2358000000,101.81242,168.93965
2359000000,101.833,168.46011
2360000000,101.67479,167.62834
2361000000,101.68837,166.89534
2362000000,101.63697,166.15482
2363000000,101.97359,165.67281
2364000000,101.7245,164.62695
2365000000,101.99889,163.88826
2366000000,102.15956,163.12209
2367000000,102.60806,162.31914
2368000000,102.84348,161.64525
2369000000,103.32871,160.72353
2370000000,103.812,159.98024
2371000000,104.08668,159.26875
2372000000,105.04029,158.46172
2373000000,105.4854,157.50496
2374000000,106.30187,156.8165
2375000000,107.24555,156.06415
2376000000,108.4109,155.20692
2377000000,109.55408,154.41327
2378000000,110.71351,153.61514
2379000000,112.30775,153.02968
2380000000,113.56532,151.82855
2381000000,115.36056,151.07625
2382000000,117.37154,150.26387
2383000000,119.62683,149.59596
2384000000,121.71855,148.78328
2385000000,123.84562,147.63808
2386000000,126.81697,146.92247
2387000000,129.51009,146.19821
2388000000,132.25705,145.38258
2389000000,135.20847,144.15672
2390000000,138.32001,143.6295
2391000000,141.60663,142.74741
2392000000,145.04761,141.90294
2393000000,148.12177,141.01068
2394000000,150.65382,140.13135
2395000000,154.21121,139.38971
2396000000,157.10085,138.38779
2397000000,159.87032,137.78017
2398000000,162.24586,136.67299
2399000000,164.63129,135.62982
2400000000,167.1059,134.85201
2401000000,169.48924,134.00345
2402000000,171.00897,133.18561
2403000000,173.40042,132.52007
2404000000,174.59596,131.38812
2405000000,176.11955,130.59195
2406000000,177.43855,129.7652
2407000000,178.59496,128.99188
2408000000,179.08569,127.78549
2409000000,-179.78401,126.90871
2410000000,-178.82715,126.16189
2411000000,-177.96062,125.51026
2412000000,-177.36967,124.43033
2413000000,-177.0186,123.6358
2414000000,-176.74576,122.4884
2415000000,-176.26236,121.78569
2416000000,-176.21472,120.71991
2417000000,-175.97177,120.09917
2418000000,-175.08914,119.35448
2419000000,-175.24954,118.48598
2420000000,-175.46715,117.16537
2421000000,-175.46088,116.45242
2422000000,-175.40102,115.28539
2423000000,-175.31104,114.60497
2424000000,-175.31966,113.77272
2425000000,-175.47168,113.04424
2426000000,-175.56583,111.77457
2427000000,-175.34464,111.44927
2428000000,-175.77664,110.24588
2429000000,-175.8522,109.59074
2430000000,-176.10951,108.58096
2431000000,-176.43867,107.68958
2432000000,-176.71901,106.86964
2433000000,-176.99132,105.77375
2434000000,-177.19783,105.01073
2435000000,-177.59172,104.16634
2436000000,-177.73532,103.29426
2437000000,-177.92497,102.45975
2438000000,-178.34027,101.57162
2439000000,-178.81175,100.41153
2440000000,-179.22559,99.437851
2441000000,-179.6774,98.754028
2442000000,-179.90388,97.934212
2443000000,179.65511,96.975075
2444000000,179.30446,96.217331
2445000000,178.76224,95.191902
2446000000,178.5856,94.256256
2447000000,178.5224,93.568222
2448000000,177.97194,92.565979
2449000000,177.43741,91.634613
2450000000,176.98735,90.713966
2451000000,176.60574,89.638847
2452000000,175.97026,88.863235
2453000000,175.87529,88.003654
2454000000,175.2507,87.080399
2455000000,174.81018,86.107819
2456000000,174.47641,85.313156
2457000000,174.36865,84.598625
2458000000,173.85001,83.573212
2459000000,173.47862,82.532799
2460000000,173.06638,81.621864
2461000000,172.76978,80.812416
2462000000,172.05969,79.46627
2463000000,171.877,78.714149
2464000000,171.55205,77.770058
2465000000,170.88147,76.791588
2466000000,170.80957,75.946838
2467000000,170.33501,74.794228
2468000000,170.17998,74.219765
2469000000,169.77853,73.151207
2470000000,169.24344,72.127892
2471000000,168.90605,70.916756
2472000000,168.58035,69.955513
2473000000,168.3161,68.85865
2474000000,168.07748,67.85183
2475000000,167.61696,66.873116
2476000000,167.48199,66.047043
2477000000,167.01993,64.81707
2478000000,166.60933,63.717751
2479000000,166.42018,62.574322
2480000000,166.17519,61.634186
2481000000,165.79456,60.368729
2482000000,165.75639,59.483601
2483000000,165.39131,58.289948
2484000000,165.19003,57.125858
2485000000,164.95569,55.845566
2486000000,165.00104,54.89967
2487000000,164.84589,53.815075
2488000000,164.49536,52.360245
2489000000,164.48819,51.353733
2490000000,164.33437,49.976807
2491000000,164.29057,48.87505
2492000000,164.0563,47.295864
2493000000,164.40822,46.404461
2494000000,164.32378,45.074345
2495000000,164.24477,43.585522
2496000000,164.46872,42.38979
2497000000,164.75874,41.065277
2498000000,164.76346,39.90976
2499000000,164.93613,38.536243
2500000000,165.00665,36.863457
2501000000,165.06197,35.598602
2502000000,165.65544,34.197067
2503000000,165.61392,32.629326
2504000000,166.18744,31.271915
2505000000,166.40495,29.847214
2506000000,166.68976,28.307013
2507000000,167.00157,26.585005
2508000000,167.52188,25.142536
2509000000,168.6707,23.967321
2510000000,168.65221,22.123034
2511000000,169.26793,20.709921
2512000000,169.94696,18.810015
2513000000,170.33272,17.406715
2514000000,170.92702,15.823813
2515000000,171.43933,13.965425
2516000000,172.13919,12.588407
2517000000,172.58646,10.899167
2518000000,173.09058,9.2922211
2519000000,173.59624,7.6350827
2520000000,173.84338,5.9088759
2521000000,174.39168,4.1680713
2522000000,174.86778,2.6026254
2523000000,175.4651,0.97077769
2524000000,175.6729,-0.87475187
2525000000,175.77684,-2.7234697
2526000000,176.37566,-3.9328558
2527000000,176.68996,-5.3484731
2528000000,176.72034,-7.2806444
2529000000,176.87875,-8.8514481
2530000000,177.19212,-10.551711
2531000000,176.97955,-12.037766
2532000000,177.16452,-13.923422
2533000000,177.30495,-15.208292
2534000000,177.05956,-16.91256
2535000000,176.97217,-18.409172
2536000000,176.75836,-20.018627
2537000000,176.80258,-21.542046
2538000000,176.52252,-23.253124
2539000000,176.25848,-24.564758
2540000000,176.09129,-25.915956
2541000000,175.65378,-27.596533
2542000000,175.7041,-28.905392
2543000000,175.12024,-30.554636
2544000000,174.71191,-31.76425
2545000000,174.55994,-32.974964
2546000000,173.91208,-34.503288
2547000000,173.78931,-35.761292
2548000000,173.47833,-37.196007
2549000000,172.81593,-38.423801
2550000000,172.70482,-39.388454
2551000000,172.5365,-40.252247
2552000000,171.68254,-41.896656
2553000000,171.28595,-43.220562
2554000000,170.83109,-44.208027
2555000000,170.28542,-45.279854
2556000000,170.01674,-46.015156
2557000000,169.62714,-47.415623
2558000000,169.09142,-48.574028
2559000000,168.60127,-49.742695
2560000000,168.51532,-50.527504
2561000000,168.05623,-51.426289
2562000000,167.34319,-52.56406
2563000000,166.98294,-53.428093
2564000000,166.64229,-54.404041
2565000000,166.02176,-55.289589
2566000000,165.69292,-56.213531
2567000000,165.25125,-57.093735
2568000000,164.82086,-57.969307
2569000000,164.4218,-58.983944
2570000000,163.78143,-59.858707
2571000000,163.52731,-60.584347
2572000000,162.96791,-61.387474
2573000000,162.90579,-61.987103
2574000000,162.21965,-62.707024
2575000000,162.04424,-63.61787
2576000000,161.52484,-64.373596
2577000000,160.99388,-65.079147
2578000000,160.46919,-65.959816
2579000000,160.15782,-66.403397
2580000000,159.65218,-67.274033
2581000000,159.57159,-67.845879
2582000000,159.05978,-68.610657
2583000000,158.58328,-69.345634
2584000000,158.13612,-69.965843
2585000000,158.04924,-70.355766
2586000000,157.43927,-71.22757
2587000000,157.41682,-71.46331
2588000000,157.00829,-72.179024
2589000000,156.48953,-72.723022
2590000000,156.13504,-73.331329
2591000000,155.75496,-73.836555
2592000000,155.24442,-74.613831
2593000000,155.18752,-74.812073
2594000000,154.75662,-75.535156
2595000000,154.3912,-76.096085
2596000000,154.07063,-76.635193
2597000000,153.79193,-77.214478
2598000000,153.52826,-77.39389
2599000000,153.11475,-78.234055
2600000000,152.7532,-78.239563
2601000000,152.54425,-78.862701
2602000000,151.97426,-79.394485
2603000000,151.8703,-80.075211
2604000000,151.5845,-80.368973
2605000000,151.21945,-80.832664
2606000000,150.92618,-81.254295
2607000000,150.81497,-81.191849
2608000000,150.20341,-81.928513
2609000000,150.0296,-82.372467
2610000000,149.66434,-82.540573
2611000000,149.38791,-83.091812
2612000000,149.06799,-83.634842
2613000000,149.03802,-83.597351
2614000000,148.46689,-84.156754
2615000000,148.09953,-84.632721
2616000000,147.91173,-84.831085
2617000000,147.73978,-85.402496
2618000000,147.31845,-85.506111
2619000000,147.10442,-86.277458
2620000000,146.80959,-86.289009
2621000000,146.53613,-86.670952
2622000000,146.46611,-86.904037
2623000000,145.99007,-87.332237
2624000000,145.71181,-87.652588
2625000000,145.3463,-87.92926
2626000000,145.25119,-88.369087
2627000000,145.08316,-88.45826
2628000000,144.63702,-88.762772
2629000000,144.52156,-88.930145
2630000000,144.49168,-88.767609
2631000000,144.12274,-89.450111
2632000000,143.62953,-89.994659
2633000000,143.64317,-89.859497
2634000000,143.33269,-90.334816
2635000000,142.89267,-90.802376
2636000000,142.76414,-90.644264
2637000000,142.61026,-90.906593
2638000000,142.49864,-91.307747
2639000000,141.91043,-91.733421
2640000000,142.12854,-91.762642
2641000000,141.6284,-91.748329
2642000000,141.38402,-92.159706
2643000000,141.09125,-92.668358
2644000000,140.86786,-92.803558
2645000000,140.59627,-92.774033
2646000000,140.36739,-93.140205
2647000000,139.99396,-93.415009
2648000000,140.09885,-93.169563
2649000000,139.80516,-93.570251
2650000000,139.41608,-94.181007
2651000000,139.37871,-93.600204
2652000000,139.05664,-93.831772
2653000000,138.96399,-94.224396
2654000000,138.57817,-94.406334
2655000000,138.27541,-94.65815
2656000000,138.14627,-94.539368
2657000000,137.99144,-94.911377
2658000000,137.70508,-95.22403
2659000000,137.34668,-94.769005
2660000000,137.29091,-95.115051
2661000000,136.97488,-95.497551
2662000000,136.79938,-95.006393
2663000000,136.664,-95.582314
2664000000,136.57515,-94.991035
2665000000,136.32739,-95.525612
2666000000,136.18373,-95.398735
2667000000,136.043,-95.432182
2668000000,135.92075,-96.216019
2669000000,135.25662,-96.676079
2670000000,135.26726,-95.995468
2671000000,134.98912,-96.165794
2672000000,134.77081,-96.007401
2673000000,134.73718,-95.249641
2674000000,134.60533,-95.976097
2675000000,134.19269,-95.750595
2676000000,134.04243,-95.890038
2677000000,134.11882,-95.914337
2678000000,133.57338,-95.833153
2679000000,133.38306,-95.955078
2680000000,133.21887,-96.379227
2681000000,133.15462,-96.523621
2682000000,132.9543,-96.901367
2683000000,132.70578,-96.260414
2684000000,132.47641,-96.200172
2685000000,132.2735,-96.308647
2686000000,131.90657,-96.468338
2687000000,131.9377,-95.869125
2688000000,131.72227,-96.380844
2689000000,131.58917,-96.131432
2690000000,131.42033,-97.11615
2691000000,131.24379,-96.720627
2692000000,131.13101,-96.954178
2693000000,130.82399,-97.295784
2694000000,130.84268,-97.055649
2695000000,130.58879,-96.33046
2696000000,130.2627,-96.328194
2697000000,130.13635,-96.645248
2698000000,129.95578,-95.948601
2699000000,129.93198,-96.205521
2700000000,129.56038,-95.483925
2701000000,129.52979,-96.502251
2702000000,129.27141,-95.195107
2703000000,128.98372,-96.209824
2704000000,128.86922,-95.219528
2705000000,128.717,-93.630333
2706000000,128.55348,-94.033394
2707000000,128.09558,-96.044868
2708000000,128.19958,-95.230934
2709000000,127.96466,-94.585022
2710000000,127.87637,-95.793922
2711000000,127.75983,-94.369919
2712000000,127.69117,-95.040657
2713000000,127.35699,-94.523453
2714000000,127.18393,-94.99157
2715000000,127.02773,-93.609299
2716000000,127.01003,-93.534401
2717000000,126.81657,-93.90699
2718000000,126.46856,-94.084648
2719000000,126.49681,-93.164558
2720000000,126.16383,-93.269585
2721000000,126.01325,-93.987091
2722000000,125.86405,-92.266151
2723000000,125.63705,-92.088669
2724000000,125.55879,-92.862495
2725000000,125.36047,-91.530014
2726000000,125.23029,-93.309891
2727000000,124.92211,-93.893684
2728000000,124.81001,-92.869835
2729000000,124.57188,-94.084755
2730000000,124.23501,-91.648338
2731000000,124.32597,-90.393097
2732000000,124.14812,-92.754959
2733000000,124.01151,-91.570335
2734000000,123.93923,-92.475212
2735000000,123.74694,-92.3713
2736000000,123.50706,-91.205452
2737000000,123.50807,-90.906853
2738000000,123.25381,-92.227592
2739000000,123.14267,-91.208405
2740000000,122.7887,-90.619705
2741000000,122.51936,-88.729988
2742000000,122.42738,-90.416618
2743000000,122.48883,-92.085426
2744000000,122.15633,-89.778725
2745000000,122.20192,-89.99295
2746000000,122.04282,-90.054756
2747000000,121.85723,-88.153038
2748000000,121.75162,-89.582642
2749000000,121.67458,-89.511795
2750000000,121.49408,-89.417046
2751000000,121.36118,-88.491966
2752000000,121.0826,-89.549507
2753000000,120.90739,-88.70134
2754000000,120.85435,-88.417
2755000000,120.56691,-89.150917
2756000000,120.59811,-87.721588
2757000000,120.28432,-85.303009
2758000000,120.15997,-87.653313
2759000000,119.90139,-87.696571
2760000000,119.8151,-87.578178
2761000000,119.62579,-87.857483
2762000000,119.60754,-88.280785
2763000000,119.4814,-88.63945
2764000000,119.26514,-87.740906
2765000000,119.24308,-86.847885
2766000000,119.12814,-85.445297
2767000000,118.91199,-86.853615
2768000000,118.69265,-87.369263
2769000000,118.51051,-86.107323
2770000000,118.41598,-84.752907
2771000000,118.40774,-87.723534
2772000000,118.09064,-85.48568
2773000000,117.88972,-86.880165
2774000000,117.76324,-89.28965
2775000000,117.89182,-86.15564
2776000000,117.57411,-84.553253
2777000000,117.38774,-83.064529
2778000000,117.11387,-83.318008
2779000000,117.02681,-87.143997
2780000000,117.0118,-86.18322
2781000000,116.81774,-82.588402
2782000000,116.67717,-87.978981
2783000000,116.5271,-86.604454
2784000000,116.39438,-84.308212
2785000000,116.15069,-81.681213
2786000000,116.12155,-83.330772
2787000000,115.98208,-85.612526
2788000000,115.77619,-86.057076
2789000000,115.75761,-82.762917
2790000000,115.54384,-85.069542
2791000000,115.305,-84.695564
2792000000,115.13004,-84.04834
2793000000,114.97412,-84.458298
2794000000,114.98415,-86.972931
2795000000,114.73969,-85.821159
2796000000,114.82162,-84.011734
2797000000,114.71913,-86.887962
2798000000,114.3784,-86.670532
2799000000,114.29928,-86.550453
2800000000,114.14833,-87.370071
2801000000,113.94987,-85.714432
2802000000,113.83381,-86.174904
2803000000,113.58006,-86.210541
2804000000,113.57492,-85.263069
2805000000,113.43349,-87.224411
2806000000,113.35882,-88.633301
2807000000,113.14973,-87.501534
2808000000,112.90889,-85.329285
2809000000,112.99255,-88.760757
2810000000,112.63754,-89.786049
2811000000,112.3709,-86.38588
2812000000,112.48826,-89.865753
2813000000,111.93534,-92.61071
2814000000,112.12045,-88.770805
2815000000,111.97968,-85.773468
2816000000,111.6694,-92.517448
2817000000,111.57349,-88.009377
2818000000,111.76988,-89.110832
2819000000,111.54624,-84.802864
2820000000,111.37549,-89.617767
2821000000,111.36468,-88.430092
2822000000,110.95763,-84.14843
2823000000,111.0472,-87.022987
2824000000,110.92373,-88.712677
2825000000,110.64,-89.279045
2826000000,110.61511,-87.930191
2827000000,110.59898,-95.506599
2828000000,110.13423,-92.065651
2829000000,110.15206,-88.925064
2830000000,109.92796,-89.632912
2831000000,110.01187,-92.195511
2832000000,109.78838,-91.716194
2833000000,109.71736,-90.495735
2834000000,109.49746,-90.553719
2835000000,109.24934,-88.85733
2836000000,109.22044,-89.665947
2837000000,109.10809,-91.122009
2838000000,108.88765,-91.407059
2839000000,108.71402,-91.192688
2840000000,108.81808,-89.005173
2841000000,108.42458,-92.624916
2842000000,108.40671,-92.426338
2843000000,108.30659,-91.123116
2844000000,108.33977,-92.118187
2845000000,107.99292,-90.104088
2846000000,107.85174,-90.441467
2847000000,107.62347,-91.651001
2848000000,107.64659,-91.15036
2849000000,107.3799,-92.089386
2850000000,107.38226,-95.802376
2851000000,107.06097,-90.432884
2852000000,106.99418,-94.553146
2853000000,107.08936,-94.933701
2854000000,106.64112,-91.873024
2855000000,106.61463,-93.683968
2856000000,106.61271,-94.418976
2857000000,106.46005,-95.851677
2858000000,106.01736,-97.73835
2859000000,106.09128,-92.690971
2860000000,105.91033,-89.819328
2861000000,105.83356,-99.613701
2862000000,105.80916,-96.278465
2863000000,105.46384,-92.955574
2864000000,105.39022,-94.543274
2865000000,105.25674,-95.26667
2866000000,105.30248,-92.788979
2867000000,105.0473,-91.69175
2868000000,104.85431,-90.065453
2869000000,104.91377,-91.425369
2870000000,104.7877,-92.86422
2871000000,104.60044,-90.936447
2872000000,104.46729,-93.286774
2873000000,104.33974,-92.604874
2874000000,104.28529,-93.36216
2875000000,104.20136,-93.832787
2876000000,104.03091,-94.04248
2877000000,103.8069,-92.370338
2878000000,103.70756,-93.765327
2879000000,103.57597,-90.840912
2880000000,103.37702,-92.171219
2881000000,103.38903,-91.00209
2882000000,103.45161,-91.172371
2883000000,103.11669,-92.065201
2884000000,102.94265,-92.853699
2885000000,102.77184,-91.870995
2886000000,102.66239,-92.34568
2887000000,102.55247,-92.701157
2888000000,102.5943,-87.892876
2889000000,102.27131,-93.538155
2890000000,102.11568,-95.689247
2891000000,101.90728,-91.019798
2892000000,102.03252,-91.873871
2893000000,102.04236,-95.971992
2894000000,101.52236,-95.0448
2895000000,101.43799,-95.51223
2896000000,101.66588,-89.215813
2897000000,101.23767,-92.83931
2898000000,101.15622,-90.029938
2899000000,100.99091,-93.251007
2900000000,100.92229,-93.591408
2901000000,100.86498,-91.536507
2902000000,100.60925,-90.971458
2903000000,100.53399,-96.126831
2904000000,100.40004,-94.847214
2905000000,100.3875,-93.804405
2906000000,100.20795,-90.740425
2907000000,100.17257,-92.996857
2908000000,99.746239,-94.073975
2909000000,99.698463,-94.895309
2910000000,99.710968,-91.103745
2911000000,99.45388,-92.652214
2912000000,99.268799,-96.947731
2913000000,99.372116,-96.534386
2914000000,99.076103,-95.041008
2915000000,98.897766,-93.946167
2916000000,98.934837,-94.84211
2917000000,98.819595,-94.048805
2918000000,98.76429,-93.429581
2919000000,98.633514,-92.238678
2920000000,98.513893,-92.85498
2921000000,98.383308,-94.14756
2922000000,98.083046,-94.83049
2923000000,98.084229,-92.518188
2924000000,98.138351,-91.814529
2925000000,97.794968,-95.051239
2926000000,97.878143,-92.780495
2927000000,97.807259,-99.177856
2928000000,97.554192,-93.229118
2929000000,97.218719,-92.456146
2930000000,97.260208,-95.486168
2931000000,97.168266,-92.016151
2932000000,96.913162,-92.615921
2933000000,96.604813,-92.2155
2934000000,96.600281,-94.092506
2935000000,96.545601,-95.460548
2936000000,96.42215,-95.79718
2937000000,96.36454,-94.518074
2938000000,96.196022,-93.627968
2939000000,96.087227,-92.551056
2940000000,96.107857,-92.369911
2941000000,95.70488,-96.912399
2942000000,95.700615,-92.800331
2943000000,95.397049,-94.089561
2944000000,95.494392,-94.363602
2945000000,95.340469,-93.904579
2946000000,95.471535,-93.737869
2947000000,95.101059,-95.985313
2948000000,95.084984,-95.700218
2949000000,94.855934,-96.818474
2950000000,94.967628,-96.430382
2951000000,94.812614,-96.157288
2952000000,94.405106,-97.520775
2953000000,94.339081,-97.280258
2954000000,94.128166,-95.934387
2955000000,94.027954,-98.98851
2956000000,94.008934,-95.42395
2957000000,93.900208,-98.157158
2958000000,93.841316,-99.728325
2959000000,93.611153,-97.431587
2960000000,93.56469,-98.806129
2961000000,93.581512,-98.729248
2962000000,93.575607,-98.801605
2963000000,93.329727,-103.0688
2964000000,92.919922,-100.07541
2965000000,93.289688,-100.33696
2966000000,92.721779,-102.00255
2967000000,92.866806,-101.9123
2968000000,92.726891,-102.64053
2969000000,92.448174,-101.3588
2970000000,92.299202,-101.26855
2971000000,92.260788,-103.88895
2972000000,92.23436,-101.96371
2973000000,91.941589,-104.58144
2974000000,91.929085,-100.25916
2975000000,91.812401,-101.77358
2976000000,91.633224,-102.37975
2977000000,91.634682,-101.76867
2978000000,91.405106,-102.34238
2979000000,91.212822,-104.41922
2980000000,90.962685,-104.25426
2981000000,90.918266,-103.05244
2982000000,90.778366,-102.93661
2983000000,90.785881,-103.97834
2984000000,90.700577,-101.48736
2985000000,90.698021,-106.02625
2986000000,90.417755,-102.66382
2987000000,90.368126,-104.09562
2988000000,90.104767,-105.12508
2989000000,90.128212,-102.89026
2990000000,90.014259,-105.33665
2991000000,89.770523,-103.3465
2992000000,89.645561,-104.16186
2993000000,89.603928,-106.80274
2994000000,89.445992,-105.71531
2995000000,89.427261,-105.9293
2996000000,89.175186,-107.38174
2997000000,89.13382,-107.29955
2998000000,88.921616,-108.31787
2999000000,88.934792,-107.65957
3000000000,88.795486,-109.99703
3001000000,88.667976,-110.05407
3002000000,88.319954,-107.98292
3003000000,88.51577,-110.65144
3004000000,88.291977,-108.05678
3005000000,88.049576,-110.95132
3006000000,88.017418,-108.97382
3007000000,88.036583,-113.39509
3008000000,87.725891,-112.25885
3009000000,87.948944,-112.75591
3010000000,87.506119,-110.49138
3011000000,87.499626,-112.01144
3012000000,87.301682,-113.26072
3013000000,87.271294,-111.87149
3014000000,87.196716,-113.13554
3015000000,86.953545,-114.2416
3016000000,86.784927,-112.81039
3017000000,86.639786,-114.20511
3018000000,86.797058,-116.74461
3019000000,86.454178,-114.82704
3020000000,86.416672,-114.82439
3021000000,86.218887,-115.05011
3022000000,85.995804,-117.55505
3023000000,86.042999,-117.37299
3024000000,85.864555,-118.6541
3025000000,85.820808,-115.66264
3026000000,85.813499,-116.6796
3027000000,85.587646,-118.1097
3028000000,85.588684,-116.85912
3029000000,85.18589,-116.0788
3030000000,85.134331,-118.37504
3031000000,85.233604,-119.07098
3032000000,84.912689,-119.64997
3033000000,84.806,-118.83915
3034000000,84.915161,-118.59588
3035000000,84.688934,-116.61294
3036000000,84.573746,-118.99954
3037000000,84.380623,-119.02551
3038000000,84.320915,-117.81011
3039000000,84.160622,-118.70428
3040000000,83.890915,-118.70428
3041000000,83.948669,-117.1513
3042000000,83.857468,-117.66976
3043000000,83.633888,-119.21854
3044000000,83.475586,-118.70541
3045000000,83.406265,-118.05604
3046000000,83.166985,-120.06316
3047000000,83.096191,-116.97611
3048000000,82.9664,-118.17211
3049000000,82.787666,-119.06308
3050000000,82.69207,-120.47337
3051000000,82.726936,-119.20265
3052000000,82.415901,-119.97897
3053000000,82.52742,-118.69173
3054000000,82.301949,-120.78085
3055000000,82.129082,-121.95126
3056000000,82.109299,-120.75838
3057000000,81.975861,-123.59994
3058000000,81.901657,-122.6165
3059000000,81.692711,-121.49554
3060000000,81.695663,-121.20552
3061000000,81.450737,-121.53407
3062000000,81.382782,-124.10621
3063000000,81.226364,-123.55219
3064000000,81.12252,-122.59444
3065000000,80.969299,-125.79419
3066000000,80.788277,-124.25388
3067000000,80.812798,-122.28354
3068000000,80.761932,-125.75406
3069000000,80.556549,-124.42957
3070000000,80.13427,-124.23461
3071000000,80.129349,-122.66601
3072000000,80.123077,-122.09647
3073000000,80.00248,-122.76505
3074000000,79.836601,-123.00332
3075000000,79.736015,-123.18661
3076000000,79.524956,-122.36934
3077000000,79.616699,-122.43706
3078000000,79.401291,-124.08895
3079000000,79.318283,-124.1943
3080000000,79.184288,-124.62284
3081000000,78.947037,-124.16988
3082000000,79.026627,-123.4445
3083000000,78.752571,-123.23109
3084000000,78.799011,-122.59515
3085000000,78.64463,-122.61839
3086000000,78.492859,-122.79829
3087000000,78.308418,-121.46511
3088000000,78.114227,-122.90884
3089000000,77.890099,-120.82654
3090000000,78.037666,-123.77046
3091000000,77.742851,-122.90122
3092000000,77.453621,-121.22231
3093000000,77.613121,-121.88537
3094000000,77.403641,-123.54469
3095000000,77.391396,-123.28093
3096000000,77.22448,-123.1529
3097000000,76.951973,-124.15168
3098000000,77.029289,-123.7987
3099000000,76.825119,-122.77596
3100000000,76.76461,-124.64191
3101000000,76.525574,-125.80464
3102000000,76.407639,-124.76256
3103000000,76.336281,-124.86814
3104000000,76.173019,-125.4512
3105000000,76.077888,-123.764
3106000000,76.051895,-125.35954
3107000000,75.768402,-125.36578
3108000000,75.556625,-123.85405
3109000000,75.475647,-125.27649
3110000000,75.501434,-125.79887
3111000000,75.247078,-126.15793
3112000000,75.279617,-126.77816
3113000000,75.12825,-124.04329
3114000000,74.757401,-124.29797
3115000000,74.780365,-125.35731
3116000000,74.717552,-125.80304
3117000000,74.604927,-127.5154
3118000000,74.475067,-124.66891
3119000000,74.387703,-126.68913
3120000000,74.359138,-125.33889
3121000000,74.121475,-126.56197
3122000000,74.154129,-125.12695
3123000000,74.019196,-124.02549
3124000000,73.789375,-124.40236
3125000000,73.498749,-124.51472
3126000000,73.279686,-125.52831
3127000000,73.374115,-123.81261
3128000000,73.22718,-124.46505
3129000000,73.04216,-123.97352
3130000000,73.158951,-124.81734
3131000000,72.801331,-124.93613
3132000000,72.836044,-123.37546
3133000000,72.53669,-124.77088
3134000000,72.50106,-125.42696
3135000000,72.425018,-125.25842
3136000000,72.135536,-127.6729
3137000000,72.04818,-126.40302
3138000000,72.098206,-126.06705
3139000000,71.704346,-126.38123
3140000000,71.705078,-125.59173
3141000000,71.738144,-125.87296
3142000000,71.306175,-125.87181
3143000000,71.348145,-125.36678
3144000000,71.184471,-125.65147
3145000000,70.975685,-127.30935
3146000000,70.999962,-125.50989
3147000000,70.733215,-125.76189
3148000000,70.698288,-127.72105
3149000000,70.511063,-127.66506
3150000000,70.366196,-127.32448
3151000000,70.278816,-125.96597
3152000000,70.19416,-126.02337
3153000000,70.04998,-125.6698
3154000000,69.684563,-124.68367
3155000000,69.769173,-125.7951
3156000000,69.816254,-126.06499
3157000000,69.51963,-125.04308
3158000000,69.669289,-126.1359
3159000000,69.232407,-125.98182
3160000000,69.146667,-124.52036
3161000000,68.963997,-124.63701
3162000000,68.988091,-125.30896
3163000000,68.87101,-124.81075
3164000000,68.67717,-124.5388
3165000000,68.648315,-124.18619
3166000000,68.296059,-124.564
3167000000,68.306282,-125.61129
3168000000,68.056801,-124.53699
3169000000,67.937881,-125.15971
3170000000,67.876328,-124.56979
3171000000,67.798409,-124.54451
3172000000,67.421959,-125.21333
3173000000,67.382675,-123.92781
3174000000,67.389191,-124.90098
3175000000,67.129745,-124.32801
3176000000,66.746956,-123.84946
3177000000,66.948494,-123.07009
3178000000,66.763084,-124.30209
3179000000,66.72551,-122.25718
3180000000,66.514442,-122.69665
3181000000,66.258446,-124.62685
3182000000,66.17131,-121.71451
3183000000,66.118073,-122.49298
3184000000,66.098167,-121.57723
3185000000,65.676933,-122.61243
3186000000,65.912079,-123.01113
3187000000,65.477264,-122.48367
3188000000,65.583557,-120.82925
3189000000,65.31395,-120.57614
3190000000,65.217827,-121.18918
3191000000,65.066452,-120.46862
3192000000,64.90918,-121.24203
3193000000,64.847069,-121.55333
3194000000,64.71727,-121.09565
3195000000,64.547783,-120.22626
3196000000,64.280045,-120.58244
3197000000,64.052559,-119.52137
3198000000,64.153328,-120.27671
3199000000,63.960529,-120.02168
3200000000,63.833958,-119.92147
3201000000,63.618458,-120.32855
3202000000,63.553532,-120.23638
3203000000,63.320404,-120.48552
3204000000,63.176689,-120.59897
3205000000,63.057419,-120.45555
3206000000,63.107136,-120.61345
3207000000,63.043652,-120.68309
3208000000,62.667007,-120.64398
3209000000,62.450394,-119.64845
3210000000,62.26091,-119.57681
3211000000,62.25156,-120.19995
3212000000,61.865696,-119.50562
3213000000,62.022182,-118.88205
3214000000,61.894764,-118.96529
3215000000,61.836353,-117.86897
3216000000,61.422012,-118.86509
3217000000,61.342987,-117.96638
3218000000,61.254959,-118.12734
3219000000,61.065643,-118.03008
3220000000,61.042377,-117.27203
3221000000,61.244469,-117.09141
3222000000,60.669846,-117.92975
3223000000,60.559887,-118.24123
3224000000,60.498627,-116.74349
3225000000,60.26569,-116.45512
3226000000,60.206711,-117.20504
3227000000,59.87339,-117.20028
3228000000,59.959549,-117.49267
3229000000,59.739887,-116.86008
3230000000,59.633835,-117.63081
3231000000,59.400429,-117.74702
3232000000,59.50795,-117.27792
3233000000,58.863602,-117.9127
3234000000,59.056137,-117.7167
3235000000,58.832565,-117.5912
3236000000,58.654633,-118.296
3237000000,58.405735,-118.19857
3238000000,58.547489,-117.5394
3239000000,58.383099,-117.58541
3240000000,58.28529,-117.45166
3241000000,57.916069,-117.42564
3242000000,57.913822,-117.38217
3243000000,57.712395,-118.25221
3244000000,57.552635,-117.70159
3245000000,57.322041,-117.70747
3246000000,57.306648,-118.1721
3247000000,57.420807,-117.08549
3248000000,56.824509,-117.37955
3249000000,56.818932,-116.76353
3250000000,56.928905,-117.61895
3251000000,56.473057,-117.04518
3252000000,56.470325,-116.59734
3253000000,56.313339,-116.98074
3254000000,56.239269,-116.08858
3255000000,55.904327,-116.47182
3256000000,55.761932,-116.38972
3257000000,55.669582,-116.55524
3258000000,55.757927,-116.0836
3259000000,55.161896,-116.16363
3260000000,55.277641,-116.42693
3261000000,55.096317,-116.27262
3262000000,54.873444,-115.94454
3263000000,54.8232,-116.75256
3264000000,54.532715,-116.22778
3265000000,54.312065,-116.37795
3266000000,54.188828,-116.49715
3267000000,54.113499,-116.33987
3268000000,53.939358,-116.33488
3269000000,54.072819,-116.59786
3270000000,53.461582,-116.79367
3271000000,53.55891,-116.73501
3272000000,53.382309,-116.50348
3273000000,53.306381,-116.90665
3274000000,53.074623,-116.27903
3275000000,52.982807,-116.75885
3276000000,52.867786,-116.57929
3277000000,52.552593,-117.08474
3278000000,52.553604,-117.10362
3279000000,52.227066,-117.28578
3280000000,52.141273,-117.16019
3281000000,51.945789,-117.53198
3282000000,51.888081,-117.2025
3283000000,51.56707,-117.36056
3284000000,51.561096,-117.92229
3285000000,51.295597,-117.52121
3286000000,51.146393,-117.80675
3287000000,51.162228,-117.61676
3288000000,50.749161,-118.23668
3289000000,50.646347,-118.18571
3290000000,50.375786,-118.4553
3291000000,50.553844,-118.10918
3292000000,49.999615,-117.88631
3293000000,50.088863,-117.76833
3294000000,49.83247,-118.28857
3295000000,49.637238,-118.23082
3296000000,49.612297,-118.13412
3297000000,49.387589,-117.87663
3298000000,49.170681,-118.40417
3299000000,49.046741,-118.25171
3300000000,48.627396,-118.1192
3301000000,48.289959,-118.79414
3302000000,48.763496,-118.19315
3303000000,48.016994,-118.75709
3304000000,47.906857,-118.43732
3305000000,47.911701,-118.73153
3306000000,47.722576,-118.65349
3307000000,47.522148,-118.58426
3308000000,47.135616,-118.99083
3309000000,47.113789,-118.97865
3310000000,47.111713,-118.90285
3311000000,46.89452,-118.97261
3312000000,46.592403,-119.16882
3313000000,46.506611,-119.35316
3314000000,46.55275,-119.57755
3315000000,46.064041,-119.81078
3316000000,45.909157,-119.74918
3317000000,45.937248,-119.50155
3318000000,45.914532,-119.53486
3319000000,45.538681,-119.81706
3320000000,45.390682,-119.82917
3321000000,45.330322,-119.68255
3322000000,44.721615,-120.12136
3323000000,44.79789,-120.18275
3324000000,44.524506,-120.11602
3325000000,44.382267,-120.035
3326000000,44.131958,-120.18759
3327000000,43.961979,-120.634
3328000000,43.922215,-120.28825
3329000000,43.441338,-120.44048
3330000000,43.279987,-120.63931
3331000000,43.465588,-120.32788
3332000000,43.159943,-120.49178
3333000000,42.895763,-121.22925
3334000000,42.677498,-121.14921
3335000000,42.600929,-121.22075
3336000000,42.33498,-121.48528
3337000000,42.211819,-121.70969
3338000000,41.669136,-121.87489
3339000000,41.594025,-122.07936
3340000000,41.580341,-122.03049
3341000000,41.478199,-121.92893
3342000000,41.216469,-122.55726
3343000000,40.96381,-122.60974
3344000000,40.788261,-122.72059
3345000000,40.527931,-123.12458
3346000000,40.262253,-123.69816
3347000000,40.192501,-123.57455
3348000000,39.881714,-123.9756
3349000000,39.710423,-124.021
3350000000,39.599171,-124.36325
3351000000,39.227718,-124.91722
3352000000,39.088604,-124.8847
3353000000,39.021381,-125.04634
3354000000,38.7267,-125.6265
3355000000,38.517632,-125.74475
3356000000,38.274784,-126.10168
3357000000,38.190792,-126.28729
3358000000,37.842945,-126.51374
3359000000,37.638496,-126.97636
3360000000,37.434212,-127.24512
3361000000,37.28574,-127.42304
3362000000,37.114964,-127.51372
3363000000,36.892879,-127.88088
3364000000,36.565716,-128.29358
3365000000,36.393681,-128.56927
3366000000,36.14603,-128.77455
3367000000,36.020844,-128.96941
3368000000,35.837368,-129.42291
3369000000,35.741058,-129.41936
3370000000,35.400013,-129.96642
3371000000,35.293026,-129.9091
3372000000,34.799225,-130.64806
3373000000,34.833241,-130.61932
3374000000,34.446251,-131.08963
3375000000,34.039486,-131.51929
3376000000,34.029591,-131.74492
3377000000,33.800236,-132.02312
3378000000,33.533382,-132.35818
3379000000,33.595768,-132.62427
3380000000,33.061966,-133.08667
3381000000,33.035194,-133.24405
3382000000,32.759777,-133.75368
3383000000,32.346432,-134.23051
3384000000,32.356724,-134.54146
3385000000,31.749811,-135.24471
3386000000,31.648535,-135.35477
3387000000,31.589895,-135.75111
3388000000,31.350378,-136.09366
3389000000,30.872343,-136.78813
3390000000,31.014704,-136.94443
3391000000,30.564281,-137.3446
3392000000,30.511965,-137.70001
3393000000,30.019854,-138.40656
3394000000,29.930145,-138.60342
3395000000,29.976942,-139.02086
3396000000,29.549435,-139.58434
3397000000,29.352058,-140.19066
3398000000,29.180132,-140.50969
3399000000,28.828064,-141.02696
3400000000,28.679472,-141.45659
3401000000,28.45957,-141.7601
3402000000,28.086229,-142.63654
3403000000,28.029795,-142.99101
3404000000,27.487776,-143.49506
3405000000,27.402315,-144.03874
3406000000,27.321608,-144.54279
3407000000,27.120028,-145.10336
3408000000,27.073977,-145.51294
3409000000,26.601068,-146.17216
3410000000,26.459555,-146.62244
3411000000,26.417772,-147.07449
3412000000,26.125906,-147.63284
3413000000,25.904856,-148.12761
3414000000,25.586426,-148.90921
3415000000,25.372828,-149.53506
3416000000,25.193745,-149.99466
3417000000,24.831148,-150.47441
3418000000,24.655838,-151.29987
3419000000,24.21199,-152.0143
3420000000,24.373161,-152.42818
3421000000,24.129702,-152.95084
3422000000,23.720337,-153.70164
3423000000,23.61825,-154.3929
3424000000,23.310503,-155.0723
3425000000,23.339098,-155.47133
3426000000,23.148071,-156.21829
3427000000,22.642054,-157.30513
3428000000,22.554371,-157.95218
3429000000,22.460003,-158.43767
3430000000,22.219585,-159.25024
3431000000,21.916809,-160.06271
3432000000,21.821333,-160.65263
3433000000,21.601692,-161.60545
3434000000,21.448763,-162.12462
3435000000,21.267332,-162.76472
3436000000,21.167974,-163.58813
3437000000,20.843412,-164.39153
3438000000,20.763388,-164.9171
3439000000,20.399109,-165.82651
3440000000,20.466833,-166.49643
3441000000,20.203754,-167.41638
3442000000,19.974649,-168.17996
3443000000,20.115314,-168.74763
3444000000,19.977839,-169.53941
3445000000,19.448414,-170.63838
3446000000,19.477797,-171.33177
3447000000,19.240223,-172.29414
3448000000,19.05357,-172.97011
3449000000,19.006853,-173.88895
3450000000,19.023085,-174.42636
3451000000,18.943882,-175.14594
3452000000,18.688046,-176.31763
3453000000,18.619177,-177.04047
3454000000,18.25716,-177.88562
3455000000,18.492472,-178.49045
3456000000,18.140043,-179.42578
3457000000,17.976864,179.65154
3458000000,18.090075,178.81105
3459000000,17.979971,178.25009
3460000000,17.796478,177.0531
3461000000,17.957411,176.23021
3462000000,17.352613,175.38461
3463000000,17.519526,174.58702
3464000000,17.771847,173.91541
3465000000,17.516092,173.01726
3466000000,17.316818,172.06364
3467000000,17.125538,171.2072
3468000000,17.149635,170.328
3469000000,17.084091,169.38568
3470000000,16.923174,168.55481
3471000000,16.676893,167.4489
3472000000,16.753914,166.48378
3473000000,16.932539,166.05989
3474000000,16.813961,165.06006
3475000000,16.573538,164.06357
3476000000,16.854746,163.4019
3477000000,16.815876,162.45946
3478000000,16.627609,161.25792
3479000000,16.199099,160.29704
3480000000,16.309175,159.65787
3481000000,16.55044,158.86404
3482000000,16.478661,158.13181
3483000000,16.355362,156.97368
3484000000,16.169815,156.18504
3485000000,16.327953,155.44644
3486000000,16.001049,154.33339
3487000000,15.940144,153.52711
3488000000,16.019907,152.87827
3489000000,16.117678,152.00729
3490000000,15.728907,150.97014
3491000000,15.857734,150.22507
3492000000,15.563476,149.34189
3493000000,15.830039,148.53008
3494000000,15.838632,147.76073
3495000000,15.60143,146.84944
3496000000,15.446553,146.02139
3497000000,15.455209,145.23586
3498000000,15.216483,144.21729
3499000000,15.171782,143.36223
3500000000,15.174268,142.58446
3501000000,15.217735,141.90547
3502000000,14.823244,140.88089
3503000000,14.898576,140.2907
3504000000,14.787145,139.31483
3505000000,14.758377,138.45978
3506000000,14.348598,137.55843
3507000000,14.365874,136.94266
3508000000,14.376394,136.10561
3509000000,14.283906,135.39275
3510000000,14.151438,134.52762
3511000000,14.124323,133.73604
3512000000,14.007135,132.99695
3513000000,13.864791,132.0412
3514000000,13.356778,131.10608
3515000000,13.570409,130.33472
3516000000,13.573794,129.74529
3517000000,13.24585,129.04646
3518000000,12.93725,128.06035
3519000000,13.110164,127.46017
3520000000,12.619493,126.49083
3521000000,12.596423,125.74245
3522000000,12.356224,124.98833
3523000000,12.464531,124.38879
3524000000,12.255801,123.56465
3525000000,11.96691,122.92427
3526000000,12.001606,122.03198
3527000000,11.433676,121.3698
3528000000,11.554906,120.73621
3529000000,11.15625,119.92826
3530000000,11.160824,119.08601
3531000000,10.768603,118.36546
3532000000,10.604373,117.73318
3533000000,10.401484,117.11617
3534000000,9.755806,115.9391
3535000000,10.114453,115.56705
3536000000,9.7160959,114.7662
3537000000,9.9995623,114.41333
3538000000,9.8838711,113.66949
3539000000,9.2913647,112.56078
3540000000,9.1927242,112.03174
3541000000,8.9525671,111.30848
3542000000,8.9095106,110.64613
3543000000,8.3850203,109.78382
3544000000,8.0095692,108.89817
3545000000,8.4696198,108.70647
3546000000,8.0664549,107.82866
3547000000,7.7087617,107.09438
3548000000,7.4630523,106.31689
3549000000,7.2231846,105.91692
3550000000,7.1125746,105.09907
3551000000,6.9172707,104.34464
3552000000,6.8806996,103.82113
3553000000,6.4547739,103.02212
3554000000,6.3057837,102.19269
3555000000,6.063345,101.71004
3556000000,6.3158941,101.06624
3557000000,5.8540988,100.3646
3558000000,5.5064254,99.60199
3559000000,5.475142,98.973686
3560000000,5.2903829,98.292488
3561000000,4.9715972,97.585312
3562000000,5.0080676,96.896111
3563000000,4.4822202,96.260025
3564000000,4.6192689,95.689171
3565000000,4.4385924,94.940536
3566000000,4.0820255,94.283707
3567000000,4.2495036,93.801788
3568000000,4.0098672,93.16655
3569000000,3.5789127,92.294273
3570000000,3.7028739,91.584412
3571000000,3.5124907,91.211311
3572000000,3.5459278,90.553719
3573000000,3.2972765,89.956871
3574000000,2.8424208,88.989624
3575000000,2.4603269,88.412903
3576000000,2.4224236,87.706161
3577000000,2.6705818,87.471924
3578000000,2.5449598,86.623619
3579000000,1.9789544,85.990677
3580000000,2.009414,85.213997
3581000000,1.9301786,84.45433
3582000000,2.0719652,84.063538
3583000000,1.734774,83.246262
3584000000,1.5057359,82.65226
3585000000,1.842603,82.202713
3586000000,1.4598638,81.394211
3587000000,2.0095477,81.044548
3588000000,1.4569168,80.101852
3589000000,1.3560628,79.478256
3590000000,1.4701146,78.909019
3591000000,1.3457761,78.353073
3592000000,1.4381574,77.753899
3593000000,1.4873077,77.189163
3594000000,1.6589347,76.568863
3595000000,1.6629717,75.689117
3596000000,1.9969224,75.277954
3597000000,1.6152416,74.529854
3598000000,2.3144646,73.966232
3599000000,2.0599885,73.319839
3600000000,2.107918,72.714928
3601000000,2.3811235,72.312057
3602000000,2.214334,71.287529
3603000000,2.4521563,70.72802
3604000000,2.8412695,70.009796
3605000000,3.2736883,69.573929
3606000000,3.3152971,68.928978
3607000000,3.6160307,68.271324
3608000000,3.9855998,67.810043
3609000000,4.2838149,67.250534
3610000000,4.1676126,66.49955
3611000000,4.9816546,65.812607
3612000000,5.4665713,65.275391
3613000000,5.720068,64.565849
3614000000,6.8480248,64.105469
3615000000,7.0802522,63.334438
3616000000,7.1260328,62.649841
3617000000,7.8804436,62.210381
3618000000,8.4315605,61.291306
3619000000,9.1436996,60.834755
3620000000,9.8463144,60.443069
3621000000,10.867021,60.000595
3622000000,10.972344,59.086308
3623000000,11.906541,58.599785
3624000000,12.935087,57.972618
3625000000,13.719329,57.225025
3626000000,14.692898,56.834881
3627000000,15.503543,56.428341
3628000000,17.015882,55.825687
3629000000,17.598795,54.898766
3630000000,18.706015,54.243057
3631000000,20.161861,53.698273
3632000000,21.436951,53.315231
3633000000,22.927387,52.724957
3634000000,23.934948,52.026863
3635000000,25.241962,51.382969
3636000000,27.269884,50.915272
3637000000,27.936535,49.986729
3638000000,29.167715,49.562931
3639000000,31.289339,49.136448
3640000000,32.060883,48.323776
3641000000,34.162838,47.883976
3642000000,34.579807,47.257706
3643000000,36.434383,46.620201
3644000000,38.26302,45.996948
3645000000,39.911709,45.611023
3646000000,41.262714,44.910847
3647000000,43.05817,44.415287
3648000000,44.287563,43.890396
3649000000,45.975456,43.387337
3650000000,47.165417,42.590172
3651000000,48.91312,42.272606
3652000000,50.694557,41.632992
3653000000,51.329502,41.141178
3654000000,52.577103,40.57185
3655000000,54.200371,39.721107
3656000000,54.986816,39.298412
3657000000,55.867191,38.816875
3658000000,57.521847,38.192158
3659000000,58.777905,37.617012
3660000000,59.649818,37.094643
3661000000,60.404541,36.507133
3662000000,61.605385,35.999718
3663000000,62.628456,35.400669
3664000000,63.008442,34.686924
3665000000,64.049759,34.242626
3666000000,65.028511,33.733864
3667000000,65.697014,33.409042
3668000000,66.389107,32.727905
3669000000,66.811653,32.13427
3670000000,67.655312,31.550858
3671000000,68.049957,31.039003
3672000000,68.530243,30.391825
3673000000,69.018105,29.87715
3674000000,69.588936,29.553116
3675000000,70.111328,28.919165
3676000000,70.437698,28.256535
3677000000,70.754814,27.998838
3678000000,71.030434,27.215458
3679000000,71.644676,26.917562
3680000000,71.99453,26.285723
3681000000,72.299904,25.820383
3682000000,72.135353,25.220095
3683000000,72.697044,24.823195
3684000000,72.958878,24.368574
3685000000,72.956352,23.608166
3686000000,73.204842,23.237944
3687000000,73.02932,22.688433
3688000000,73.469017,22.247976
3689000000,73.587669,21.67923
3690000000,73.541313,21.02914
3691000000,73.643883,20.750061
3692000000,74.023193,20.407988
3693000000,73.862526,19.817791
3694000000,73.836578,19.048286
3695000000,73.907494,18.760927
3696000000,74.182587,18.347317
3697000000,73.965302,17.846472
3698000000,73.828957,17.296427
3699000000,73.890137,16.784149
3700000000,74.076637,16.344671
3701000000,73.865005,15.783842
3702000000,73.678047,15.232483
3703000000,73.712341,14.87265
3704000000,73.499313,14.486551
3705000000,73.582329,13.876539
3706000000,73.393791,13.322632
3707000000,73.280182,12.96524
3708000000,73.102463,12.314613
3709000000,73.111931,12.097147
3710000000,73.089989,11.394359
3711000000,72.820045,11.224354
3712000000,72.758232,10.44376
3713000000,72.633583,10.139667
3714000000,72.582558,9.8851728
3715000000,72.312843,9.1901217
3716000000,72.1735,8.7893038
3717000000,71.893829,8.4028368
3718000000,71.853699,7.9498444
3719000000,71.71595,7.4784169
3720000000,71.431587,7.026453
3721000000,71.167671,6.7079954
3722000000,71.138672,6.2730055
3723000000,70.95903,5.6456056
3724000000,70.771202,5.4439111
3725000000,70.826706,4.7809067
3726000000,70.546631,4.3944488
3727000000,70.083199,4.0060349
3728000000,70.006775,3.5306232
3729000000,69.913185,3.1580064
3730000000,69.480965,2.6486156
3731000000,69.636063,2.3559194
3732000000,69.167404,1.9250954
3733000000,68.839615,1.3297738
3734000000,68.816002,1.0474069
3735000000,68.677696,0.58304423
3736000000,68.478355,0.37527665
3737000000,68.135139,-0.21244231
3738000000,68.13636,-0.72343022
3739000000,67.778107,-0.99282992
3740000000,67.424759,-1.5778927
3741000000,67.270912,-1.8782039
3742000000,67.218048,-2.1905749
3743000000,66.807091,-2.6421235
3744000000,66.734741,-3.0584745
3745000000,66.541397,-3.5272238
3746000000,66.109871,-4.0272164
3747000000,65.715279,-4.4506001
3748000000,65.870819,-4.5129719
3749000000,65.41803,-5.0271621
3750000000,65.255737,-5.5827765
3751000000,65.0308,-5.7798042
3752000000,64.752716,-6.297214
3753000000,64.578362,-6.5156255
3754000000,64.253441,-7.0758176
3755000000,63.939594,-7.4276028
3756000000,63.567574,-7.9874959
3757000000,63.580265,-8.5081863
3758000000,63.246605,-8.589591
3759000000,63.347725,-8.8042631
3760000000,62.68671,-9.3936186
3761000000,62.517937,-9.9180975
3762000000,62.29565,-10.162303
3763000000,62.135094,-10.484587
3764000000,61.969734,-10.835084
3765000000,61.611366,-11.348959
3766000000,61.447594,-11.630521
3767000000,61.076378,-11.964864
3768000000,60.695023,-12.420632
3769000000,60.484818,-12.682482
3770000000,60.182171,-13.057685
3771000000,60.160797,-13.395205
3772000000,59.715492,-13.698871
3773000000,59.491234,-14.221736
3774000000,59.40464,-14.484762
3775000000,59.064369,-15.01493
3776000000,58.810101,-15.097373
3777000000,58.534641,-15.482861
3778000000,58.408512,-15.890852
3779000000,58.010162,-16.284752
3780000000,57.803387,-16.722433
3781000000,57.640289,-16.957285
3782000000,57.352005,-17.418451
3783000000,56.903805,-17.696367
3784000000,56.822617,-18.120392
3785000000,56.592693,-18.277746
3786000000,56.299969,-18.719572
3787000000,56.03051,-19.110556
3788000000,55.777699,-19.334749
3789000000,55.61129,-19.864721
3790000000,55.281643,-20.180927
3791000000,55.094059,-20.494104
3792000000,54.812855,-20.719282
3793000000,54.560623,-21.150469
3794000000,54.408642,-21.283365
3795000000,54.127777,-21.764874
3796000000,53.68721,-22.074703
3797000000,53.474731,-22.482769
3798000000,53.314892,-22.759468
3799000000,53.164383,-23.021378
3800000000,52.938545,-23.357714
3801000000,52.484833,-23.788628
3802000000,52.233028,-24.202805
3803000000,52.145924,-24.347328
3804000000,51.543739,-24.854919
3805000000,51.580101,-24.976946
3806000000,51.323292,-25.263662
3807000000,51.080624,-25.675318
3808000000,50.843487,-25.945097
3809000000,50.611061,-26.463923
3810000000,50.360653,-26.619884
3811000000,49.966969,-27.084671
3812000000,49.735851,-27.314947
3813000000,49.483063,-27.828173
3814000000,49.019096,-28.19891
3815000000,48.93829,-28.459152
3816000000,48.643227,-28.739319
3817000000,48.549831,-28.763538
3818000000,48.09919,-29.218447
3819000000,47.981888,-29.557081
3820000000,47.773132,-29.824226
3821000000,47.635601,-30.191357
3822000000,47.306473,-30.549234
3823000000,46.775108,-30.919144
3824000000,46.451565,-31.410175
3825000000,46.35751,-31.578632
3826000000,45.880268,-31.935572
3827000000,45.897453,-32.044094
3828000000,45.725441,-32.371319
3829000000,45.454811,-32.668053
3830000000,45.118702,-33.188854
3831000000,44.91135,-33.382179
3832000000,44.550991,-33.558182
3833000000,44.278851,-33.981522
3834000000,44.116257,-34.239986
3835000000,44.030476,-34.650806
3836000000,43.694256,-34.920647
3837000000,43.471912,-35.254295
3838000000,42.985493,-35.591415
3839000000,42.81216,-36.028633
3840000000,42.662529,-36.151501
3841000000,42.314438,-36.518227
3842000000,42.161766,-36.77483
3843000000,41.848774,-37.126842
3844000000,41.460423,-37.442505
3845000000,41.4706,-37.554951
3846000000,41.199196,-38.078274
3847000000,41.204792,-38.067738
3848000000,40.661816,-38.554443
3849000000,40.332184,-39.012321
3850000000,40.153355,-39.071796
3851000000,39.930424,-39.394897
3852000000,39.79147,-39.677486
3853000000,39.365318,-40.085468
3854000000,39.117767,-40.21925
3855000000,38.821388,-40.604824
3856000000,38.471684,-40.967957
3857000000,38.47366,-41.183098
3858000000,38.456535,-41.375641
3859000000,38.033176,-41.739319
3860000000,37.413052,-42.226612
3861000000,37.18243,-42.554253
3862000000,37.328621,-42.607712
3863000000,36.724728,-42.934174
3864000000,36.745209,-43.231678
3865000000,36.86438,-43.306641
3866000000,36.623577,-43.741219
3867000000,36.358288,-43.999252
3868000000,35.616875,-44.469887
3869000000,35.487972,-44.693535
3870000000,35.205448,-45.114273
3871000000,34.921051,-45.36763
3872000000,34.743156,-45.579945
3873000000,34.518311,-45.919327
3874000000,34.259468,-46.18998
3875000000,33.975166,-46.464176
3876000000,33.833427,-46.707314
3877000000,33.673019,-46.975525
3878000000,33.31535,-47.296715
3879000000,33.097713,-47.596924
3880000000,32.572735,-48.001762
3881000000,32.346928,-48.395187
3882000000,32.187378,-48.639328
3883000000,31.936453,-48.695755
3884000000,31.82192,-49.191013
3885000000,31.677191,-49.243294
3886000000,31.25609,-49.623154
3887000000,30.872576,-50.017441
3888000000,30.924969,-50.089863
3889000000,30.460442,-50.496696
3890000000,30.114557,-50.910458
3891000000,30.016376,-51.16256
3892000000,29.813328,-51.273819
3893000000,29.562336,-51.574715
3894000000,29.340546,-52.005581
3895000000,29.113043,-52.273739
3896000000,28.91408,-52.379875
3897000000,28.498274,-52.865902
3898000000,28.161602,-53.266472
3899000000,27.995995,-53.407932
3900000000,27.668016,-54.037315
3901000000,27.847179,-53.806614
3902000000,27.071693,-54.308037
3903000000,27.039108,-54.566895
3904000000,26.934309,-54.637554
3905000000,26.932632,-55.015949
3906000000,26.540806,-55.268818
3907000000,26.266293,-55.525135
3908000000,25.679003,-56.066807
3909000000,25.452023,-56.243015
3910000000,25.617613,-56.454033
3911000000,24.939659,-56.773911
3912000000,25.049299,-56.958733
3913000000,24.860222,-57.290287
3914000000,24.05633,-57.692425
3915000000,24.289209,-57.773933
3916000000,23.905184,-58.2854
3917000000,23.990887,-58.326969
3918000000,23.424488,-58.662762
3919000000,23.380529,-58.928898
3920000000,22.826313,-59.559277
3921000000,22.585611,-59.667351
3922000000,22.306894,-59.955601
3923000000,22.367716,-60.04578
3924000000,21.913097,-60.581123
3925000000,21.595804,-60.83276
3926000000,21.569946,-61.118725
3927000000,21.146694,-61.487339
3928000000,21.118561,-61.420101
3929000000,20.704378,-61.960152
3930000000,20.591032,-62.036613
3931000000,20.357605,-62.467655
3932000000,20.141939,-62.658031
3933000000,19.933537,-62.968449
3934000000,19.446447,-63.414337
3935000000,19.503727,-63.50415
3936000000,19.201828,-63.806171
3937000000,19.120464,-64.10672
3938000000,18.671761,-64.36821
3939000000,18.398493,-64.581207
3940000000,18.322227,-64.934532
3941000000,17.971449,-65.234383
3942000000,17.717085,-65.511658
3943000000,17.553989,-65.782707
3944000000,17.270786,-66.142975
3945000000,17.082872,-66.441261
3946000000,16.703451,-66.714371
3947000000,16.542934,-66.835365
3948000000,16.342531,-67.174934
3949000000,15.691794,-67.478828
3950000000,15.614388,-67.924706
3951000000,15.555999,-68.102707
3952000000,15.303468,-68.229515
3953000000,14.982381,-68.671425
3954000000,14.938447,-68.925117
3955000000,14.508124,-69.223618
3956000000,14.435856,-69.610573
3957000000,14.120926,-69.690208
3958000000,14.278585,-69.898712
3959000000,13.806808,-70.138916
3960000000,13.144267,-70.686165
3961000000,13.33534,-70.744247
3962000000,13.05288,-71.175774
3963000000,12.464551,-71.484093
3964000000,12.924337,-71.406189
3965000000,12.104395,-72.114914
3966000000,11.785522,-72.373558
3967000000,11.69448,-72.570862
3968000000,11.395289,-72.793655
3969000000,11.266667,-73.274574
3970000000,11.033452,-73.458839
3971000000,10.633157,-73.708679
3972000000,10.562284,-73.783165
3973000000,10.568047,-74.115807
3974000000,10.01703,-74.583611
3975000000,9.3921976,-75.025597
3976000000,9.5969591,-75.108833
3977000000,9.4792461,-75.275215
3978000000,8.8148899,-75.746742
3979000000,8.5992632,-75.891884
3980000000,8.4799328,-76.357101
3981000000,8.3824749,-76.458961
3982000000,7.9582438,-76.875481
3983000000,7.9411869,-77.139999
3984000000,7.3302984,-77.496391
3985000000,7.2348232,-77.694679
3986000000,7.2153964,-78.027771
3987000000,6.5983844,-78.331276
3988000000,6.6667085,-78.525093
3989000000,6.2317114,-78.878708
3990000000,6.2517972,-79.141167
3991000000,5.8440514,-79.434662
3992000000,5.6044192,-79.537453
3993000000,5.4083686,-80.007553
3994000000,4.9764714,-80.373421
3995000000,4.9552355,-80.527588
3996000000,4.7015219,-80.8694
3997000000,4.2343278,-81.223145
3998000000,4.4043064,-81.318207
3999000000,3.9631088,-81.798302
4000000000,3.9435823,-81.890419
4001000000,3.4362009,-82.337715
4002000000,3.2377975,-82.536674
4003000000,3.2842638,-82.882019
4004000000,2.8481441,-83.190178
4005000000,2.5353379,-83.357224
4006000000,2.2912343,-83.810364
4007000000,2.131073,-83.885597
4008000000,1.994701,-84.254814
4009000000,1.7332203,-84.330681
4010000000,1.2149582,-84.777847
4011000000,1.4419169,-85.002823
4012000000,1.0544897,-85.401596
4013000000,0.88916045,-85.604561
4014000000,0.61796999,-85.778854
4015000000,0.12636033,-86.365311
4016000000,-0.27934518,-86.635368
4017000000,-0.19371119,-86.651619
4018000000,-0.14361256,-86.922157
4019000000,-0.66599578,-87.553825
4020000000,-0.5608058,-87.504387
4021000000,-1.0125575,-87.960304
4022000000,-1.0864919,-88.314125
4023000000,-1.5794768,-88.510406
4024000000,-1.7498925,-88.872719
4025000000,-1.981388,-89.086021
4026000000,-2.3827868,-89.497307
4027000000,-2.3678765,-89.63324
4028000000,-2.7771037,-89.959961
4029000000,-3.0466261,-90.174149
4030000000,-3.0659344,-90.594566
4031000000,-3.4203632,-90.852394
4032000000,-3.8887088,-91.078209
4033000000,-3.5745099,-91.171867
4034000000,-4.0860567,-91.725685
4035000000,-4.3558412,-91.989655
4036000000,-4.5862584,-92.332962
4037000000,-4.6627297,-92.393166
4038000000,-4.7449183,-92.768288
4039000000,-5.1010203,-93.073318
4040000000,-5.5226674,-93.509422
4041000000,-5.7180772,-93.828629
4042000000,-6.0087709,-93.940781
4043000000,-6.0966344,-94.100075
4044000000,-6.5439539,-94.501793
4045000000,-6.3254395,-94.808723
4046000000,-6.663939,-95.055283
4047000000,-6.8614511,-95.337456
4048000000,-7.12568,-95.710594
4049000000,-7.2786961,-95.998329
4050000000,-7.6747584,-96.477951
4051000000,-7.7570519,-96.658211
4052000000,-7.8825045,-96.789017
4053000000,-8.1866646,-97.125053
4054000000,-8.4617519,-97.526115
4055000000,-8.7223377,-97.802498
4056000000,-8.8043356,-98.285637
4057000000,-8.9424295,-98.216759
4058000000,-9.3790503,-98.690453
4059000000,-9.4878473,-98.842552
4060000000,-9.7755508,-99.17131
4061000000,-10.257516,-99.61338
4062000000,-10.36849,-99.852798
4063000000,-10.250462,-99.98381
4064000000,-10.723743,-100.34983
4065000000,-10.685912,-100.47034
4066000000,-10.879202,-100.7812
4067000000,-11.006163,-101.17402
4068000000,-11.366221,-101.43906
4069000000,-11.663925,-101.72979
4070000000,-11.800051,-101.97756
4071000000,-12.071177,-102.33546
4072000000,-12.126781,-102.61259
4073000000,-12.676535,-102.8968
4074000000,-12.441771,-103.07009
4075000000,-12.751556,-103.64095
4076000000,-12.837091,-103.76346
4077000000,-13.022095,-104.01895
4078000000,-13.709204,-104.25425
4079000000,-13.370584,-104.52486
4080000000,-13.526913,-104.95288
4081000000,-13.844324,-105.23977
4082000000,-13.949796,-105.49678
4083000000,-14.358856,-105.8626
4084000000,-14.527997,-106.21045
4085000000,-14.740549,-106.29198
4086000000,-14.341189,-106.44839
4087000000,-15.172946,-106.89017
4088000000,-15.166574,-107.2304
4089000000,-15.35827,-107.57336
4090000000,-15.356155,-107.83407
4091000000,-15.534685,-108.21504
4092000000,-15.83925,-108.41647
4093000000,-15.761535,-108.66601
4094000000,-16.021914,-108.91664
4095000000,-16.48604,-109.33805
4096000000,-16.805508,-109.56371
4097000000,-16.542629,-109.87009
4098000000,-16.574097,-110.06171
4099000000,-17.337549,-110.42722
4100000000,-17.145231,-110.66021
4101000000,-17.36095,-110.88902
4102000000,-17.378305,-111.20527
4103000000,-17.289595,-111.3224
4104000000,-17.72596,-111.71167
4105000000,-17.678938,-111.95539
4106000000,-18.070684,-112.40356
4107000000,-17.804483,-112.50483
4108000000,-18.509796,-113.11557
4109000000,-18.234303,-113.0583
4110000000,-18.99975,-113.71728
4111000000,-18.394764,-113.71999
4112000000,-18.741718,-114.0538
4113000000,-18.824244,-114.31103
4114000000,-19.221571,-114.67359
4115000000,-18.807987,-114.78499
4116000000,-19.392838,-115.3143
4117000000,-19.44136,-115.56255
4118000000,-19.229725,-115.87987
4119000000,-19.699839,-116.13505
4120000000,-19.523634,-116.27322
4121000000,-19.378679,-116.58759
4122000000,-19.786758,-116.87344
4123000000,-20.152729,-117.27984
4124000000,-20.053652,-117.61263
4125000000,-20.251038,-117.83311
4126000000,-20.101704,-118.03629
4127000000,-20.241571,-118.2782
4128000000,-20.677885,-118.75867
4129000000,-20.604416,-118.8949
4130000000,-20.468929,-119.22804
4131000000,-20.74704,-119.61565
4132000000,-20.760994,-119.82207
4133000000,-20.705023,-120.186
4134000000,-20.807129,-120.54089
4135000000,-20.660589,-120.61585
4136000000,-21.345179,-120.90498
4137000000,-21.019676,-121.1908
4138000000,-20.85932,-121.5992
4139000000,-20.584255,-121.63156
4140000000,-21.121927,-122.1532
4141000000,-20.907486,-122.3693
4142000000,-20.737526,-122.7033
4143000000,-20.975462,-122.99699
4144000000,-20.771662,-123.2585
4145000000,-20.758589,-123.64043
4146000000,-20.779716,-123.79117
4147000000,-20.125036,-123.86096
4148000000,-19.834044,-124.29397
4149000000,-20.211172,-124.63737
4150000000,-20.629066,-124.90661
4151000000,-20.166674,-125.29256
4152000000,-20.19446,-125.25715
4153000000,-19.753008,-125.61424
4154000000,-19.729757,-125.95377
4155000000,-20.026371,-126.28812
4156000000,-19.508226,-126.4975
4157000000,-19.917583,-126.84783
4158000000,-19.682323,-127.19271
4159000000,-18.744648,-127.46569
4160000000,-19.287201,-127.70705
4161000000,-19.122581,-128.10316
4162000000,-19.155945,-128.25761
4163000000,-18.250521,-128.51622
4164000000,-18.061258,-128.77344
4165000000,-18.040411,-129.10909
4166000000,-18.312874,-129.50665
4167000000,-17.340582,-129.72481
4168000000,-16.672823,-129.8932
4169000000,-16.616058,-130.27124
4170000000,-16.013987,-130.48961
4171000000,-15.866119,-130.65378
4172000000,-15.059442,-131.02817
4173000000,-15.009795,-131.35826
4174000000,-14.81565,-131.67096
4175000000,-14.209491,-131.85574
4176000000,-13.159237,-132.18179
4177000000,-13.042353,-132.45746
4178000000,-12.506317,-132.90468
4179000000,-11.740364,-133.03786
4180000000,-10.80272,-133.38304
4181000000,-9.968029,-133.5621
4182000000,-9.9091167,-133.8837
4183000000,-8.5781164,-134.24739
4184000000,-7.910079,-134.32693
4185000000,-7.5764813,-134.782
4186000000,-6.6396403,-135.09558
4187000000,-5.2177129,-135.37613
4188000000,-4.7557349,-135.66197
4189000000,-3.491488,-135.83284
4190000000,-2.3038199,-136.15244
4191000000,-1.7953594,-136.55591
4192000000,-0.53926951,-136.67841
4193000000,-0.10678834,-136.92842
4194000000,2.0589864,-137.25089
4195000000,3.9234858,-137.41866
4196000000,3.5701289,-138.02457
4197000000,6.3559113,-138.07233
4198000000,7.016655,-138.13907
4199000000,9.3978844,-138.55602
4200000000,9.8879538,-138.87169
4201000000,11.37155,-139.12659
4202000000,12.981943,-139.48259
4203000000,15.300778,-139.5999
4204000000,15.57239,-139.95261
4205000000,18.595802,-140.00729
4206000000,18.82271,-140.68153
4207000000,20.674486,-140.89003
4208000000,22.652378,-140.89622
4209000000,24.215214,-141.2995
4210000000,26.360798,-141.54781
4211000000,28.997599,-141.81166
4212000000,29.84514,-142.12361
4213000000,31.399282,-142.35049
4214000000,32.888554,-142.67888
4215000000,34.105358,-143.09161
4216000000,35.958431,-143.28159
4217000000,37.630272,-143.39191
4218000000,39.705242,-143.74818
4219000000,41.229343,-143.93677
4220000000,42.904171,-144.30266
4221000000,44.800049,-144.3497
4222000000,45.109882,-144.75214
4223000000,46.835262,-145.14192
4224000000,48.415413,-145.33696
4225000000,49.7384,-145.67409
4226000000,50.787151,-145.96385
4227000000,52.327881,-146.18262
4228000000,53.202225,-146.49837
4229000000,53.943172,-146.877
4230000000,55.946785,-146.9081
4231000000,56.669586,-147.36436
4232000000,57.880798,-147.6391
4233000000,58.779415,-147.84996
4234000000,59.706051,-148.06535
4235000000,60.758213,-148.489
4236000000,61.904182,-148.58765
4237000000,61.724606,-149.06445
4238000000,63.364101,-149.09679
4239000000,63.731853,-149.34938
4240000000,64.818932,-149.74043
4241000000,66.002274,-149.82974
4242000000,66.152702,-150.16055
4243000000,66.373878,-150.56015
4244000000,67.719322,-150.64978
4245000000,68.280258,-150.88878
4246000000,68.756516,-151.28894
4247000000,68.916245,-151.51019
4248000000,68.901306,-151.90399
4249000000,69.857552,-151.98181
4250000000,70.302643,-152.27327
4251000000,70.848206,-152.50438
4252000000,70.782608,-153.06967
4253000000,71.967682,-152.99948
4254000000,71.909462,-153.33479
4255000000,72.229141,-153.71001
4256000000,72.067024,-153.95168
4257000000,72.473755,-154.09567
4258000000,72.992859,-154.54752
4259000000,73.241356,-154.65961
4260000000,73.268272,-154.90962
4261000000,73.511978,-155.27884
4262000000,73.919548,-155.34958
4263000000,74.006645,-155.66023
4264000000,74.609451,-155.87732
4265000000,74.151176,-156.38525
4266000000,74.311897,-156.46117
4267000000,74.802521,-156.66457
4268000000,74.294319,-157.07854
4269000000,75.132828,-157.24673
4270000000,74.863152,-157.54933
4271000000,75.304657,-157.69293
4272000000,75.03669,-157.98166
4273000000,75.173027,-158.3242
4274000000,75.378601,-158.50116
4275000000,75.645149,-158.79912
4276000000,75.510216,-159.11287
4277000000,75.142105,-159.47441
4278000000,75.509995,-159.57623
4279000000,75.814896,-159.7774
4280000000,75.427368,-160.20781
4281000000,75.365555,-160.50751
4282000000,75.613953,-160.57019
4283000000,76.196228,-160.78575
4284000000,75.996582,-161.08589
4285000000,75.848557,-161.4948
4286000000,76.091995,-161.41109
4287000000,75.746719,-161.9686
4288000000,75.899773,-162.20534
4289000000,76.093742,-162.4157
4290000000,76.110275,-162.61275
4291000000,75.949913,-162.8537
4292000000,76.046196,-163.0997
4293000000,75.59864,-163.45317
4294000000,75.783646,-163.5627
4295000000,75.708061,-163.93103
4296000000,76.13279,-164.07362
4297000000,75.669823,-164.48976
4298000000,75.967636,-164.48701
4299000000,75.785172,-164.99651
4300000000,76.057838,-165.09036
4301000000,75.587875,-165.31053
4302000000,75.399208,-165.59407
4303000000,75.542709,-165.80365
4304000000,75.150581,-166.11316
4305000000,75.419312,-166.31425
4306000000,75.428757,-166.55051
4307000000,75.111732,-166.87221
4308000000,74.748055,-167.16698
4309000000,74.978958,-167.32565
4310000000,75.119972,-167.51837
4311000000,74.288071,-168.00398
4312000000,74.72567,-168.13947
4313000000,74.671761,-168.44737
4314000000,74.458839,-168.55266
4315000000,74.382431,-168.66034
4316000000,74.432938,-168.97766
4317000000,73.775421,-169.42075
4318000000,74.019119,-169.56575
4319000000,73.401245,-170.0065
4320000000,73.925179,-169.95125
4321000000,73.622345,-170.27336
4322000000,73.391518,-170.58736
4323000000,73.546791,-170.82649
4324000000,73.165947,-171.01862
4325000000,72.75956,-171.43828
4326000000,73.134903,-171.62758
4327000000,72.329239,-172.15131
4328000000,73.148018,-171.87001
4329000000,72.611084,-172.20247
4330000000,72.155342,-172.67281
4331000000,72.101349,-172.88
4332000000,72.388969,-172.93465
4333000000,72.223892,-173.16222
4334000000,72.176758,-173.58347
4335000000,71.912888,-173.6179
4336000000,71.223007,-174.14125
4337000000,71.61692,-174.12643
4338000000,71.412193,-174.44528
4339000000,71.327713,-174.74226
4340000000,70.756996,-174.99673
4341000000,71.041962,-175.10693
4342000000,70.497337,-175.64299
4343000000,70.515236,-175.72722
4344000000,70.629158,-175.85849
4345000000,70.297707,-176.10353
4346000000,70.051842,-176.40622
4347000000,69.678055,-176.71333
4348000000,69.778259,-176.75768
4349000000,69.47612,-177.0108
4350000000,69.314766,-177.41815
4351000000,69.56179,-177.56268
4352000000,69.606438,-177.65436
4353000000,69.144455,-177.86703
4354000000,69.051834,-178.28656
4355000000,68.740471,-178.44948
4356000000,68.619751,-178.75777
4357000000,68.59201,-178.87895
4358000000,68.197495,-179.31516
4359000000,68.170868,-179.50981
4360000000,68.301048,-179.71478
4361000000,67.719772,-179.80156
4362000000,67.644379,179.77313
4363000000,68.102783,179.82565
4364000000,67.284508,179.28865
4365000000,67.235863,179.12083
4366000000,67.336388,178.82784
4367000000,67.317139,178.75455
4368000000,66.732422,178.46346
4369000000,66.303185,178.28894
4370000000,66.353783,178.03036
4371000000,66.399956,177.78442
4372000000,66.318443,177.47398
4373000000,65.792778,177.30547
4374000000,65.561638,177.15298
4375000000,65.605171,176.87939
4376000000,65.348083,176.45657
4377000000,65.123894,176.20279
4378000000,64.679337,176.00975
4379000000,64.957077,175.80582
4380000000,64.773483,175.69522
4381000000,64.61274,175.55786
4382000000,64.558167,175.21709
4383000000,64.143875,174.98383
4384000000,63.710236,174.71234
4385000000,63.926945,174.58733
4386000000,63.673676,174.29323
4387000000,63.476349,174.08182
4388000000,62.919315,173.75148
4389000000,63.269444,173.6678
4390000000,62.762493,173.42133
4391000000,62.50988,172.96852
4392000000,62.558372,172.92816
4393000000,62.110973,172.702
4394000000,62.192043,172.43365
4395000000,61.897552,172.22493
4396000000,61.886726,172.00774
4397000000,61.511086,171.6492
4398000000,61.442291,171.57426
4399000000,61.363983,171.2449
4400000000,60.97842,171.08813
4401000000,60.853798,170.88333
4402000000,60.673241,170.51303
4403000000,60.58477,170.37543
4404000000,60.380348,170.36694
4405000000,60.119423,169.90025
4406000000,60.167965,169.72722
4407000000,59.751637,169.51372
4408000000,59.499786,169.12503
4409000000,59.577991,169.0865
4410000000,59.0312,168.82211
4411000000,59.106663,168.59222
4412000000,59.119686,168.43523
4413000000,58.556763,167.93819
4414000000,58.336113,167.78841
4415000000,58.565472,167.73723
4416000000,58.064621,167.43124
4417000000,57.941418,167.21974
4418000000,58.041153,166.94449
4419000000,57.853745,166.87029
4420000000,57.765316,166.61377
4421000000,57.487106,166.37793
4422000000,56.957088,166.01588
4423000000,56.962734,165.90311
4424000000,56.54689,165.62805
4425000000,56.845051,165.45753
4426000000,56.389973,165.29289
4427000000,56.447803,165.07816
4428000000,55.864956,164.67297
4429000000,55.74535,164.43774
4430000000,56.003494,164.46198
4431000000,55.647423,164.18855
4432000000,55.136745,163.76797
4433000000,55.119049,163.73112
4434000000,54.764698,163.4088
4435000000,54.883053,163.07927
4436000000,54.525852,162.92468
4437000000,54.660477,162.89206
4438000000,54.223785,162.42653
4439000000,54.023209,162.3378
4440000000,54.04705,162.16275
4441000000,53.67313,161.85626
4442000000,53.759651,161.63124
4443000000,53.345097,161.33653
4444000000,53.16605,161.17734
4445000000,52.882092,160.90205
4446000000,52.486656,160.59712
4447000000,52.714993,160.60237
4448000000,52.34399,160.37808
4449000000,52.161324,160.0192
4450000000,51.79707,159.87987
4451000000,51.471722,159.47311
4452000000,51.546917,159.34589
4453000000,51.310562,159.13782
4454000000,51.197151,158.93887
4455000000,50.737362,158.68788
4456000000,50.434441,158.36952
4457000000,50.953384,158.40596
4458000000,50.669662,158.1118
4459000000,50.724171,158.02654
4460000000,50.36311,157.67653
4461000000,49.937969,157.39172
4462000000,49.869976,157.14052
4463000000,49.636139,157.12691
4464000000,49.540226,156.89732
4465000000,49.788708,156.77225
4466000000,49.409866,156.46762
4467000000,48.798218,156.1602
4468000000,48.938877,156.05629
4469000000,48.572334,155.78909
4470000000,48.515251,155.57089
4471000000,48.194469,155.29156
4472000000,47.922745,155.17685
4473000000,47.838364,154.96991
4474000000,47.812611,154.78554
4475000000,47.479019,154.4713
4476000000,47.469982,154.23735
4477000000,47.220425,154.06284
4478000000,46.935509,153.77275
4479000000,46.652077,153.52684
4480000000,46.594349,153.39299
4481000000,46.504879,153.31276
4482000000,46.31868,152.89969
4483000000,45.985291,152.79359
4484000000,45.600609,152.52637
4485000000,45.834812,152.39142
4486000000,45.584072,152.13765
4487000000,45.033432,151.72525
4488000000,45.047749,151.62642
4489000000,44.57523,151.35847
4490000000,44.920029,151.39818
4491000000,44.131542,150.74287
4492000000,44.236122,150.81131
4493000000,43.974216,150.38718
4494000000,43.608734,150.21788
4495000000,43.508049,150.25412
4496000000,43.167408,149.82538
4497000000,43.3745,149.69151
4498000000,43.133175,149.47842
4499000000,43.058987,149.33786
4500000000,42.379887,149.00624
4501000000,42.704601,148.85391
4502000000,42.397671,148.6356
4503000000,42.552731,148.62531
4504000000,41.893734,148.23158
4505000000,41.615292,148.01616
4506000000,41.674706,147.83592
4507000000,41.414059,147.535
4508000000,41.369923,147.56496
4509000000,40.924679,147.32721
4510000000,40.985081,147.07437
4511000000,40.721615,146.86539
4512000000,40.26918,146.55916
4513000000,40.15255,146.39905
4514000000,39.758533,146.0193
4515000000,39.670704,145.9951
4516000000,39.692989,145.84941
4517000000,39.434948,145.46791
4518000000,39.199562,145.20813
4519000000,39.064751,145.12955
4520000000,38.719128,144.68576
4521000000,38.666645,144.60919
4522000000,38.525433,144.39638
4523000000,38.321201,144.19215
4524000000,38.393711,144.03793
4525000000,38.014439,143.83412
4526000000,38.026344,143.55875
4527000000,37.490551,143.47993
4528000000,37.52578,143.1788
4529000000,37.033821,142.9257
4530000000,37.471115,142.85593
4531000000,36.703865,142.55162
4532000000,36.414459,142.21814
4533000000,36.388493,142.01526
4534000000,36.048512,141.76173
4535000000,36.019176,141.70348
4536000000,36.261963,141.56238
4537000000,35.522877,141.17487
4538000000,35.480923,140.95793
4539000000,35.118778,140.82379
4540000000,34.948803,140.54579
4541000000,34.791206,140.49698
4542000000,34.513885,140.22455
4543000000,34.680862,140.0247
4544000000,34.241974,139.85036
4545000000,34.152061,139.49271
4546000000,33.794556,139.28099
4547000000,33.606792,139.07973
4548000000,33.354515,138.80286
4549000000,33.276054,138.70491
4550000000,33.245834,138.63422
4551000000,32.715069,138.21832
4552000000,32.651905,137.97731
4553000000,32.280937,137.69078
4554000000,31.922888,137.52026
4555000000,32.063911,137.31653
4556000000,31.676495,137.23335
4557000000,31.31024,136.94424
4558000000,31.566345,136.73849
4559000000,31.24958,136.59375
4560000000,30.765467,136.34949
4561000000,30.879372,136.24811
4562000000,30.678833,136.00162
4563000000,30.4744,135.82335
4564000000,30.146954,135.601
4565000000,30.361582,135.39178
4566000000,29.935316,135.11952
4567000000,29.915232,134.9937
4568000000,29.688465,134.72037
4569000000,29.552299,134.65834
4570000000,29.140415,134.38705
4571000000,28.798687,133.99348
4572000000,28.410065,133.70906
4573000000,28.781233,133.64476
4574000000,28.376671,133.43178
4575000000,28.412836,133.40274
4576000000,28.4083,132.9523
4577000000,27.834372,132.70651
4578000000,27.776247,132.72089
4579000000,27.594133,132.5569
4580000000,27.181803,132.1548
4581000000,26.72052,131.93018
4582000000,26.58493,131.62794
4583000000,26.48982,131.62813
4584000000,26.564165,131.35774
4585000000,26.027796,131.20509
4586000000,25.473448,131.02979
4587000000,25.654535,130.76619
4588000000,25.433523,130.57864
4589000000,25.346954,130.37097
4590000000,25.357094,130.29205
4591000000,25.157366,129.9079
4592000000,24.731543,129.73354
4593000000,24.381521,129.5706
4594000000,24.326836,129.26881
4595000000,24.026291,129.19759
4596000000,23.70944,128.74063
4597000000,23.305431,128.55629
4598000000,23.360094,128.50909
4599000000,23.124393,128.03929
4600000000,23.06741,127.99521
4601000000,22.69696,127.95906
4602000000,22.267715,127.64318
4603000000,22.649164,127.39503
4604000000,21.777561,127.26981
4605000000,21.879637,126.97782
4606000000,21.55022,126.73204
4607000000,21.343311,126.56051
4608000000,21.153904,126.49095
4609000000,21.149708,126.18501
4610000000,20.357021,125.96881
4611000000,20.837254,125.77254
4612000000,20.728798,125.52953
4613000000,20.520428,125.40188
4614000000,20.004246,125.17871
4615000000,19.870384,124.92052
4616000000,19.904682,124.84996
4617000000,18.758736,124.33187
4618000000,19.586582,124.28056
4619000000,18.907129,124.11599
4620000000,18.699751,123.85094
4621000000,18.74707,123.75503
4622000000,18.699924,123.51447
4623000000,18.265425,123.30727
4624000000,18.170977,123.13095
4625000000,17.858196,122.66733
4626000000,17.511765,122.68439
4627000000,17.23126,122.47428
4628000000,16.928104,122.08152
4629000000,17.08881,122.05356
4630000000,16.773588,121.88559
4631000000,16.457693,121.65205
4632000000,15.994514,121.41615
4633000000,15.943757,121.05872
4634000000,15.948613,120.9987
4635000000,15.295907,120.87627
4636000000,15.359089,120.55803
4637000000,15.140101,120.41344
4638000000,14.824532,120.29697
4639000000,14.290501,119.88464
4640000000,14.637478,119.86033
4641000000,14.543544,119.64329
4642000000,14.102065,119.19042
4643000000,13.375251,118.9806
4644000000,13.821515,118.961
4645000000,13.484702,118.78922
4646000000,13.330747,118.44598
4647000000,12.459944,118.34452
4648000000,12.51722,118.12386
4649000000,12.323124,117.77261
4650000000,12.193506,117.64124
4651000000,11.852176,117.47388
4652000000,11.85762,117.29409
4653000000,11.22509,117.16578
4654000000,11.363216,116.81864
4655000000,10.639873,116.60075
4656000000,11.299059,116.48138
4657000000,10.298737,116.20918
4658000000,10.985892,116.18108
4659000000,9.793191,115.81232
4660000000,9.6355658,115.53205
4661000000,9.4199772,115.35375
4662000000,9.6695175,115.06844
4663000000,9.3488846,115.01414
4664000000,9.2090673,114.70893
4665000000,9.3700552,114.59698
4666000000,8.0674362,114.23225
4667000000,8.4202433,114.06047
4668000000,7.8968258,113.91635
4669000000,8.4006901,113.84239
4670000000,7.6623821,113.62789
4671000000,7.0872679,113.11623
4672000000,7.307703,112.99564
4673000000,6.8412733,112.73822
4674000000,6.788125,112.68578
4675000000,6.262588,112.4359
4676000000,6.5147963,112.28764
4677000000,5.801168,111.98296
4678000000,6.1628075,111.94498
4679000000,5.6888132,111.65281
4680000000,5.6162567,111.44251
4681000000,5.2893004,111.26254
4682000000,5.0363584,111.05038
4683000000,4.2272773,110.87034
4684000000,4.1963878,110.548
4685000000,4.3674335,110.34814
4686000000,3.8201368,110.09242
4687000000,3.0805385,109.81091
4688000000,3.505466,109.61104
4689000000,3.3556092,109.5868
4690000000,3.3958497,109.3315
4691000000,2.3844907,109.09806
4692000000,3.1470683,108.95712
4693000000,2.1269686,108.5784
4694000000,1.5094161,108.3564
4695000000,1.0220323,108.24928
4696000000,1.3999224,107.9659
4697000000,1.556712,107.89389
4698000000,1.080801,107.59504
4699000000,1.1123748,107.38372
4700000000,0.20882365,107.19743
4701000000,0.20189449,107.01077
4702000000,0.40151966,106.89863
4703000000,0.41574371,106.6162
4704000000,0.04358086,106.37356
4705000000,-0.75348884,106.26556
4706000000,-0.8474502,105.95577
4707000000,-0.95169133,105.86371
4708000000,-1.3986644,105.62451
4709000000,-2.1552708,105.2421
4710000000,-2.3961201,104.7403
4711000000,-1.836916,104.9649
4712000000,-2.1999671,104.68345
4713000000,-2.8016808,104.47358
4714000000,-2.627316,104.26178
4715000000,-3.7212029,104.04241
4716000000,-3.3836932,103.78082
4717000000,-3.3994305,103.66441
4718000000,-4.396625,103.36257
4719000000,-4.0130062,102.9772
4720000000,-4.0265985,103.00433
4721000000,-4.4188881,102.68211
4722000000,-5.1864805,102.52869
4723000000,-4.7917514,102.55909
4724000000,-5.3730435,102.20175
4725000000,-5.4750996,101.91547
4726000000,-6.1497307,101.80975
4727000000,-5.494863,101.69792
4728000000,-6.856926,101.41931
4729000000,-7.1264353,101.17196
4730000000,-6.6044168,100.86072
4731000000,-6.8569818,100.84708
4732000000,-7.2362723,100.62123
4733000000,-7.6865797,100.23332
4734000000,-7.6482162,100.2322
4735000000,-7.9296608,99.971886
4736000000,-8.4209566,99.746803
4737000000,-8.2702875,99.511505
4738000000,-8.475646,99.289642
4739000000,-9.993701,99.096184
4740000000,-9.0634956,98.922279
4741000000,-9.8592062,98.576683
4742000000,-9.3096666,98.655991
4743000000,-10.701074,98.123787
4744000000,-11.46991,97.951324
4745000000,-12.028054,97.726585
4746000000,-11.254986,97.544357
4747000000,-11.344492,97.353142
4748000000,-12.007916,97.14386
4749000000,-11.382547,96.982079
4750000000,-13.140848,96.612984
4751000000,-12.745778,96.402
4752000000,-12.397385,96.341782
4753000000,-11.982089,96.209183
4754000000,-13.042818,95.917084
4755000000,-13.459203,95.606163
4756000000,-13.87474,95.342415
4757000000,-13.673483,95.283073
4758000000,-14.716671,94.915749
4759000000,-14.764881,94.822777
4760000000,-15.109029,94.652824
4761000000,-14.729338,94.31456
4762000000,-16.16791,94.233551
4763000000,-15.696142,93.932213
4764000000,-17.289707,93.842812
4765000000,-16.494032,93.47261
4766000000,-16.240343,93.313911
4767000000,-16.896326,93.056236
4768000000,-17.035009,92.923828
4769000000,-17.291235,92.713455
4770000000,-17.660368,92.526184
4771000000,-18.362501,92.323471
4772000000,-18.483051,92.346901
4773000000,-19.111099,91.747704
4774000000,-18.705505,91.675858
4775000000,-19.765684,91.564903
4776000000,-19.631334,91.266861
4777000000,-19.826426,91.065544
4778000000,-20.391926,90.827805
4779000000,-20.448473,90.647522
4780000000,-21.106861,90.312294
4781000000,-22.102694,90.184456
4782000000,-21.840004,89.868027
4783000000,-21.030144,89.656487
4784000000,-22.085863,89.486351
4785000000,-21.504486,89.308495
4786000000,-22.919619,89.110146
4787000000,-22.944078,89.014191
4788000000,-23.60247,88.865807
4789000000,-24.608229,88.363213
4790000000,-25.134161,88.149033
4791000000,-25.70853,88.083504
4792000000,-25.670109,87.788239
4793000000,-25.92791,87.623901
4794000000,-25.019562,87.387268
4795000000,-26.342438,87.199142
4796000000,-24.821501,86.951324
4797000000,-26.966787,86.881859
4798000000,-28.499882,86.574463
4799000000,-27.666185,86.368523
4800000000,-28.269447,86.214325
4801000000,-27.309105,85.942902
4802000000,-29.081156,85.763229
4803000000,-30.740335,85.567139
4804000000,-30.282368,85.210869
4805000000,-31.162643,85.108353
4806000000,-31.646278,84.889229
4807000000,-31.332308,84.709251
4808000000,-30.848806,84.457916
4809000000,-34.161415,84.352821
4810000000,-34.440022,83.949066
4811000000,-33.32428,83.797028
4812000000,-34.40509,83.54847
4813000000,-33.121784,83.510582
4814000000,-35.750992,83.30825
4815000000,-37.538265,82.977654
4816000000,-32.302872,82.912201
4817000000,-35.198231,82.52623
4818000000,-38.59972,82.35405
4819000000,-36.064335,82.12735
4820000000,-37.781181,81.818321
4821000000,-40.362877,81.747742
4822000000,-40.090763,81.492126
4823000000,-42.52726,81.350937
4824000000,-41.115437,80.976089
4825000000,-41.393738,80.959755
4826000000,-45.500401,80.809128
4827000000,-43.955135,80.499588
4828000000,-45.157738,80.184479
4829000000,-48.775581,80.144638
4830000000,-47.534077,79.94973
4831000000,-45.719101,79.492287
4832000000,-51.577076,79.369057
4833000000,-53.215046,79.131966
4834000000,-58.28299,79.010597
4835000000,-54.646782,78.762367
4836000000,-59.432831,78.727432
4837000000,-51.101994,78.306625
4838000000,-58.415474,78.064873
4839000000,-55.397316,77.994576
4840000000,-64.081551,77.818703
4841000000,-63.209877,77.449387
4842000000,-60.423595,77.181953
4843000000,-76.943718,77.12912
4844000000,-67.996178,76.95491
4845000000,-70.199936,76.679207
4846000000,-85.630707,76.430237
4847000000,-80.313438,76.203087
4848000000,-80.415268,76.022316
4849000000,-97.570313,75.89621
4850000000,-100.98476,75.68557
4851000000,-111.98081,75.510391
4852000000,-108.57666,75.062813
4853000000,-124.07845,75.146286
4854000000,-117.4678,74.825218
4855000000,-135.13142,74.634033
4856000000,-149.53723,74.424049
4857000000,-147.7001,74.221413
4858000000,-146.41678,73.961685
4859000000,-151.59578,73.880112
4860000000,-159.71318,73.605164
4861000000,-165.30002,73.273453
4862000000,-171.9119,73.016258
4863000000,-165.5825,72.958702
4864000000,-175.15318,72.671883
4865000000,-172.67929,72.492943
4866000000,171.67509,72.422417
4867000000,179.96558,71.954079
4868000000,175.24066,71.996651
4869000000,176.74008,71.596596
4870000000,173.11899,71.436394
4871000000,176.24429,71.176308
4872000000,175.29167,71.03669
4873000000,174.19901,70.745613
4874000000,169.30586,70.631508
4875000000,168.14655,70.518509
4876000000,168.81691,70.320114
4877000000,164.99042,70.118065
4878000000,167.577,69.750565
4879000000,166.57681,69.641922
4880000000,161.47456,69.412384
4881000000,162.8894,69.137535
4882000000,162.45857,68.9841
4883000000,159.6974,68.773254
4884000000,161.99199,68.586548
4885000000,161.82271,68.230156
4886000000,162.45164,68.125359
4887000000,156.91187,67.958153
4888000000,156.9856,67.818771
4889000000,157.65625,67.487823
4890000000,155.65543,67.237404
4891000000,156.10374,67.202255
4892000000,157.70348,66.737793
4893000000,155.31104,66.671318
4894000000,154.66713,66.506882
4895000000,155.10774,66.445503
4896000000,156.45793,65.949585
4897000000,151.29509,65.717674
4898000000,152.53171,65.658707
4899000000,151.94008,65.365067
4900000000,152.28397,65.149689
4901000000,149.92075,65.165985
4902000000,151.16737,64.822731
4903000000,151.58165,64.815674
4904000000,149.56812,64.551117
4905000000,149.67957,64.225677
4906000000,150.74452,63.935455
4907000000,147.96063,63.873764
4908000000,149.34546,63.618618
4909000000,150.62294,63.490974
4910000000,148.29558,63.261829
4911000000,148.74065,63.038795
4912000000,147.88188,62.757488
4913000000,148.41179,62.501492
4914000000,146.51833,62.335442
4915000000,146.36693,62.152988
4916000000,146.37257,62.020222
4917000000,147.28642,61.834904
4918000000,146.38797,61.54945
4919000000,145.0891,61.357822
4920000000,145.1581,61.228699
4921000000,146.21361,60.848297
4922000000,144.52325,60.72377
4923000000,144.50328,60.523811
4924000000,144.06413,60.239292
4925000000,144.02672,60.195927
4926000000,142.67416,59.772255
4927000000,142.3273,59.617954
4928000000,143.65108,59.408813
4929000000,142.89194,59.233715
4930000000,142.1748,59.040291
4931000000,142.21071,59.02573
4932000000,141.21938,58.791359
4933000000,140.80429,58.427555
4934000000,140.90062,58.256493
4935000000,140.76471,58.143623
4936000000,139.6003,57.986736
4937000000,141.07207,57.609844
4938000000,139.98293,57.356827
4939000000,139.93217,57.426399
4940000000,139.65451,57.065956
4941000000,139.92223,56.898472
4942000000,139.32567,56.586754
4943000000,138.47446,56.460594
4944000000,138.79453,56.217129
4945000000,138.25734,56.040142
4946000000,138.51868,55.927856
4947000000,139.05811,55.598854
4948000000,138.31786,55.501011
4949000000,137.1987,55.313332
4950000000,137.17146,55.039017
4951000000,136.66396,54.954533
4952000000,137.36497,54.713127
4953000000,136.60968,54.303219
4954000000,136.54402,54.272896
4955000000,136.46622,53.87466
4956000000,135.70824,53.81004
4957000000,135.81885,53.675323
4958000000,135.91496,53.456707
4959000000,133.93634,53.149857
4960000000,134.37762,53.046875
4961000000,134.44398,52.801754
4962000000,135.03351,52.724869
4963000000,133.60043,52.417332
4964000000,135.00432,52.310268
4965000000,133.65135,52.085743
4966000000,133.41254,51.910362
4967000000,133.226,51.736214
4968000000,133.49052,51.459915
4969000000,133.98311,51.277054
4970000000,133.39977,51.10751
4971000000,132.19684,50.799667
4972000000,132.50426,50.719288
4973000000,132.35222,50.555458
4974000000,131.53723,50.206203
4975000000,131.66843,50.060333
4976000000,130.92117,49.881748
4977000000,131.66614,49.522999
4978000000,131.34718,49.595814
4979000000,130.01874,49.229321
4980000000,130.20303,49.087116
4981000000,130.21991,48.754971
4982000000,130.1778,48.645069
4983000000,129.19617,48.412075
4984000000,130.48462,48.049652
4985000000,130.45625,48.133282
4986000000,129.34921,47.73241
4987000000,128.7813,47.701687
4988000000,129.31706,47.529049
4989000000,128.29778,47.308754
4990000000,129.54266,46.914063
4991000000,128.36935,46.767872
4992000000,127.65654,46.571651
4993000000,127.54805,46.411793
4994000000,127.71073,46.30695
4995000000,128.31419,46.007664
4996000000,127.39771,45.698181
4997000000,127.18658,45.710922
4998000000,126.80242,45.439629
4999000000,126.46413,45.024025
5000000000,127.2173,45.096527
END

