Freq(Hz),S11 Phase(°),S21 Phase(°)
1000000000,-120.90547,-179.87837
1001000000,-121.14428,179.92488
1002000000,-121.07775,179.97343
1003000000,-121.45554,179.53439
1004000000,-121.47666,179.36752
1005000000,-121.45616,179.16063
1006000000,-121.28184,179.16953
1007000000,-121.40199,178.99644
1008000000,-121.53128,178.80034
1009000000,-121.61343,178.54044
1010000000,-121.81996,178.42256
1011000000,-121.94777,178.07535
1012000000,-121.97371,177.91167
1013000000,-122.2495,177.59842
1014000000,-122.16091,177.56766
1015000000,-122.1498,177.42621
1016000000,-122.38679,177.05353
1017000000,-122.3591,176.87263
1018000000,-122.69698,176.71217
1019000000,-122.64562,176.65518
1020000000,-122.65386,176.56422
1021000000,-122.64289,176.3956
1022000000,-123.0837,175.97597
1023000000,-123.10712,175.89766
1024000000,-123.10232,175.77371
1025000000,-123.06248,175.41861
1026000000,-123.15864,175.50955
1027000000,-123.28671,175.16328
1028000000,-123.40794,174.86807
1029000000,-123.64088,174.66139
1030000000,-123.69474,174.73071
1031000000,-123.98948,174.27632
1032000000,-123.6711,174.27519
1033000000,-123.81702,174.0639
1034000000,-123.95138,173.83298
1035000000,-124.06995,173.60692
1036000000,-124.10352,173.51366
1037000000,-124.00593,173.48564
1038000000,-124.24584,173.2914
1039000000,-124.4553,172.85756
1040000000,-124.66371,172.66331
1041000000,-124.77239,172.54631
1042000000,-124.97006,172.339
1043000000,-124.98674,172.03287
1044000000,-124.97961,172.08336
1045000000,-125.12416,171.67108
1046000000,-125.42362,171.47266
1047000000,-125.81829,171.11604
1048000000,-125.54068,171.23532
1049000000,-125.60978,171.00655
1050000000,-125.73854,170.94063
1051000000,-126.18661,170.47351
1052000000,-126.20172,170.46753
1053000000,-126.04851,170.18207
1054000000,-126.19054,170.23529
1055000000,-126.38367,169.95215
1056000000,-126.55942,169.6244
1057000000,-126.75405,169.48672
1058000000,-126.69191,169.17482
1059000000,-126.95308,169.09105
1060000000,-126.93441,168.94162
1061000000,-127.00539,168.8239
1062000000,-127.09896,168.58191
1063000000,-127.37891,168.30312
1064000000,-127.50418,168.18225
1065000000,-127.53876,168.04169
1066000000,-127.579,167.90672
1067000000,-127.55044,167.62372
1068000000,-127.58053,167.60005
1069000000,-128.18382,167.0994
1070000000,-127.98721,167.09738
1071000000,-128.07268,166.95753
1072000000,-128.08437,166.86299
1073000000,-128.46034,166.39777
1074000000,-128.42584,166.433
1075000000,-128.45918,166.10992
1076000000,-128.83722,166.04942
1077000000,-128.57826,165.96432
1078000000,-128.85304,165.68924
1079000000,-129.43346,165.27731
1080000000,-129.49879,165.05341
1081000000,-129.41496,164.90131
1082000000,-129.68242,164.85442
1083000000,-129.78545,164.67448
1084000000,-129.75275,164.52832
1085000000,-129.84529,164.46564
1086000000,-129.95862,164.24004
1087000000,-130.06033,164.09373
1088000000,-130.3611,163.70662
1089000000,-130.30843,163.76187
1090000000,-130.60812,163.33771
1091000000,-130.62849,163.20184
1092000000,-130.614,163.0338
1093000000,-130.95644,162.83296
1094000000,-131.18831,162.76692
1095000000,-131.29199,162.41357
1096000000,-131.37607,162.23032
1097000000,-131.48572,162.08333
1098000000,-132.08934,161.58388
1099000000,-131.69948,161.80473
1100000000,-131.81853,161.57468
1101000000,-131.80508,161.38025
1102000000,-132.07469,161.28613
1103000000,-132.26627,160.89452
1104000000,-132.40059,160.87103
1105000000,-132.5358,160.56938
1106000000,-132.66875,160.37552
1107000000,-132.87694,160.29593
1108000000,-133.00682,160.02371
1109000000,-133.21407,159.75604
1110000000,-133.16855,159.68365
1111000000,-133.38641,159.34589
1112000000,-133.67397,159.28903
1113000000,-133.70615,159.02191
1114000000,-134.03577,158.67656
1115000000,-134.02583,158.58397
1116000000,-134.14034,158.42879
1117000000,-134.15825,158.14145
1118000000,-134.32019,158.21588
1119000000,-134.45943,157.95844
1120000000,-134.63179,157.70634
1121000000,-134.77626,157.49863
1122000000,-134.76843,157.40309
1123000000,-135.07828,157.22581
1124000000,-135.04875,157.12561
1125000000,-135.33047,156.85617
1126000000,-135.34579,156.70801
1127000000,-135.48088,156.62575
1128000000,-135.64116,156.28201
1129000000,-135.7962,156.0097
1130000000,-136.27652,155.7397
1131000000,-135.93629,155.68893
1132000000,-136.61162,155.35905
1133000000,-136.41354,155.29112
1134000000,-136.64815,155.0043
1135000000,-136.63498,155.03398
1136000000,-136.86703,154.75763
1137000000,-136.8791,154.62317
1138000000,-137.15747,154.28697
1139000000,-137.43729,154.2576
1140000000,-137.48077,153.94008
1141000000,-137.91185,153.67487
1142000000,-137.39445,153.62798
1143000000,-137.94456,153.29196
1144000000,-138.08353,153.28972
1145000000,-138.04092,153.02504
1146000000,-138.44237,152.78656
1147000000,-138.20401,152.63573
1148000000,-138.46104,152.51686
1149000000,-138.79335,152.19414
1150000000,-138.68439,152.11897
1151000000,-138.89841,151.83446
1152000000,-139.22545,151.78946
1153000000,-139.14612,151.64388
1154000000,-139.24652,151.35104
1155000000,-139.71182,151.0667
1156000000,-139.4653,151.062
1157000000,-139.70999,150.7789
1158000000,-139.88815,150.58981
1159000000,-140.07466,150.51051
1160000000,-140.00426,150.30934
1161000000,-140.04327,150.08417
1162000000,-140.35289,149.966
1163000000,-140.34067,149.70764
1164000000,-140.57109,149.50638
1165000000,-140.87679,149.17401
1166000000,-140.84145,149.11066
1167000000,-140.96799,148.90117
1168000000,-141.34195,148.65202
1169000000,-141.33084,148.68456
1170000000,-141.41147,148.38626
1171000000,-141.58951,148.18358
1172000000,-141.75627,148.04515
1173000000,-141.64012,147.97215
1174000000,-142.24425,147.61412
1175000000,-142.22469,147.45824
1176000000,-142.20486,147.23274
1177000000,-142.21284,146.99573
1178000000,-142.37344,146.99872
1179000000,-142.56802,146.73203
1180000000,-142.65166,146.63261
1181000000,-142.74223,146.60335
1182000000,-143.25275,146.19011
1183000000,-143.07025,146.05022
1184000000,-143.51515,145.96706
1185000000,-143.68507,145.49507
1186000000,-143.54012,145.53194
1187000000,-144.04138,145.20071
1188000000,-144.11058,144.96332
1189000000,-143.95157,144.77005
1190000000,-144.19899,144.54428
1191000000,-144.33453,144.40135
1192000000,-144.52722,144.22917
1193000000,-144.38655,144.10033
1194000000,-144.82109,143.72511
1195000000,-144.60519,143.71797
1196000000,-144.94963,143.5051
1197000000,-145.17726,143.38954
1198000000,-145.18559,143.34242
1199000000,-145.28104,142.91318
1200000000,-145.42786,142.88008
1201000000,-145.62471,142.46498
1202000000,-145.68745,142.40782
1203000000,-145.78993,142.22812
1204000000,-145.90347,142.08853
1205000000,-146.32306,141.69405
1206000000,-146.16862,141.83044
1207000000,-146.66762,141.33678
1208000000,-146.3584,141.34157
1209000000,-146.8376,141.19475
1210000000,-146.73242,140.86322
1211000000,-147.04378,140.78769
1212000000,-147.16684,140.50365
1213000000,-147.26947,140.30656
1214000000,-147.45265,140.03291
1215000000,-147.23553,140.12393
1216000000,-147.53436,139.74677
1217000000,-147.96069,139.41275
1218000000,-147.97089,139.40347
1219000000,-148.11061,139.32069
1220000000,-148.19475,139.16626
1221000000,-148.43806,138.68358
1222000000,-148.51918,138.59752
1223000000,-148.64635,138.46959
1224000000,-148.88066,138.15672
1225000000,-149.04611,137.91699
1226000000,-148.89629,137.88246
1227000000,-149.03574,137.68214
1228000000,-149.31248,137.48122
1229000000,-149.27672,137.40932
1230000000,-149.61479,136.94417
1231000000,-149.6057,136.97626
1232000000,-149.76643,136.77544
1233000000,-150.0585,136.43327
1234000000,-150.19525,136.11916
1235000000,-150.35989,136.35947
1236000000,-150.4169,135.87485
1237000000,-150.25066,135.86719
1238000000,-150.71959,135.59369
1239000000,-150.64989,135.39989
1240000000,-151.13765,135.06293
1241000000,-151.20773,134.93843
1242000000,-151.27536,134.6837
1243000000,-151.28151,134.67557
1244000000,-151.57542,134.30586
1245000000,-151.68095,134.16505
1246000000,-151.73065,134.08749
1247000000,-151.74799,133.79312
1248000000,-151.80998,133.75838
1249000000,-152.00708,133.67337
1250000000,-152.12024,133.49643
1251000000,-152.62619,133.16582
1252000000,-152.56068,132.99484
1253000000,-152.8465,132.69841
1254000000,-152.78366,132.71634
1255000000,-153.08479,132.5351
1256000000,-153.26474,132.21584
1257000000,-153.30518,132.12743
1258000000,-153.30664,131.82768
1259000000,-154.07613,131.63371
1260000000,-153.98032,131.27312
1261000000,-153.77663,131.25845
1262000000,-154.28217,130.98932
1263000000,-153.81677,131.05605
1264000000,-154.39171,130.58073
1265000000,-154.32346,130.53191
1266000000,-154.56923,130.40816
1267000000,-154.978,129.95761
1268000000,-154.71089,129.97678
1269000000,-155.06146,129.7281
1270000000,-155.1463,129.49948
1271000000,-155.03357,129.43956
1272000000,-155.2775,129.14418
1273000000,-155.36975,129.02687
1274000000,-155.58275,128.72133
1275000000,-155.73225,128.39874
1276000000,-155.89537,128.24875
1277000000,-156.06802,128.07039
1278000000,-156.17043,127.90038
1279000000,-156.15421,127.7402
1280000000,-155.89577,127.61897
1281000000,-156.63271,127.3336
1282000000,-156.46832,127.47815
1283000000,-156.82486,126.96301
1284000000,-156.69707,126.89542
1285000000,-157.07729,126.35896
1286000000,-157.09097,126.45938
1287000000,-157.40141,126.16276
1288000000,-157.58705,125.93656
1289000000,-157.62778,125.74194
1290000000,-157.74069,125.68073
1291000000,-157.71777,125.51521
1292000000,-158.19202,125.17548
1293000000,-158.03001,125.08455
1294000000,-157.94998,124.85679
1295000000,-158.08281,124.77697
1296000000,-158.38141,124.43502
1297000000,-157.8429,124.20767
1298000000,-158.36545,124.28837
1299000000,-158.8307,123.84331
1300000000,-158.70419,123.69866
1301000000,-158.88403,123.55602
1302000000,-159.10417,123.50564
1303000000,-159.17284,123.22887
1304000000,-159.36209,122.97344
1305000000,-158.88338,122.94099
1306000000,-159.76323,122.53159
1307000000,-159.69009,122.4327
1308000000,-159.53903,122.17549
1309000000,-159.74339,121.99847
1310000000,-159.59972,121.89598
1311000000,-159.86972,121.49034
1312000000,-160.04161,121.4726
1313000000,-159.92052,121.38393
1314000000,-160.15128,121.11803
1315000000,-160.66751,120.95621
1316000000,-160.3038,120.60635
1317000000,-160.43712,120.65663
1318000000,-160.52,120.26978
1319000000,-160.86589,120.04696
1320000000,-161.0631,119.88649
1321000000,-161.38412,119.56405
1322000000,-161.11679,119.52136
1323000000,-161.57828,119.23186
1324000000,-161.40042,119.11186
1325000000,-161.6709,118.80288
1326000000,-161.69054,118.69296
1327000000,-162.0799,118.53565
1328000000,-161.85771,118.30611
1329000000,-161.77394,118.18412
1330000000,-162.16985,117.99403
1331000000,-162.25589,117.69672
1332000000,-162.01688,117.63713
1333000000,-162.32072,117.33384
1334000000,-162.84106,117.14119
1335000000,-162.78558,116.83757
1336000000,-162.78882,116.85841
1337000000,-162.75952,116.49449
1338000000,-162.74779,116.44419
1339000000,-163.04018,116.12057
1340000000,-163.14769,115.82227
1341000000,-163.2005,115.64801
1342000000,-163.37354,115.37122
1343000000,-163.4458,115.2953
1344000000,-163.2171,115.24118
1345000000,-163.36346,115.05597
1346000000,-163.83083,114.63436
1347000000,-163.51463,114.78044
1348000000,-163.94171,114.43914
1349000000,-163.85513,114.20413
1350000000,-163.73547,114.07972
1351000000,-164.11729,113.78848
1352000000,-164.35997,113.44532
1353000000,-164.07672,113.43849
1354000000,-164.30212,113.23725
1355000000,-164.32256,113.08842
1356000000,-164.47418,112.84077
1357000000,-164.20226,112.73988
1358000000,-164.42841,112.44608
1359000000,-164.67258,112.1703
1360000000,-164.72906,112.01526
1361000000,-164.55853,111.7528
1362000000,-164.79846,111.61028
1363000000,-164.70911,111.65754
1364000000,-165.20416,111.19721
1365000000,-164.5946,111.09904
1366000000,-165.26094,110.81399
1367000000,-165.10728,110.77891
1368000000,-165.64958,110.28096
1369000000,-165.30043,110.19031
1370000000,-165.11557,109.94752
1371000000,-165.22446,109.98423
1372000000,-165.46062,109.79315
1373000000,-166.0307,109.33484
1374000000,-165.51079,109.27385
1375000000,-165.23119,109.25451
1376000000,-165.48865,108.96708
1377000000,-166.12402,108.7673
1378000000,-165.9825,108.54849
1379000000,-165.89598,108.22463
1380000000,-165.5907,108.35438
1381000000,-165.96251,107.8884
1382000000,-166.32965,107.74919
1383000000,-166.75691,107.45868
1384000000,-166.31778,107.30884
1385000000,-166.28246,107.18809
1386000000,-166.62083,106.93351
1387000000,-166.32809,106.56371
1388000000,-166.81998,106.39838
1389000000,-166.78247,106.30737
1390000000,-165.95364,106.03464
1391000000,-166.60185,105.69727
1392000000,-166.56523,105.6267
1393000000,-166.77197,105.30707
1394000000,-166.50075,105.33617
1395000000,-166.35823,105.01291
1396000000,-166.65932,104.99119
1397000000,-166.58791,104.62316
1398000000,-166.67564,104.45398
1399000000,-166.83421,104.12589
1400000000,-166.64856,104.04682
1401000000,-166.76006,103.95692
1402000000,-166.49146,103.66717
1403000000,-166.86053,103.55074
1404000000,-166.75502,103.36487
1405000000,-166.96704,103.01023
1406000000,-166.81914,103.02042
1407000000,-167.18433,102.56344
1408000000,-166.85609,102.43983
1409000000,-167.06604,102.09636
1410000000,-166.69296,102.20337
1411000000,-166.84514,101.77704
1412000000,-166.56187,101.64032
1413000000,-167.21852,101.4241
1414000000,-166.90166,101.23523
1415000000,-166.77541,100.99722
1416000000,-166.68037,100.88953
1417000000,-166.70898,100.64794
1418000000,-167.08777,100.47598
1419000000,-166.79172,100.17886
1420000000,-166.84438,99.912788
1421000000,-166.51677,99.826599
1422000000,-166.91412,99.707581
1423000000,-166.90419,99.415146
1424000000,-166.59698,99.34053
1425000000,-166.63684,99.101364
1426000000,-166.78175,98.898125
1427000000,-166.78227,98.711159
1428000000,-166.7222,98.381973
1429000000,-166.6131,98.434967
1430000000,-166.42697,97.905334
1431000000,-166.18015,97.883965
1432000000,-166.75854,97.60511
1433000000,-166.36081,97.320869
1434000000,-166.7086,97.066078
1435000000,-166.36584,96.906639
1436000000,-166.5578,96.574341
1437000000,-165.9675,96.752769
1438000000,-166.16609,96.410606
1439000000,-166.27026,96.243347
1440000000,-165.77306,95.990005
1441000000,-165.9243,95.653526
1442000000,-165.90942,95.56797
1443000000,-166.02191,95.27903
1444000000,-166.34435,95.092522
1445000000,-165.16286,95.025322
1446000000,-165.76833,94.738869
1447000000,-165.87317,94.417824
1448000000,-165.43301,94.281265
1449000000,-165.32884,94.22364
1450000000,-164.43187,94.020767
1451000000,-165.08241,93.6269
1452000000,-164.73555,93.503036
1453000000,-164.76563,93.441948
1454000000,-164.79242,93.190086
1455000000,-164.8149,92.826431
1456000000,-164.21854,92.738113
1457000000,-163.84666,92.583344
1458000000,-163.82535,92.303734
1459000000,-163.68021,91.968063
1460000000,-164.12666,91.75515
1461000000,-163.61057,91.435822
1462000000,-163.49767,91.31913
1463000000,-163.07925,91.163277
1464000000,-163.24954,91.056992
1465000000,-162.63474,90.822113
1466000000,-162.50386,90.734314
1467000000,-162.40111,90.431183
1468000000,-162.04224,90.306
1469000000,-161.95723,90.027206
1470000000,-162.27151,89.822548
1471000000,-162.24052,89.434654
1472000000,-161.85632,89.234848
1473000000,-161.4942,89.147209
1474000000,-161.48259,88.893364
1475000000,-161.2177,88.632584
1476000000,-161.05769,88.499893
1477000000,-160.4711,88.352875
1478000000,-159.41222,88.123993
1479000000,-159.63029,87.790276
1480000000,-159.96774,87.531815
1481000000,-159.19754,87.552338
1482000000,-159.15596,87.195755
1483000000,-159.09254,87.27195
1484000000,-158.25256,86.771683
1485000000,-158.63652,86.554176
1486000000,-158.13135,86.422272
1487000000,-157.85211,86.221031
1488000000,-157.74997,85.87011
1489000000,-157.33795,85.822166
1490000000,-157.48593,85.449196
1491000000,-156.78044,85.231758
1492000000,-156.33237,85.342117
1493000000,-155.79294,84.82814
1494000000,-155.37306,84.861076
1495000000,-155.43135,84.599861
1496000000,-154.97523,84.317001
1497000000,-154.79897,84.1446
1498000000,-154.50806,83.993263
1499000000,-153.35265,83.70401
1500000000,-153.57051,83.492584
1501000000,-153.01044,83.235199
1502000000,-152.40041,83.22863
1503000000,-152.2115,82.795883
1504000000,-152.37132,82.620956
1505000000,-151.57416,82.609543
1506000000,-151.42297,82.252037
1507000000,-151.11267,82.231895
1508000000,-150.90233,81.779549
1509000000,-149.88594,81.545464
1510000000,-149.92981,81.407707
1511000000,-149.38651,81.119354
1512000000,-148.8299,81.038315
1513000000,-148.02905,80.710793
1514000000,-148.19904,80.429604
1515000000,-147.37421,80.356026
1516000000,-146.57588,80.13343
1517000000,-146.78351,79.753677
1518000000,-145.78357,79.736618
1519000000,-145.60689,79.334335
1520000000,-144.80321,79.311188
1521000000,-143.54982,79.10157
1522000000,-144.15979,78.662659
1523000000,-143.32446,78.576042
1524000000,-142.7941,78.247139
1525000000,-142.21135,78.084572
1526000000,-141.75233,78.025414
1527000000,-140.93417,77.776062
1528000000,-141.14989,77.458542
1529000000,-139.65996,77.334969
1530000000,-139.8172,77.031624
1531000000,-139.22345,77.07682
1532000000,-138.81274,76.846901
1533000000,-138.91043,76.389236
1534000000,-137.83705,76.292343
1535000000,-137.07343,75.968124
1536000000,-136.38615,75.749924
1537000000,-136.49243,75.42955
1538000000,-135.88741,75.326561
1539000000,-134.55469,75.259926
1540000000,-134.77721,74.908684
1541000000,-134.11671,74.656715
1542000000,-133.97305,74.640892
1543000000,-133.23434,74.356483
1544000000,-132.701,74.033424
1545000000,-132.12436,73.735962
1546000000,-131.88658,73.746315
1547000000,-130.94962,73.462761
1548000000,-130.62947,73.165817
1549000000,-129.89662,73.002304
1550000000,-129.43358,72.898178
1551000000,-128.81482,72.535049
1552000000,-128.79961,72.299988
1553000000,-128.11617,72.168694
1554000000,-127.93473,71.941177
1555000000,-126.79772,71.753319
1556000000,-126.73805,71.646683
1557000000,-126.12663,71.454361
1558000000,-125.17834,71.108711
1559000000,-125.0865,70.770607
1560000000,-124.8805,70.546379
1561000000,-123.84507,70.40345
1562000000,-123.91373,70.066345
1563000000,-123.63203,69.891441
1564000000,-122.67738,69.910065
1565000000,-122.72195,69.402321
1566000000,-121.00757,69.328423
1567000000,-120.77773,69.058945
1568000000,-121.2044,68.778397
1569000000,-120.50774,68.625641
1570000000,-119.92062,68.391037
1571000000,-120.15206,68.183418
1572000000,-119.0713,68.023941
1573000000,-118.24554,67.932068
1574000000,-118.30343,67.632385
1575000000,-118.27934,67.248947
1576000000,-117.14915,67.18412
1577000000,-117.16441,67.001526
1578000000,-116.56648,66.571037
1579000000,-115.95491,66.537033
1580000000,-116.33006,66.114189
1581000000,-115.20631,66.263931
1582000000,-115.15344,65.760254
1583000000,-114.98857,65.557549
1584000000,-114.9135,65.295807
1585000000,-114.13544,65.169762
1586000000,-113.59055,65.025291
1587000000,-113.77858,64.721336
1588000000,-113.3447,64.318947
1589000000,-112.78075,64.179413
1590000000,-112.62332,64.257736
1591000000,-112.03179,63.854244
1592000000,-111.68668,63.723515
1593000000,-111.72592,63.376587
1594000000,-111.11238,63.217609
1595000000,-111.03957,62.924538
1596000000,-110.87885,62.822475
1597000000,-110.65617,62.62949
1598000000,-110.46514,62.319637
1599000000,-109.77076,62.171101
1600000000,-109.42508,62.057953
1601000000,-109.21799,61.576771
1602000000,-109.15028,61.427956
1603000000,-108.90489,61.180115
1604000000,-108.5182,61.01059
1605000000,-107.86758,60.696865
1606000000,-108.29039,60.559639
1607000000,-108.19212,60.335461
1608000000,-107.67809,60.162003
1609000000,-107.84026,59.845005
1610000000,-107.3018,59.41256
1611000000,-106.83223,59.441566
1612000000,-106.59986,59.243374
1613000000,-106.84565,59.052608
1614000000,-106.78117,58.607265
1615000000,-106.34119,58.463375
1616000000,-106.29811,58.414314
1617000000,-106.16169,58.117741
1618000000,-105.67529,57.975254
1619000000,-105.23231,57.810593
1620000000,-105.55099,57.411633
1621000000,-105.64814,57.024662
1622000000,-105.19817,56.881844
1623000000,-105.25821,56.596836
1624000000,-104.41971,56.551117
1625000000,-105.02721,56.285072
1626000000,-104.46175,56.17667
1627000000,-104.65617,55.765026
1628000000,-104.21369,55.721127
1629000000,-104.4631,55.344658
1630000000,-104.03896,55.280415
1631000000,-103.96664,54.787193
1632000000,-104.36707,54.789387
1633000000,-103.85835,54.652313
1634000000,-103.80789,54.326958
1635000000,-104.0217,54.069824
1636000000,-103.54261,53.89019
1637000000,-103.2418,53.716599
1638000000,-103.68824,53.334393
1639000000,-103.17282,53.234035
1640000000,-103.12136,53.027977
1641000000,-103.65425,52.528931
1642000000,-102.89868,52.634544
1643000000,-103.25961,52.294655
1644000000,-102.9249,52.129631
1645000000,-103.01021,51.752781
1646000000,-103.1017,51.638653
1647000000,-102.70306,51.393059
1648000000,-102.86851,51.226662
1649000000,-102.97084,50.889618
1650000000,-102.79895,50.770164
1651000000,-102.83414,50.523762
1652000000,-102.80266,50.232983
1653000000,-102.80071,50.065678
1654000000,-102.80747,49.870403
1655000000,-102.82514,49.501804
1656000000,-102.79164,49.210842
1657000000,-102.76131,49.165565
1658000000,-102.51167,48.956032
1659000000,-102.47983,48.814919
1660000000,-102.47839,48.421036
1661000000,-102.76711,48.133274
1662000000,-102.6397,48.038406
1663000000,-102.65948,47.724945
1664000000,-102.51795,47.703369
1665000000,-102.43787,47.361576
1666000000,-102.53912,47.136612
1667000000,-102.51465,46.88681
1668000000,-102.57128,46.683376
1669000000,-102.86513,46.290226
1670000000,-102.62693,46.260746
1671000000,-102.77213,45.977585
1672000000,-102.58066,45.835823
1673000000,-102.45416,45.599487
1674000000,-102.60316,45.465443
1675000000,-102.8171,44.959404
1676000000,-102.99059,44.826283
1677000000,-102.9183,44.741547
1678000000,-103.05345,44.388348
1679000000,-102.95477,44.194332
1680000000,-102.92334,43.711403
1681000000,-102.93737,43.751602
1682000000,-103.3912,43.380905
1683000000,-103.3688,43.185017
1684000000,-102.88406,43.089275
1685000000,-103.5648,42.805054
1686000000,-103.41557,42.613579
1687000000,-103.26952,42.493713
1688000000,-103.64336,42.055458
1689000000,-103.65942,41.798557
1690000000,-103.56569,41.743183
1691000000,-103.78031,41.376827
1692000000,-103.74957,41.17337
1693000000,-103.68114,40.950279
1694000000,-103.83633,40.636257
1695000000,-104.13531,40.343796
1696000000,-103.96821,40.223633
1697000000,-103.82494,40.100475
1698000000,-104.19447,39.676167
1699000000,-104.28343,39.556404
1700000000,-104.03487,39.379803
1701000000,-104.38852,39.083321
1702000000,-104.46565,38.968472
1703000000,-104.45572,38.604839
1704000000,-104.64285,38.306622
1705000000,-104.61172,38.249157
1706000000,-104.63634,37.983089
1707000000,-104.82926,37.681767
1708000000,-104.9021,37.441429
1709000000,-104.98421,37.351559
1710000000,-104.8378,37.241531
1711000000,-104.85539,36.955475
1712000000,-105.06326,36.709618
1713000000,-105.45545,36.249084
1714000000,-105.27566,36.232582
1715000000,-105.46307,35.979942
1716000000,-105.65689,35.669167
1717000000,-105.80183,35.49371
1718000000,-105.69973,35.34708
1719000000,-105.68362,35.121414
1720000000,-106.02682,34.723648
1721000000,-106.03357,34.629269
1722000000,-106.37814,34.208076
1723000000,-106.27457,34.191814
1724000000,-106.33579,33.944946
1725000000,-106.28893,33.729359
1726000000,-106.69359,33.306923
1727000000,-106.7807,33.188034
1728000000,-106.68954,33.044498
1729000000,-106.98595,32.664902
1730000000,-107.17276,32.50404
1731000000,-107.16243,32.338696
1732000000,-107.45816,31.959549
1733000000,-107.48868,31.957939
1734000000,-107.44708,31.688271
1735000000,-107.63509,31.349649
1736000000,-107.87302,31.138218
1737000000,-108.14326,30.76808
1738000000,-108.08685,30.814375
1739000000,-108.18943,30.488325
1740000000,-108.33697,30.153896
1741000000,-108.51113,30.026264
1742000000,-108.39437,29.637299
1743000000,-108.64358,29.56444
1744000000,-108.6774,29.325321
1745000000,-108.89243,29.082603
1746000000,-109.01695,28.82008
1747000000,-109.0077,28.649887
1748000000,-109.2314,28.389809
1749000000,-109.17197,28.182451
1750000000,-109.49547,28.036438
1751000000,-109.81623,27.78248
1752000000,-109.54741,27.517017
1753000000,-109.94631,27.29497
1754000000,-109.86795,26.931463
1755000000,-109.87496,26.894878
1756000000,-110.22289,26.534662
1757000000,-110.5158,26.243095
1758000000,-110.49628,26.033863
1759000000,-110.59333,26.052481
1760000000,-110.78836,25.749287
1761000000,-110.62724,25.583918
1762000000,-111.1147,25.340343
1763000000,-111.09251,25.050974
1764000000,-110.96015,24.963188
1765000000,-111.36768,24.623602
1766000000,-111.41542,24.374752
1767000000,-111.94099,23.94179
1768000000,-111.88445,23.850567
1769000000,-111.87145,23.698019
1770000000,-112.15598,23.536789
1771000000,-112.22663,23.248627
1772000000,-112.21072,22.985895
1773000000,-112.3213,22.937061
1774000000,-112.58549,22.542343
1775000000,-112.53309,22.598951
1776000000,-112.76634,22.053322
1777000000,-113.1549,21.756411
1778000000,-113.23945,21.502138
1779000000,-113.41846,21.50503
1780000000,-113.32181,21.224792
1781000000,-113.60977,21.032806
1782000000,-113.98355,20.456163
1783000000,-113.87562,20.49085
1784000000,-114.14272,20.23208
1785000000,-113.97613,20.085945
1786000000,-114.45741,19.773481
1787000000,-114.62491,19.550098
1788000000,-114.64966,19.450651
1789000000,-114.79857,19.180744
1790000000,-115.11425,18.770023
1791000000,-114.91758,18.670937
1792000000,-115.26007,18.41662
1793000000,-115.64977,18.144188
1794000000,-115.47287,18.066706
1795000000,-115.7018,17.519411
1796000000,-115.68958,17.609482
1797000000,-116.16648,17.274977
1798000000,-116.13576,17.126127
1799000000,-116.49575,16.736414
1800000000,-116.28434,16.703094
1801000000,-116.53419,16.565653
1802000000,-116.85207,16.056894
1803000000,-116.99043,15.850711
1804000000,-117.25438,15.589692
1805000000,-117.00255,15.609296
1806000000,-117.31635,15.22082
1807000000,-117.55205,14.934831
1808000000,-117.84345,14.646461
1809000000,-117.75143,14.408829
1810000000,-117.91512,14.455735
1811000000,-118.00503,14.181061
1812000000,-118.31307,13.859644
1813000000,-118.56715,13.648301
1814000000,-118.65591,13.52575
1815000000,-119.00046,13.232498
1816000000,-119.02392,12.977346
1817000000,-119.11167,12.926178
1818000000,-119.1338,12.624071
1819000000,-119.45222,12.265063
1820000000,-119.54517,12.101782
1821000000,-119.79999,11.808247
1822000000,-119.91307,11.672415
1823000000,-120.04893,11.389947
1824000000,-120.28197,11.119913
1825000000,-120.38247,10.788077
1826000000,-120.2644,10.870708
1827000000,-120.57204,10.655236
1828000000,-120.97109,10.048753
1829000000,-120.90763,10.116109
1830000000,-121.25964,9.6330767
1831000000,-121.42201,9.5565557
1832000000,-121.61278,9.2417383
1833000000,-121.5974,9.2074938
1834000000,-121.71175,9.097043
1835000000,-122.11806,8.5186567
1836000000,-122.24096,8.3970509
1837000000,-122.24666,8.1572332
1838000000,-122.30265,8.1613855
1839000000,-122.64244,7.8115201
1840000000,-122.89725,7.5328059
1841000000,-123.01913,7.2598114
1842000000,-123.00884,7.0742898
1843000000,-123.22738,6.9245248
1844000000,-123.46657,6.577229
1845000000,-123.67667,6.3464537
1846000000,-123.63047,6.3537464
1847000000,-124.2113,5.8469324
1848000000,-124.04151,5.8321815
1849000000,-124.33504,5.5589495
1850000000,-124.36888,5.2871895
1851000000,-124.56716,5.0938239
1852000000,-124.75854,4.8793125
1853000000,-124.94654,4.5489364
1854000000,-124.96379,4.5873761
1855000000,-125.1848,4.1373801
1856000000,-125.36578,3.8492215
1857000000,-125.40819,3.8660762
1858000000,-125.77757,3.6366997
1859000000,-125.66595,3.5478985
1860000000,-125.97237,3.1731331
1861000000,-126.13686,2.903223
1862000000,-126.26072,2.7186513
1863000000,-126.54948,2.3903651
1864000000,-126.62082,2.2113514
1865000000,-126.79746,1.9813731
1866000000,-127.12914,1.612967
1867000000,-126.9259,1.6498805
1868000000,-127.3675,1.265115
1869000000,-127.68356,0.89256352
1870000000,-127.63472,0.90912616
1871000000,-128.00154,0.52639508
1872000000,-128.07675,0.34947959
1873000000,-128.15404,0.2614812
1874000000,-128.31618,0.054003637
1875000000,-128.48763,-0.30965331
1876000000,-128.52142,-0.4784278
1877000000,-128.91664,-0.80533791
1878000000,-128.88887,-0.82117063
1879000000,-129.27206,-1.0694481
1880000000,-129.39449,-1.3792939
1881000000,-129.54221,-1.5693716
1882000000,-129.84169,-2.0340142
1883000000,-129.9326,-2.2088602
1884000000,-130.07491,-2.276412
1885000000,-130.14801,-2.5207388
1886000000,-130.31836,-2.7337675
1887000000,-130.64584,-3.1919563
1888000000,-130.87849,-3.3270376
1889000000,-130.89381,-3.4995518
1890000000,-130.93184,-3.6036711
1891000000,-131.34073,-3.8358078
1892000000,-131.54213,-4.0176754
1893000000,-131.56355,-4.3403225
1894000000,-131.73499,-4.5468016
1895000000,-131.69815,-4.603662
1896000000,-132.20995,-4.9350686
1897000000,-132.18796,-5.0924563
1898000000,-132.48991,-5.4698806
1899000000,-132.60281,-5.6019149
1900000000,-132.68684,-5.9529834
1901000000,-132.98895,-6.1448712
1902000000,-132.86496,-6.2246504
1903000000,-133.43318,-6.5719748
1904000000,-133.43573,-6.7988257
1905000000,-133.78773,-7.0049591
1906000000,-133.65182,-7.1553812
1907000000,-133.84013,-7.388803
1908000000,-134.20807,-7.6861887
1909000000,-134.40273,-7.8792448
1910000000,-134.39839,-8.0638018
1911000000,-134.71632,-8.3339539
1912000000,-134.61421,-8.4702578
1913000000,-134.75853,-8.6446924
1914000000,-135.03729,-8.9716854
1915000000,-135.40732,-9.2973909
1916000000,-135.53763,-9.4482336
1917000000,-135.79262,-9.7234278
1918000000,-135.80901,-9.8101368
1919000000,-135.93039,-10.001485
1920000000,-136.239,-10.323376
1921000000,-136.32112,-10.612032
1922000000,-136.33687,-10.845177
1923000000,-136.58476,-11.087337
1924000000,-136.62961,-11.078063
1925000000,-136.87152,-11.439632
1926000000,-137.01411,-11.532398
1927000000,-137.30832,-11.854706
1928000000,-137.57249,-12.142872
1929000000,-137.841,-12.452324
1930000000,-137.88422,-12.578937
1931000000,-138.10011,-12.919563
1932000000,-138.1382,-12.9675
1933000000,-138.32019,-13.161844
1934000000,-138.4012,-13.50514
1935000000,-138.91704,-13.726605
1936000000,-138.7951,-14.10565
1937000000,-138.9579,-14.14435
1938000000,-139.12436,-14.191026
1939000000,-139.19183,-14.516208
1940000000,-139.25415,-14.682563
1941000000,-139.67484,-14.906693
1942000000,-139.86745,-15.148135
1943000000,-139.94902,-15.323012
1944000000,-140.08299,-15.673894
1945000000,-140.52248,-15.922167
1946000000,-140.54488,-16.092455
1947000000,-140.70851,-16.36974
1948000000,-140.85109,-16.499086
1949000000,-140.98763,-16.87266
1950000000,-141.24774,-17.062206
1951000000,-141.09419,-17.077805
1952000000,-141.54034,-17.411425
1953000000,-141.69366,-17.445219
1954000000,-141.75331,-17.712229
1955000000,-141.91908,-18.062412
1956000000,-142.19589,-18.252848
1957000000,-142.25047,-18.567068
1958000000,-142.44562,-18.689955
1959000000,-142.68423,-19.024464
1960000000,-142.63457,-18.970913
1961000000,-142.80679,-19.261446
1962000000,-143.10437,-19.397516
1963000000,-143.29453,-19.792204
1964000000,-143.2739,-19.914358
1965000000,-143.65538,-20.233826
1966000000,-143.7171,-20.389263
1967000000,-143.94518,-20.616364
1968000000,-144.30064,-21.003149
1969000000,-144.48036,-21.235514
1970000000,-144.48749,-21.342346
1971000000,-144.59772,-21.401005
1972000000,-144.75687,-21.889681
1973000000,-144.9294,-22.18041
1974000000,-145.28036,-22.317322
1975000000,-145.42906,-22.62258
1976000000,-145.19963,-22.371315
1977000000,-145.76862,-22.861593
1978000000,-145.6481,-23.010122
1979000000,-146.1144,-23.251106
1980000000,-146.29532,-23.683456
1981000000,-146.35976,-23.808743
1982000000,-146.72539,-24.068367
1983000000,-146.87518,-24.340822
1984000000,-146.83701,-24.477535
1985000000,-146.75731,-24.498358
1986000000,-147.16739,-24.857889
1987000000,-147.31885,-25.058893
1988000000,-147.45311,-25.189653
1989000000,-147.61159,-25.487087
1990000000,-147.6049,-25.570219
1991000000,-148.02719,-26.006535
1992000000,-148.35245,-26.288616
1993000000,-148.29134,-26.403446
1994000000,-148.57289,-26.693705
1995000000,-148.65894,-26.779964
1996000000,-148.74622,-27.02486
1997000000,-148.89357,-27.163153
1998000000,-149.11458,-27.445913
1999000000,-149.2984,-27.662006
2000000000,-149.42476,-28.031794
2001000000,-149.54379,-28.181177
2002000000,-149.85457,-28.487797
2003000000,-150.01309,-28.573097
2004000000,-149.99147,-28.712681
2005000000,-150.30951,-29.112186
2006000000,-150.59422,-29.415712
2007000000,-150.61386,-29.596334
2008000000,-150.75815,-29.621223
2009000000,-150.83984,-29.799488
2010000000,-151.27029,-30.19445
2011000000,-151.40688,-30.355717
2012000000,-151.2498,-30.584082
2013000000,-151.45706,-30.739532
2014000000,-151.87424,-31.017815
2015000000,-151.88071,-31.188988
2016000000,-151.9847,-31.316263
2017000000,-152.48772,-31.845207
2018000000,-152.37943,-31.831568
2019000000,-152.73831,-32.089272
2020000000,-152.91203,-32.373402
2021000000,-153.15068,-32.642918
2022000000,-152.99916,-32.5784
2023000000,-153.13625,-32.818634
2024000000,-153.58342,-33.221409
2025000000,-153.60666,-33.458862
2026000000,-153.68961,-33.536583
2027000000,-154.1265,-34.145611
2028000000,-154.2381,-34.263058
2029000000,-154.14157,-33.980888
2030000000,-154.34384,-34.300213
2031000000,-154.85934,-34.946732
2032000000,-154.5455,-34.688896
2033000000,-154.95479,-35.114365
2034000000,-155.09967,-35.315277
2035000000,-155.11819,-35.472713
2036000000,-155.45407,-35.637154
2037000000,-155.53926,-35.957371
2038000000,-155.7753,-36.178711
2039000000,-155.8558,-36.369804
2040000000,-156.05721,-36.727657
2041000000,-156.22826,-36.970837
2042000000,-156.28154,-37.013973
2043000000,-156.63994,-37.332382
2044000000,-156.67931,-37.547432
2045000000,-156.66061,-37.621738
2046000000,-156.92599,-37.863228
2047000000,-157.24805,-38.171688
2048000000,-157.06096,-38.152302
2049000000,-157.64063,-38.666119
2050000000,-157.34218,-38.630581
2051000000,-157.7251,-38.850292
2052000000,-157.85255,-39.141651
2053000000,-158.11711,-39.507896
2054000000,-158.15807,-39.630245
2055000000,-158.30782,-39.76226
2056000000,-158.39502,-39.902664
2057000000,-158.60359,-40.271866
2058000000,-158.87335,-40.422707
2059000000,-159.11769,-40.813362
2060000000,-159.15907,-41.011787
2061000000,-159.18376,-41.121582
2062000000,-159.42537,-41.303585
2063000000,-159.54541,-41.57655
2064000000,-159.90172,-41.751232
2065000000,-159.90117,-41.959892
2066000000,-159.94983,-42.068184
2067000000,-160.15535,-42.261559
2068000000,-160.39436,-42.459881
2069000000,-160.68166,-42.835537
2070000000,-160.6044,-43.018616
2071000000,-161.03886,-43.226898
2072000000,-161.20984,-43.504738
2073000000,-161.32889,-43.810505
2074000000,-161.3343,-43.854458
2075000000,-161.61214,-44.232174
2076000000,-161.69664,-44.34964
2077000000,-161.97737,-44.500687
2078000000,-162.00958,-44.659962
2079000000,-162.3009,-45.110329
2080000000,-162.43335,-45.30611
2081000000,-162.63976,-45.457817
2082000000,-162.69736,-45.641129
2083000000,-162.74768,-45.677467
2084000000,-163.09871,-46.212273
2085000000,-162.86104,-45.943871
2086000000,-163.45615,-46.64164
2087000000,-163.1944,-46.461433
2088000000,-163.49342,-46.68581
2089000000,-163.98952,-47.256519
2090000000,-163.82547,-47.210567
2091000000,-163.98297,-47.539112
2092000000,-164.20955,-47.774906
2093000000,-164.30844,-47.768856
2094000000,-164.72145,-48.337524
2095000000,-164.6637,-48.438034
2096000000,-165.17859,-48.878895
2097000000,-164.83148,-48.59005
2098000000,-164.92737,-48.872967
2099000000,-165.24109,-49.257893
2100000000,-165.37798,-49.506096
2101000000,-165.5742,-49.649746
2102000000,-165.68523,-49.895721
2103000000,-165.81903,-50.086399
2104000000,-166.14336,-50.399681
2105000000,-166.36633,-50.652508
2106000000,-166.28738,-50.650791
2107000000,-166.56212,-50.909012
2108000000,-166.91939,-51.285912
2109000000,-166.95914,-51.551067
2110000000,-167.38174,-51.613892
2111000000,-167.41829,-51.979385
2112000000,-167.63048,-52.163696
2113000000,-167.68974,-52.533459
2114000000,-168.03867,-52.679234
2115000000,-167.54468,-52.551388
2116000000,-168.10304,-53.066631
2117000000,-168.01237,-53.007946
2118000000,-168.4958,-53.533119
2119000000,-168.49809,-53.571461
2120000000,-168.42047,-53.672981
2121000000,-168.82362,-54.093166
2122000000,-168.99556,-54.168217
2123000000,-169.27759,-54.510029
2124000000,-169.17534,-54.581863
2125000000,-169.5419,-54.891872
2126000000,-169.25697,-55.084007
2127000000,-169.71558,-55.162369
2128000000,-169.68335,-55.283173
2129000000,-170.10617,-55.634163
2130000000,-170.32742,-55.854065
2131000000,-170.4334,-56.260948
2132000000,-170.68864,-56.475712
2133000000,-170.80591,-56.608585
2134000000,-170.8325,-56.78006
2135000000,-171.16528,-57.042503
2136000000,-171.18071,-57.052471
2137000000,-171.59235,-57.566406
2138000000,-171.41766,-57.547546
2139000000,-171.43126,-57.83374
2140000000,-171.68225,-58.203903
2141000000,-171.80138,-58.250816
2142000000,-172.0385,-58.660458
2143000000,-172.28159,-58.735031
2144000000,-172.49565,-58.868847
2145000000,-172.53345,-59.089161
2146000000,-172.61684,-59.364445
2147000000,-173.12166,-59.5933
2148000000,-173.05769,-59.838726
2149000000,-173.35208,-60.138527
2150000000,-173.24414,-60.052849
2151000000,-173.33409,-60.348225
2152000000,-173.57703,-60.65786
2153000000,-173.73793,-60.931538
2154000000,-173.98862,-61.109882
2155000000,-173.86905,-60.994785
2156000000,-174.16385,-61.49593
2157000000,-174.35851,-61.669724
2158000000,-174.46718,-61.785763
2159000000,-174.85709,-62.273792
2160000000,-174.99345,-62.498833
2161000000,-174.88002,-62.510235
2162000000,-175.24706,-62.697941
2163000000,-175.3806,-63.069183
2164000000,-175.50925,-63.082024
2165000000,-175.61586,-63.537979
2166000000,-175.8278,-63.66291
2167000000,-175.8929,-63.851887
2168000000,-175.8213,-63.881756
2169000000,-175.90619,-64.077644
2170000000,-176.54022,-64.527306
2171000000,-176.78668,-64.880035
2172000000,-176.90463,-65.089828
2173000000,-176.82088,-65.146301
2174000000,-177.15639,-65.440422
2175000000,-177.19817,-65.635979
2176000000,-177.27733,-65.842072
2177000000,-177.62903,-66.09623
2178000000,-177.57976,-66.225105
2179000000,-177.73387,-66.309044
2180000000,-177.82877,-66.518074
2181000000,-177.9816,-66.853615
2182000000,-178.36024,-67.269302
2183000000,-178.29036,-67.134804
2184000000,-178.58369,-67.632141
2185000000,-178.81409,-67.773735
2186000000,-178.47696,-67.836525
2187000000,-178.69743,-67.86264
2188000000,-179.06065,-68.250938
2189000000,-179.33835,-68.66227
2190000000,-179.31496,-68.655121
2191000000,-179.57932,-68.986916
2192000000,-179.72093,-69.276337
2193000000,-179.88954,-69.4002
2194000000,-179.90166,-69.431114
2195000000,179.89404,-70.03614
2196000000,179.65274,-70.174355
2197000000,179.62503,-70.214485
2198000000,179.30708,-70.573021
2199000000,179.16664,-70.777794
2200000000,179.14131,-70.826065
2201000000,178.94586,-71.258194
2202000000,178.87497,-71.385551
2203000000,178.62779,-71.556664
2204000000,178.49738,-71.753304
2205000000,178.13429,-72.137756
2206000000,178.20341,-72.056854
2207000000,178.05559,-72.387474
2208000000,177.84235,-72.753426
2209000000,177.66725,-72.921791
2210000000,177.42368,-73.320808
2211000000,177.52167,-73.362083
2212000000,176.99635,-73.784836
2213000000,177.02834,-73.80558
2214000000,177.07607,-73.988976
2215000000,176.91397,-74.152222
2216000000,176.77751,-74.439529
2217000000,176.63843,-74.376793
2218000000,176.53305,-74.751953
2219000000,175.9799,-75.283333
2220000000,176.16626,-75.317436
2221000000,175.63933,-75.67408
2222000000,175.97989,-75.645393
2223000000,175.57632,-76.016747
2224000000,175.44127,-76.222427
2225000000,175.12898,-76.56797
2226000000,175.10936,-76.728783
2227000000,174.93117,-76.979607
2228000000,175.11354,-76.893761
2229000000,175.03102,-77.019775
2230000000,174.5463,-77.470886
2231000000,174.42493,-77.629143
2232000000,174.1662,-77.988266
2233000000,174.10764,-77.988693
2234000000,173.98831,-78.341644
2235000000,173.84558,-78.640625
2236000000,173.68484,-78.780602
2237000000,173.37694,-79.155312
2238000000,173.37489,-79.336288
2239000000,173.01768,-79.598549
2240000000,173.07419,-79.555084
2241000000,172.7579,-80.085449
2242000000,172.90068,-79.862724
2243000000,172.56972,-80.489708
2244000000,172.61473,-80.571236
2245000000,172.32631,-80.792816
2246000000,172.17067,-81.04348
2247000000,172.05879,-81.24514
2248000000,171.94379,-81.365929
2249000000,171.87192,-81.551971
2250000000,171.48201,-81.907211
2251000000,171.48898,-81.942276
2252000000,171.53201,-82.276657
2253000000,171.22813,-82.58918
2254000000,170.87386,-82.732887
2255000000,170.70251,-83.005646
2256000000,170.61794,-83.163109
2257000000,170.5298,-83.260834
2258000000,170.51724,-83.476578
2259000000,170.31065,-83.802994
2260000000,170.14658,-84.108383
2261000000,169.9129,-84.109161
2262000000,169.65549,-84.571182
2263000000,169.46519,-84.953316
2264000000,169.5164,-84.850136
2265000000,169.37695,-85.242653
2266000000,169.42168,-85.219482
2267000000,168.91127,-85.861954
2268000000,169.02956,-85.745216
2269000000,169.007,-85.992783
2270000000,168.77469,-86.14917
2271000000,168.58939,-86.377007
2272000000,168.42749,-86.490791
2273000000,168.42206,-86.64621
2274000000,168.168,-87.012787
2275000000,167.8694,-87.400154
2276000000,167.88185,-87.575851
2277000000,167.34924,-87.893997
2278000000,167.55376,-87.948502
2279000000,167.34309,-88.110756
2280000000,167.31779,-88.32724
2281000000,166.97711,-88.720207
2282000000,166.83066,-88.716164
2283000000,166.57065,-89.239349
2284000000,166.49124,-89.262848
2285000000,166.4395,-89.468773
2286000000,166.3067,-89.694008
2287000000,166.06818,-90.019943
2288000000,165.92441,-90.123703
2289000000,165.90317,-90.542664
2290000000,165.44464,-90.826157
2291000000,165.56703,-91.002266
2292000000,165.36067,-91.221321
2293000000,165.26675,-91.31469
2294000000,164.90456,-91.66407
2295000000,165.10674,-91.599625
2296000000,164.88821,-91.931961
2297000000,164.58171,-92.249435
2298000000,164.47554,-92.385826
2299000000,164.15643,-92.844757
2300000000,164.0887,-92.92205
2301000000,163.8539,-93.293869
2302000000,164.1378,-93.280159
2303000000,163.5462,-93.682312
2304000000,163.64919,-93.859192
2305000000,163.35452,-94.034378
2306000000,163.25337,-94.246628
2307000000,163.01062,-94.59494
2308000000,163.11688,-94.501923
2309000000,162.81264,-95.039177
2310000000,162.56667,-95.282188
2311000000,162.54984,-95.560669
2312000000,162.29814,-95.698441
2313000000,162.36829,-95.738014
2314000000,162.08041,-96.193718
2315000000,161.93433,-96.270317
2316000000,161.64082,-96.673477
2317000000,161.5739,-96.786278
2318000000,161.53999,-96.994774
2319000000,161.61407,-97.043732
2320000000,161.26137,-97.368439
2321000000,161.06975,-97.651955
2322000000,160.79857,-98.110596
2323000000,160.96831,-97.91629
2324000000,160.68414,-98.297508
2325000000,160.60358,-98.550903
2326000000,160.55092,-98.55751
2327000000,160.20027,-99.24305
2328000000,160.1794,-99.250717
2329000000,159.65283,-99.759361
2330000000,159.71075,-99.746193
2331000000,159.15184,-100.38597
2332000000,159.28528,-100.25394
2333000000,159.4588,-100.29053
2334000000,159.26001,-100.55106
2335000000,158.94164,-100.93564
2336000000,158.70146,-101.18328
2337000000,158.41368,-101.52412
2338000000,158.32698,-101.69056
2339000000,158.42572,-101.81812
2340000000,158.25211,-101.98879
2341000000,158.12852,-102.37537
2342000000,157.73334,-102.80206
2343000000,157.58194,-102.84488
2344000000,157.69559,-103.05405
2345000000,157.39706,-103.24264
2346000000,157.49126,-103.37852
2347000000,157.29013,-103.70504
2348000000,156.91528,-104.06797
2349000000,156.68175,-104.3464
2350000000,156.65199,-104.49745
2351000000,156.51213,-104.56891
2352000000,156.52258,-104.8784
2353000000,156.05339,-105.16647
2354000000,156.16931,-105.17263
2355000000,155.8493,-105.79967
2356000000,155.69156,-105.98256
2357000000,155.66605,-106.14137
2358000000,155.37361,-106.54199
2359000000,155.32852,-106.5637
2360000000,155.05444,-106.86119
2361000000,154.98865,-107.07851
2362000000,154.87021,-107.11222
2363000000,154.70906,-107.37466
2364000000,154.59102,-107.65144
2365000000,154.20454,-108.12164
2366000000,154.05173,-108.30857
2367000000,154.07956,-108.551
2368000000,154.08017,-108.5067
2369000000,153.89877,-108.94331
2370000000,153.74286,-109.23064
2371000000,153.53192,-109.25193
2372000000,153.41269,-109.64127
2373000000,153.26166,-109.75989
2374000000,152.79129,-110.39201
2375000000,152.80832,-110.35189
2376000000,152.62331,-110.87867
2377000000,152.63773,-110.71817
2378000000,152.46231,-111.2151
2379000000,152.34477,-111.19852
2380000000,152.09045,-111.81995
2381000000,151.9998,-111.84531
2382000000,151.62462,-112.18156
2383000000,151.77304,-112.46114
2384000000,151.38081,-112.57304
2385000000,151.18727,-112.95971
2386000000,151.22232,-113.06357
2387000000,151.06531,-113.34081
2388000000,151.01579,-113.48804
2389000000,150.66103,-114.06357
2390000000,150.67101,-114.08668
2391000000,150.241,-114.41547
2392000000,150.34123,-114.60165
2393000000,150.07066,-114.94486
2394000000,149.81798,-115.06426
2395000000,149.72214,-115.31392
2396000000,149.62128,-115.58153
2397000000,149.54512,-115.6898
2398000000,149.25487,-116.02456
2399000000,149.0291,-116.38362
2400000000,148.90495,-116.72778
2401000000,148.84862,-117.03709
2402000000,148.79756,-116.96804
2403000000,148.70245,-117.10093
2404000000,148.36798,-117.46864
2405000000,148.26958,-117.90922
2406000000,148.21219,-117.97076
2407000000,147.88226,-118.37404
2408000000,147.67914,-118.66866
2409000000,147.53183,-118.89044
2410000000,147.62033,-119.04623
2411000000,147.37263,-119.18214
2412000000,147.29538,-119.55444
2413000000,146.75029,-119.85449
2414000000,146.83643,-120.16478
2415000000,146.52309,-120.51823
2416000000,146.44469,-120.72133
2417000000,146.22733,-120.80228
2418000000,146.22618,-121.01422
2419000000,146.16968,-121.32678
2420000000,145.88771,-121.54762
2421000000,145.64441,-121.98934
2422000000,145.32808,-122.60986
2423000000,145.37863,-122.41792
2424000000,145.20363,-122.81134
2425000000,144.97227,-123.14858
2426000000,144.70006,-123.4939
2427000000,144.98323,-123.26523
2428000000,144.61458,-123.80639
2429000000,144.56339,-123.78925
2430000000,144.23824,-124.3009
2431000000,143.94978,-124.55121
2432000000,143.97017,-124.66356
2433000000,143.72826,-125.24616
2434000000,143.59906,-125.49068
2435000000,143.36064,-125.65434
2436000000,143.44113,-125.88858
2437000000,143.31035,-126.13763
2438000000,142.92928,-126.40376
2439000000,142.7404,-126.81441
2440000000,142.67508,-127.09493
2441000000,142.38428,-127.30212
2442000000,142.28777,-127.56194
2443000000,142.1927,-127.79858
2444000000,141.96959,-127.93008
2445000000,141.94916,-128.15753
2446000000,141.66751,-128.76108
2447000000,141.56447,-128.93417
2448000000,141.44949,-129.22086
2449000000,141.16574,-129.45766
2450000000,140.98314,-129.78571
2451000000,140.97954,-130.14424
2452000000,140.57741,-130.35942
2453000000,140.71426,-130.35484
2454000000,140.30487,-130.84491
2455000000,140.25293,-131.09341
2456000000,140.15723,-131.25903
2457000000,139.81425,-131.71468
2458000000,139.78857,-131.90099
2459000000,139.68929,-132.03249
2460000000,139.44666,-132.5394
2461000000,139.32863,-132.77084
2462000000,139.01268,-133.32541
2463000000,138.9091,-133.37767
2464000000,138.81209,-133.86191
2465000000,138.54707,-133.91965
2466000000,138.41438,-134.38628
2467000000,138.34164,-134.66498
2468000000,138.30978,-134.66577
2469000000,138.14188,-134.88109
2470000000,137.65367,-135.40974
2471000000,137.56868,-135.88622
2472000000,137.65126,-135.81393
2473000000,137.53409,-136.28203
2474000000,137.3024,-136.65392
2475000000,137.18663,-136.71309
2476000000,136.93448,-137.01671
2477000000,136.61635,-137.66534
2478000000,136.64685,-137.68225
2479000000,136.37941,-138.15152
2480000000,136.16879,-138.42596
2481000000,136.05893,-138.70815
2482000000,135.91161,-139.06226
2483000000,135.77866,-139.103
2484000000,135.48474,-139.72662
2485000000,135.44199,-139.75151
2486000000,135.36391,-139.99738
2487000000,135.1861,-140.36052
2488000000,135.24684,-140.55223
2489000000,135.02042,-140.95535
2490000000,134.7551,-141.23929
2491000000,134.44267,-141.78006
2492000000,134.46625,-142.10231
2493000000,134.34279,-142.24226
2494000000,133.98106,-142.53796
2495000000,133.73689,-143.07671
2496000000,133.76401,-143.23787
2497000000,133.61559,-143.61726
2498000000,133.53473,-143.74402
2499000000,133.02411,-144.30762
2500000000,132.87711,-144.76779
2501000000,132.45291,-145.10243
2502000000,132.68327,-145.17181
2503000000,132.47635,-145.46075
2504000000,132.452,-145.74675
2505000000,131.97701,-146.27444
2506000000,132.02556,-146.32413
2507000000,131.83305,-146.87819
2508000000,131.57787,-147.24026
2509000000,131.67915,-147.39316
2510000000,131.45813,-147.67059
2511000000,131.34477,-147.89987
2512000000,131.41412,-148.48087
2513000000,130.89178,-148.74858
2514000000,130.98131,-148.84381
2515000000,130.67122,-149.51787
2516000000,130.50014,-149.70723
2517000000,130.31436,-150.15158
2518000000,130.02736,-150.50758
2519000000,129.91983,-150.93338
2520000000,129.76456,-151.11261
2521000000,129.48856,-151.6433
2522000000,129.64592,-151.78546
2523000000,129.35469,-152.27223
2524000000,129.15588,-152.62411
2525000000,128.92139,-153.05399
2526000000,128.80112,-153.14835
2527000000,128.87756,-153.33591
2528000000,128.65967,-153.88292
2529000000,128.50526,-154.18579
2530000000,128.35008,-154.58601
2531000000,127.95533,-154.97565
2532000000,127.85307,-155.46178
2533000000,128.03398,-155.49672
2534000000,127.68372,-155.9037
2535000000,127.43604,-156.47719
2536000000,127.24986,-156.85849
2537000000,127.40519,-156.95346
2538000000,127.17928,-157.45525
2539000000,127.08899,-157.67212
2540000000,126.6348,-158.26288
2541000000,126.66359,-158.44919
2542000000,126.7253,-159.11357
2543000000,126.03403,-159.79448
2544000000,126.13847,-159.93227
2545000000,125.88252,-160.20323
2546000000,125.87152,-160.69641
2547000000,125.82781,-160.89841
2548000000,125.67023,-161.45143
2549000000,125.47462,-161.66818
2550000000,125.46542,-161.96024
2551000000,125.24835,-162.37099
2552000000,125.0519,-162.83659
2553000000,124.82976,-163.42383
2554000000,124.58043,-163.74358
2555000000,124.57449,-164.02309
2556000000,124.35105,-164.32402
2557000000,124.32421,-164.74992
2558000000,124.1334,-165.31512
2559000000,124.12827,-165.72147
2560000000,124.1334,-166.02122
2561000000,123.92364,-166.34985
2562000000,123.73044,-166.86247
2563000000,123.57362,-167.19862
2564000000,123.63237,-167.61482
2565000000,123.49466,-167.99298
2566000000,123.41693,-168.44453
2567000000,123.2737,-168.91321
2568000000,122.98384,-169.39938
2569000000,122.98303,-169.84666
2570000000,122.78843,-170.15562
2571000000,122.88543,-170.61343
2572000000,122.54585,-171.13676
2573000000,122.8107,-171.32669
2574000000,122.38313,-171.8351
2575000000,122.58626,-172.37263
2576000000,122.369,-172.82153
2577000000,122.18179,-173.21725
2578000000,121.99092,-173.72212
2579000000,121.93134,-174.08705
2580000000,121.99207,-174.48804
2581000000,122.09875,-174.91789
2582000000,121.80964,-175.41992
2583000000,121.67406,-176.0769
2584000000,121.59764,-176.68166
2585000000,121.79601,-176.84358
2586000000,121.50561,-177.41577
2587000000,121.6325,-177.84363
2588000000,121.6257,-178.18091
2589000000,121.60103,-178.73273
2590000000,121.44862,-179.25386
2591000000,121.49429,-179.57169
2592000000,121.32383,179.78931
2593000000,121.46598,179.40472
2594000000,121.50702,178.93571
2595000000,121.54491,178.39555
2596000000,121.54691,177.88498
2597000000,121.54205,177.30946
2598000000,121.57226,176.93787
2599000000,121.57379,176.24226
2600000000,121.49852,175.93239
2601000000,121.74666,175.42203
2602000000,121.56123,174.95544
2603000000,121.7394,174.32431
2604000000,122.00719,173.81073
2605000000,121.9556,173.21921
2606000000,122.16635,172.97577
2607000000,122.3328,172.60828
2608000000,122.30759,171.93813
2609000000,122.60459,171.43443
2610000000,122.4645,170.87589
2611000000,122.57193,170.22252
2612000000,122.8242,169.72369
2613000000,123.10819,169.02994
2614000000,123.16232,168.77811
2615000000,123.19935,168.17891
2616000000,123.55195,167.58789
2617000000,123.93126,167.11893
2618000000,123.9914,166.6071
2619000000,124.19053,165.90511
2620000000,124.66359,165.39713
2621000000,124.89778,164.91182
2622000000,125.15983,164.25296
2623000000,125.19515,163.69315
2624000000,125.66508,163.11128
2625000000,125.99982,162.6442
2626000000,126.54136,161.89476
2627000000,126.99647,161.78204
2628000000,127.22913,160.92406
2629000000,127.63522,160.28955
2630000000,127.88972,159.76778
2631000000,128.70403,159.30322
2632000000,128.96991,158.63861
2633000000,129.70593,158.08289
2634000000,129.99582,157.45544
2635000000,130.36366,156.54924
2636000000,131.06595,156.2578
2637000000,131.61893,155.76619
2638000000,132.40833,155.06612
2639000000,132.75665,154.28737
2640000000,133.54604,153.76031
2641000000,134.17021,153.23012
2642000000,134.58508,152.71404
2643000000,135.40584,151.99591
2644000000,136.0531,151.55212
2645000000,136.68892,150.8726
2646000000,137.32274,150.32118
2647000000,137.97322,149.42899
2648000000,138.96098,148.99254
2649000000,139.504,148.18478
2650000000,140.33066,147.62964
2651000000,141.45357,147.17888
2652000000,142.08403,146.42795
2653000000,142.94539,145.84618
2654000000,143.81349,145.39307
2655000000,144.14409,144.40616
2656000000,144.93504,143.86078
2657000000,145.72581,143.16634
2658000000,146.77501,142.65369
2659000000,147.20866,141.97952
2660000000,148.25644,141.3564
2661000000,148.76404,140.39349
2662000000,149.70811,139.78778
2663000000,150.78577,139.41411
2664000000,151.66418,138.76865
2665000000,152.13887,138.1199
2666000000,152.83806,137.37981
2667000000,153.85588,136.7355
2668000000,154.34711,135.95798
2669000000,154.80954,135.37927
2670000000,155.42598,134.72057
2671000000,156.31721,134.11089
2672000000,156.80658,133.18576
2673000000,157.34332,132.54694
2674000000,158.54793,132.03389
2675000000,158.71056,131.35263
2676000000,159.35689,130.6927
2677000000,160.12602,129.98854
2678000000,160.4912,129.45267
2679000000,161.19446,128.91661
2680000000,161.67081,128.20798
2681000000,162.11765,127.3037
2682000000,162.63097,126.75453
2683000000,163.12347,125.91714
2684000000,163.33289,125.39396
2685000000,163.71602,124.69445
2686000000,163.89377,123.82475
2687000000,164.48076,123.34921
2688000000,164.79341,122.54817
2689000000,165.04384,121.95202
2690000000,165.71796,121.36532
2691000000,165.65964,120.61655
2692000000,166.08034,119.97713
2693000000,166.25327,119.15588
2694000000,166.62486,118.64008
2695000000,166.53758,117.69569
2696000000,166.95441,117.14799
2697000000,167.07216,116.67049
2698000000,167.21248,115.74704
2699000000,167.44661,115.25983
2700000000,167.79147,114.64503
2701000000,167.69519,113.97603
2702000000,167.83679,113.22384
2703000000,167.68958,112.36191
2704000000,167.99071,111.84708
2705000000,167.89702,111.13808
2706000000,167.9388,110.44833
2707000000,168.29698,109.86928
2708000000,168.07625,109.03474
2709000000,168.0157,108.37382
2710000000,168.15329,107.83712
2711000000,168.35393,107.31967
2712000000,168.21547,106.62106
2713000000,167.89671,105.83934
2714000000,168.23201,105.31084
2715000000,168.03992,104.48489
2716000000,168.17365,104.05129
2717000000,167.98111,103.36822
2718000000,167.65572,102.55248
2719000000,167.8941,102.04456
2720000000,167.49754,101.19254
2721000000,167.32861,100.58994
2722000000,167.45105,100.08395
2723000000,167.36627,99.383446
2724000000,167.09264,98.66114
2725000000,166.99063,98.154434
2726000000,167.07625,97.50592
2727000000,166.67845,96.689491
2728000000,166.59023,96.155891
2729000000,166.1268,95.416512
2730000000,166.01343,94.848366
2731000000,166.12508,94.372414
2732000000,166.04263,93.668083
2733000000,165.90425,93.011803
2734000000,165.84145,92.504448
2735000000,165.55193,91.792915
2736000000,165.20032,90.965675
2737000000,165.10123,90.445854
2738000000,165.0549,89.819382
2739000000,164.76564,89.294861
2740000000,164.32428,88.527122
2741000000,164.33339,88.101784
2742000000,163.80879,87.120193
2743000000,164.05106,86.903381
2744000000,163.53084,85.967209
2745000000,163.86642,85.767311
2746000000,163.22621,84.844666
2747000000,163.1264,84.219315
2748000000,163.26825,83.784142
2749000000,162.73166,83.04174
2750000000,162.48515,82.560677
2751000000,162.21262,81.781448
2752000000,162.116,81.268211
2753000000,161.6013,80.672112
2754000000,161.51031,79.904015
2755000000,161.03833,79.32412
2756000000,161.16911,78.792442
2757000000,160.74831,78.29055
2758000000,160.64909,77.823006
2759000000,160.45811,77.375244
2760000000,160.08061,76.562737
2761000000,159.73521,75.801498
2762000000,159.68752,75.524422
2763000000,159.56822,74.874252
2764000000,159.24486,74.253891
2765000000,159.03465,73.583336
2766000000,158.81183,72.998245
2767000000,158.44769,72.385132
2768000000,158.30489,71.95118
2769000000,157.99199,71.335495
2770000000,157.84422,70.733284
2771000000,157.63287,70.33625
2772000000,157.31555,69.504593
2773000000,157.11133,69.037399
2774000000,156.78529,68.30838
2775000000,156.80974,68.094902
2776000000,156.47778,67.421104
2777000000,156.11142,66.672768
2778000000,155.90181,66.197098
2779000000,155.78278,65.708084
2780000000,155.50665,65.148514
2781000000,155.32477,64.75499
2782000000,155.23882,64.018021
2783000000,154.4595,63.321735
2784000000,154.45691,62.620487
2785000000,154.25645,62.260666
2786000000,154.26794,61.928562
2787000000,154.01137,61.201984
2788000000,153.5179,60.47298
2789000000,153.532,60.041714
2790000000,153.20554,59.469856
2791000000,152.88271,59.23864
2792000000,152.58017,58.329746
2793000000,152.28488,57.627426
2794000000,152.38737,57.375931
2795000000,151.85825,56.608814
2796000000,151.85422,56.210842
2797000000,151.57587,55.531075
2798000000,151.32205,55.207142
2799000000,151.08397,54.543579
2800000000,150.87521,53.811558
2801000000,150.54799,53.442108
2802000000,150.33595,52.884224
2803000000,150.07309,52.315136
2804000000,150.09059,51.675358
2805000000,149.83525,51.160755
2806000000,149.64267,50.641777
2807000000,149.25,49.965015
2808000000,149.24216,49.734844
2809000000,148.91953,48.938801
2810000000,148.51321,48.169697
2811000000,148.35004,47.837429
2812000000,148.29266,47.523609
2813000000,147.72694,46.613991
2814000000,147.72859,46.362438
2815000000,147.5959,45.732758
2816000000,147.34175,45.046001
2817000000,147.05492,44.409885
2818000000,147.10191,44.08654
2819000000,146.81184,43.483856
2820000000,146.59909,43.00824
2821000000,146.35567,42.177589
2822000000,146.0463,41.792198
2823000000,146.1282,41.400494
2824000000,145.63435,40.510155
2825000000,145.45485,40.068203
2826000000,145.20284,39.351841
2827000000,145.31435,39.032833
2828000000,144.79272,38.173977
2829000000,144.64246,37.710388
2830000000,144.36641,36.914837
2831000000,144.34543,36.664036
2832000000,144.01837,35.945129
2833000000,144.05675,35.665443
2834000000,143.62886,35.157211
2835000000,143.36032,34.265682
2836000000,143.31784,33.831413
2837000000,143.14246,33.180187
2838000000,142.82224,32.712654
2839000000,142.71524,32.152912
2840000000,142.79227,31.505409
2841000000,142.22108,30.784906
2842000000,142.11813,30.349848
2843000000,142.05334,29.731909
2844000000,141.81531,29.081656
2845000000,141.41301,28.497293
2846000000,141.33131,27.923656
2847000000,140.80003,26.923405
2848000000,140.99997,26.641294
2849000000,140.6967,26.093887
2850000000,140.69713,25.313496
2851000000,140.27003,24.967909
2852000000,140.28258,24.439156
2853000000,140.05818,23.581625
2854000000,139.66908,23.317488
2855000000,139.52295,22.390913
2856000000,139.46936,21.793802
2857000000,139.36452,21.010515
2858000000,138.96565,20.397655
2859000000,139.12881,20.183126
2860000000,138.71181,19.362597
2861000000,138.54323,18.699387
2862000000,138.50069,18.153765
2863000000,138.19684,17.365875
2864000000,137.87129,16.879881
2865000000,137.85237,16.151766
2866000000,137.75368,15.474041
2867000000,137.64136,15.117537
2868000000,137.2739,14.089455
2869000000,137.21695,13.555957
2870000000,137.10957,12.973073
2871000000,136.74251,12.179623
2872000000,136.44179,11.016794
2873000000,136.4843,11.012937
2874000000,136.41942,10.327131
2875000000,136.24605,9.3671818
2876000000,136.03358,8.8477049
2877000000,135.9061,8.3860683
2878000000,135.62708,7.5381846
2879000000,135.60229,7.0238519
2880000000,135.20143,6.0838733
2881000000,135.17432,5.4726591
2882000000,135.20285,4.786468
2883000000,134.95764,4.2053013
2884000000,134.67816,3.5187774
2885000000,134.5042,2.7612231
2886000000,134.2827,1.9111449
2887000000,134.10359,1.2932756
2888000000,134.08769,0.61633414
2889000000,133.82939,-0.13541491
2890000000,133.55592,-0.88740766
2891000000,133.52286,-1.4607648
2892000000,133.31935,-2.4653721
2893000000,133.33289,-2.9231989
2894000000,132.90498,-3.6937339
2895000000,132.76248,-4.3840804
2896000000,132.85379,-5.1124382
2897000000,132.32466,-5.8619304
2898000000,132.36955,-6.5569997
2899000000,132.12498,-7.411406
2900000000,132.0639,-8.0802288
2901000000,131.81506,-8.8808718
2902000000,131.59052,-9.4496441
2903000000,131.56291,-10.092212
2904000000,131.36107,-10.922748
2905000000,131.38417,-11.572794
2906000000,131.24097,-12.159833
2907000000,131.13956,-12.863888
2908000000,130.57851,-13.74981
2909000000,130.67064,-14.48171
2910000000,130.61731,-15.242385
2911000000,130.1711,-16.00005
2912000000,130.03625,-16.763887
2913000000,130.00909,-17.454861
2914000000,129.68045,-18.307165
2915000000,129.44226,-19.312803
2916000000,129.46826,-19.817799
2917000000,129.32222,-20.512819
2918000000,129.32089,-20.970284
2919000000,129.10252,-21.770859
2920000000,128.98376,-22.605724
2921000000,128.81305,-23.443153
2922000000,128.48949,-24.074604
2923000000,128.45067,-24.603176
2924000000,128.39064,-25.583841
2925000000,128.22202,-26.249224
2926000000,128.17145,-26.982603
2927000000,127.9469,-27.645699
2928000000,127.67142,-28.540771
2929000000,127.57356,-29.122763
2930000000,127.49877,-29.830801
2931000000,127.25231,-30.542263
2932000000,127.01356,-31.255424
2933000000,126.90822,-31.82234
2934000000,126.73862,-32.643162
2935000000,126.50896,-33.371857
2936000000,126.48449,-34.128712
2937000000,126.2587,-34.698227
2938000000,126.15878,-35.46434
2939000000,125.99675,-36.037075
2940000000,125.87667,-36.790119
2941000000,125.877,-37.207672
2942000000,125.61089,-38.026127
2943000000,125.3219,-38.661083
2944000000,125.31422,-39.515816
2945000000,124.93388,-40.269043
2946000000,125.14178,-40.592373
2947000000,124.87157,-41.266815
2948000000,124.78398,-41.86919
2949000000,124.70824,-42.573318
2950000000,124.60881,-43.185307
2951000000,124.53883,-43.698685
2952000000,124.0069,-44.736076
2953000000,123.78781,-45.246346
2954000000,123.66499,-45.978626
2955000000,123.55238,-46.466202
2956000000,123.47713,-46.8578
2957000000,123.41389,-47.432659
2958000000,123.26833,-48.232071
2959000000,122.963,-48.812939
2960000000,122.98837,-49.370052
2961000000,123.0696,-49.751343
2962000000,122.83253,-50.387386
2963000000,122.64063,-51.129162
2964000000,122.32672,-51.611427
2965000000,122.51273,-51.78368
2966000000,121.99436,-52.672119
2967000000,122.07006,-53.312519
2968000000,121.77674,-53.885643
2969000000,121.73715,-54.313465
2970000000,121.54153,-54.894394
2971000000,121.49914,-55.240101
2972000000,121.38291,-55.675991
2973000000,121.03007,-56.37944
2974000000,121.0358,-56.923481
2975000000,120.79626,-57.145733
2976000000,120.44292,-58.031651
2977000000,120.67474,-58.274628
2978000000,120.37374,-58.682384
2979000000,120.27087,-59.187038
2980000000,119.91878,-59.802113
2981000000,119.95992,-60.220146
2982000000,119.88036,-60.569763
2983000000,119.76622,-61.227558
2984000000,119.72323,-61.402534
2985000000,119.42911,-61.867458
2986000000,119.53796,-62.250408
2987000000,119.09572,-62.80051
2988000000,118.98441,-63.073738
2989000000,118.81737,-63.234146
2990000000,118.92072,-63.925976
2991000000,118.71819,-64.152237
2992000000,118.50835,-64.587776
2993000000,118.36173,-64.924194
2994000000,118.0685,-65.11554
2995000000,118.19802,-65.412712
2996000000,117.8774,-65.884232
2997000000,117.65853,-66.176285
2998000000,117.54015,-66.751747
2999000000,117.74174,-66.628685
3000000000,117.5466,-67.138313
3001000000,117.24982,-67.420219
3002000000,117.15795,-67.683586
3003000000,117.156,-67.905136
3004000000,116.92467,-68.099388
3005000000,116.55965,-68.55587
3006000000,116.70216,-68.794136
3007000000,116.70216,-68.666298
3008000000,116.41339,-69.276939
3009000000,116.40275,-69.404671
3010000000,116.08566,-69.752319
3011000000,116.09152,-69.9412
3012000000,116.04485,-70.186653
3013000000,115.8143,-70.472504
3014000000,115.65473,-70.717369
3015000000,115.53796,-71.053238
3016000000,115.3186,-71.273079
3017000000,115.24412,-71.344475
3018000000,115.32012,-71.38324
3019000000,114.87581,-71.95459
3020000000,114.95393,-71.959686
3021000000,114.60096,-72.269623
3022000000,114.62956,-72.160797
3023000000,114.54518,-72.662231
3024000000,114.2544,-72.655945
3025000000,114.20187,-72.680069
3026000000,114.16789,-72.840599
3027000000,113.96192,-73.28553
3028000000,113.9588,-73.114586
3029000000,113.75543,-72.941277
3030000000,113.39304,-73.417435
3031000000,113.72346,-72.856369
3032000000,113.35398,-73.000786
3033000000,113.26743,-72.936356
3034000000,113.36339,-73.083893
3035000000,113.13474,-73.039314
3036000000,112.83961,-73.489288
3037000000,112.88561,-73.187584
3038000000,112.6703,-73.383881
3039000000,112.60562,-72.94503
3040000000,112.20518,-73.375847
3041000000,112.25134,-73.181267
3042000000,112.17019,-73.432854
3043000000,111.97552,-73.633949
3044000000,111.75274,-73.288391
3045000000,111.7398,-73.132423
3046000000,111.68038,-72.72625
3047000000,111.60148,-73.034233
3048000000,111.436,-72.325111
3049000000,111.1963,-72.426064
3050000000,111.01958,-72.684708
3051000000,111.16942,-72.057541
3052000000,110.85118,-72.040726
3053000000,110.75659,-72.129196
3054000000,110.58161,-72.614914
3055000000,110.3747,-72.244362
3056000000,110.48418,-71.698357
3057000000,110.31276,-71.502777
3058000000,110.2243,-72.34169
3059000000,109.98759,-71.232101
3060000000,109.88622,-71.830261
3061000000,109.8502,-71.379562
3062000000,109.5508,-71.535576
3063000000,109.66079,-71.62719
3064000000,109.46016,-71.493011
3065000000,109.42281,-70.87838
3066000000,109.33503,-71.1101
3067000000,109.10307,-71.371155
3068000000,109.08667,-71.160393
3069000000,109.01431,-70.712296
3070000000,108.51558,-70.110901
3071000000,108.63996,-69.477852
3072000000,108.65278,-69.633301
3073000000,108.42487,-70.023987
3074000000,108.36976,-68.983215
3075000000,108.18898,-69.16246
3076000000,107.98798,-69.367645
3077000000,108.00719,-68.344498
3078000000,107.76039,-68.519127
3079000000,107.79377,-67.691429
3080000000,107.48151,-67.632744
3081000000,107.41788,-67.407097
3082000000,107.46402,-66.891266
3083000000,107.30733,-65.955215
3084000000,107.34061,-65.565849
3085000000,107.09703,-65.691681
3086000000,106.98077,-64.747559
3087000000,106.79037,-64.351738
3088000000,106.60918,-63.572479
3089000000,106.4351,-64.294197
3090000000,106.46338,-63.771385
3091000000,106.31564,-63.361916
3092000000,106.09787,-63.522247
3093000000,106.15871,-62.904057
3094000000,106.09695,-62.361252
3095000000,106.08686,-61.61496
3096000000,105.77275,-62.050713
3097000000,105.59594,-61.496567
3098000000,105.54485,-61.639309
3099000000,105.44255,-61.872295
3100000000,105.46131,-60.223152
3101000000,105.16338,-61.881966
3102000000,105.06567,-60.398899
3103000000,105.07895,-60.100582
3104000000,104.82151,-59.540623
3105000000,104.79742,-58.565819
3106000000,104.78025,-57.76395
3107000000,104.47755,-58.428417
3108000000,104.49345,-58.206722
3109000000,104.38114,-57.852119
3110000000,104.3482,-57.487
3111000000,104.34375,-57.084038
3112000000,104.08162,-58.452431
3113000000,103.82913,-56.449154
3114000000,103.79226,-56.430325
3115000000,103.83709,-55.996586
3116000000,103.47777,-55.375896
3117000000,103.41821,-54.153263
3118000000,103.3761,-53.06863
3119000000,103.28143,-52.596966
3120000000,103.27867,-53.93557
3121000000,103.07729,-52.379955
3122000000,103.12518,-52.167004
3123000000,102.98466,-51.844662
3124000000,102.7059,-49.420509
3125000000,102.52904,-50.753174
3126000000,102.31519,-49.532207
3127000000,102.35722,-50.321938
3128000000,102.31148,-49.127979
3129000000,102.09709,-51.437088
3130000000,102.08913,-49.621368
3131000000,101.92573,-48.516308
3132000000,101.97585,-48.41098
3133000000,101.70721,-49.790718
3134000000,101.51588,-48.378925
3135000000,101.65208,-48.627995
3136000000,101.35823,-47.357956
3137000000,101.28271,-48.980877
3138000000,101.24486,-47.113579
3139000000,101.04998,-46.86829
3140000000,100.93368,-46.623409
3141000000,100.85524,-47.251801
3142000000,100.53753,-44.340191
3143000000,100.57504,-43.964893
3144000000,100.58131,-46.056377
3145000000,100.31489,-44.355644
3146000000,100.2388,-45.697643
3147000000,100.11895,-44.553017
3148000000,100.22187,-46.123112
3149000000,99.990273,-44.424465
3150000000,100.00468,-43.560822
3151000000,99.757843,-41.900051
3152000000,99.639259,-43.223198
3153000000,99.630043,-41.051182
3154000000,99.194992,-42.076942
3155000000,99.433281,-39.952499
3156000000,99.392944,-41.232891
3157000000,99.142441,-41.167168
3158000000,99.187538,-40.882492
3159000000,98.877731,-40.834396
3160000000,98.617195,-39.73457
3161000000,98.547012,-40.981575
3162000000,98.609627,-38.09737
3163000000,98.535576,-41.033344
3164000000,98.390472,-39.368717
3165000000,98.383972,-40.585266
3166000000,98.129623,-39.797714
3167000000,98.037689,-40.361027
3168000000,97.873215,-40.773994
3169000000,97.602936,-40.374912
3170000000,97.896614,-40.740288
3171000000,97.695358,-41.441887
3172000000,97.439041,-41.105595
3173000000,97.410355,-39.513794
3174000000,97.289055,-40.847198
3175000000,97.063255,-41.603668
3176000000,96.948875,-41.922668
3177000000,96.831261,-41.724255
3178000000,96.77578,-43.067142
3179000000,96.676903,-39.652237
3180000000,96.743439,-40.954124
3181000000,96.44574,-43.557083
3182000000,96.332138,-41.275948
3183000000,96.295364,-40.603817
3184000000,96.21067,-40.583988
3185000000,96.011047,-40.342113
3186000000,96.188889,-38.701778
3187000000,95.703865,-43.337761
3188000000,95.847656,-40.725929
3189000000,95.517204,-40.808228
3190000000,95.722458,-40.409416
3191000000,95.618484,-41.560616
3192000000,95.306839,-43.843796
3193000000,95.244789,-43.013256
3194000000,95.13031,-43.569721
3195000000,95.089264,-41.890366
3196000000,94.872711,-43.132046
3197000000,94.669014,-42.474293
3198000000,94.676384,-41.292408
3199000000,94.581406,-40.692024
3200000000,94.5784,-43.134106
3201000000,94.356926,-40.949638
3202000000,94.265381,-40.726246
3203000000,94.24221,-44.110279
3204000000,94.121368,-45.414982
3205000000,94.121758,-40.430866
3206000000,93.966629,-41.968075
3207000000,93.805801,-43.328575
3208000000,93.720818,-43.740894
3209000000,93.325989,-44.004848
3210000000,93.35643,-44.728527
3211000000,93.253975,-44.216595
3212000000,93.090439,-45.821579
3213000000,93.233345,-44.673027
3214000000,92.912827,-48.361252
3215000000,92.923882,-47.476486
3216000000,92.694214,-46.706871
3217000000,92.795731,-44.757168
3218000000,92.559364,-48.185764
3219000000,92.496216,-46.427925
3220000000,92.379372,-51.549416
3221000000,92.310036,-51.846607
3222000000,92.152672,-46.956524
3223000000,92.109177,-50.999939
3224000000,92.097198,-43.823101
3225000000,91.800415,-48.435215
3226000000,91.836601,-53.167015
3227000000,91.516426,-52.227566
3228000000,91.496956,-54.552078
3229000000,91.381264,-52.020584
3230000000,91.336586,-51.556007
3231000000,91.140747,-53.455185
3232000000,91.292892,-55.724762
3233000000,90.806618,-54.560265
3234000000,90.913254,-53.888706
3235000000,90.884605,-50.245609
3236000000,90.623901,-53.867241
3237000000,90.500908,-53.099739
3238000000,90.677269,-55.236828
3239000000,90.39875,-55.815567
3240000000,90.376045,-53.086777
3241000000,90.137642,-57.595303
3242000000,90.170876,-55.151176
3243000000,89.958801,-54.802467
3244000000,89.878006,-59.911983
3245000000,89.743378,-59.325085
3246000000,89.741821,-55.928139
3247000000,89.808472,-59.110088
3248000000,89.245934,-58.572807
3249000000,89.326843,-59.526123
3250000000,89.412453,-63.033466
3251000000,88.947701,-59.641945
3252000000,89.128036,-56.582523
3253000000,88.881943,-62.005844
3254000000,88.902489,-62.878613
3255000000,88.757767,-58.160954
3256000000,88.503571,-57.920792
3257000000,88.639801,-61.17461
3258000000,88.49852,-56.959984
3259000000,88.2855,-63.587238
3260000000,88.228676,-67.540535
3261000000,87.98262,-70.402237
3262000000,87.900459,-67.454201
3263000000,87.891136,-67.921249
3264000000,87.760033,-67.351273
3265000000,87.648117,-71.88694
3266000000,87.536995,-65.453522
3267000000,87.434807,-69.900566
3268000000,87.203972,-72.720367
3269000000,87.447685,-72.819931
3270000000,87.120262,-69.303238
3271000000,87.215042,-74.058197
3272000000,87.061699,-74.656616
3273000000,86.999962,-71.531441
3274000000,86.645805,-77.514473
3275000000,86.749519,-77.951591
3276000000,86.629333,-75.99958
3277000000,86.391304,-81.625832
3278000000,86.395905,-75.369087
3279000000,86.194847,-78.851616
3280000000,86.205734,-81.528259
3281000000,86.033241,-81.82119
3282000000,86.052559,-79.428429
3283000000,85.762123,-82.658394
3284000000,85.778763,-85.104401
3285000000,85.576233,-87.761757
3286000000,85.543053,-85.890305
3287000000,85.489571,-82.030785
3288000000,85.243538,-87.458336
3289000000,85.139282,-87.297211
3290000000,85.070374,-87.627594
3291000000,85.190971,-88.176414
3292000000,84.712967,-93.6912
3293000000,84.81369,-93.554192
3294000000,84.688393,-89.179222
3295000000,84.497902,-99.048622
3296000000,84.507141,-91.425247
3297000000,84.260529,-94.718735
3298000000,84.384735,-101.56046
3299000000,84.209442,-99.683487
3300000000,83.900505,-98.96476
3301000000,83.649017,-100.64902
3302000000,83.914726,-92.797989
3303000000,83.546341,-96.061607
3304000000,83.435425,-99.356529
3305000000,83.289391,-97.382164
3306000000,83.288948,-103.00723
3307000000,83.180206,-100.08631
3308000000,83.025696,-101.561
3309000000,82.86895,-100.13054
3310000000,82.940712,-96.827553
3311000000,82.921173,-102.96229
3312000000,82.797279,-107.0894
3313000000,82.657944,-99.804611
3314000000,82.68586,-106.79539
3315000000,82.278206,-108.03991
3316000000,82.146881,-104.99268
3317000000,82.381683,-110.19616
3318000000,82.403381,-110.62818
3319000000,81.977379,-112.01466
3320000000,81.870255,-106.46877
3321000000,81.947754,-107.93404
3322000000,81.573067,-109.92335
3323000000,81.524315,-113.64448
3324000000,81.497787,-117.74773
3325000000,81.294052,-113.54418
3326000000,81.249001,-114.32692
3327000000,81.3088,-118.82004
3328000000,81.129906,-119.80078
3329000000,80.89537,-114.31163
3330000000,80.835533,-117.55182
3331000000,80.85556,-121.93703
3332000000,80.630928,-123.89568
3333000000,80.553833,-122.31675
3334000000,80.528214,-123.35834
3335000000,80.344765,-128.89848
3336000000,79.914513,-123.27789
3337000000,80.020721,-121.22752
3338000000,79.890549,-122.45869
3339000000,79.733543,-123.94875
3340000000,79.910454,-126.71168
3341000000,79.575623,-132.0513
3342000000,79.470947,-124.21639
3343000000,79.60183,-133.34366
3344000000,79.475998,-132.06345
3345000000,79.203018,-124.42252
3346000000,79.002113,-122.61546
3347000000,79.019768,-127.08657
3348000000,78.893463,-130.38531
3349000000,78.719597,-134.20357
3350000000,78.7658,-133.68713
3351000000,78.397636,-136.42281
3352000000,78.409554,-129.38783
3353000000,78.213379,-138.65056
3354000000,78.247833,-139.01567
3355000000,78.156746,-141.41463
3356000000,78.117989,-137.903
3357000000,78.131287,-140.16393
3358000000,77.724213,-141.46991
3359000000,77.637299,-142.25008
3360000000,77.56955,-137.87392
3361000000,77.379333,-142.68568
3362000000,77.226105,-137.01712
3363000000,77.273628,-138.40788
3364000000,77.106133,-146.23045
3365000000,76.971962,-143.16644
3366000000,76.885414,-143.3177
3367000000,76.859001,-146.1907
3368000000,76.759254,-145.73528
3369000000,76.729546,-143.33755
3370000000,76.652855,-143.73509
3371000000,76.636482,-150.75502
3372000000,76.248489,-147.83505
3373000000,76.474236,-147.67926
3374000000,75.990166,-148.58395
3375000000,76.056244,-151.19209
3376000000,75.872765,-148.57866
3377000000,75.680229,-154.60922
3378000000,75.511818,-145.72523
3379000000,75.766457,-153.25969
3380000000,75.333305,-154.36668
3381000000,75.11274,-154.52721
3382000000,75.362991,-153.26794
3383000000,74.907639,-154.1039
3384000000,74.906586,-152.52303
3385000000,74.622704,-152.13074
3386000000,74.672127,-156.58963
3387000000,74.716431,-157.56998
3388000000,74.548553,-154.45665
3389000000,74.317307,-157.30254
3390000000,74.342384,-155.51176
3391000000,74.068451,-154.02824
3392000000,73.986488,-159.0061
3393000000,73.871536,-157.32491
3394000000,73.951416,-155.04172
3395000000,73.899994,-157.85381
3396000000,73.652618,-158.2534
3397000000,73.506088,-157.20071
3398000000,73.422432,-161.24675
3399000000,73.178093,-161.33563
3400000000,73.068779,-161.56636
3401000000,73.004662,-166.05014
3402000000,72.951881,-164.68634
3403000000,73.087959,-165.57658
3404000000,72.73925,-165.6358
3405000000,72.396194,-165.6288
3406000000,72.693756,-169.64473
3407000000,72.51075,-168.57274
3408000000,72.332565,-165.64439
3409000000,72.131607,-170.46857
3410000000,71.985275,-169.31018
3411000000,72.080025,-168.85336
3412000000,71.81485,-172.91679
3413000000,71.650513,-167.51184
3414000000,71.773781,-172.55524
3415000000,71.585304,-173.41121
3416000000,71.353119,-172.16222
3417000000,71.194153,-168.09767
3418000000,71.40963,-174.40466
3419000000,71.021263,-173.05856
3420000000,71.071693,-170.68469
3421000000,70.974701,-172.27934
3422000000,70.712189,-171.09514
3423000000,70.561661,-170.98268
3424000000,70.321777,-170.87091
3425000000,70.620949,-169.9735
3426000000,70.395882,-174.08835
3427000000,70.054939,-171.7999
3428000000,70.009727,-171.22398
3429000000,69.841789,-177.95094
3430000000,69.927002,-176.77888
3431000000,69.844612,-179.54263
3432000000,69.90921,-169.42287
3433000000,69.364243,-172.877
3434000000,69.584435,-176.27736
3435000000,69.269669,-173.41876
3436000000,69.056686,-178.3452
3437000000,69.118858,-177.93068
3438000000,68.812424,175.66136
3439000000,68.661041,175.28398
3440000000,68.810341,-178.74161
3441000000,68.669334,179.29378
3442000000,68.505531,-177.84325
3443000000,68.436325,178.53946
3444000000,68.272308,179.12477
3445000000,67.92749,177.57541
3446000000,68.154495,179.32506
3447000000,67.851158,175.29994
3448000000,67.81739,177.20403
3449000000,67.812309,174.87085
3450000000,67.480415,175.26813
3451000000,67.590149,172.9247
3452000000,67.202049,170.85764
3453000000,67.157097,173.7494
3454000000,66.75808,172.90752
3455000000,67.106194,169.94193
3456000000,66.712387,170.58481
3457000000,66.79567,168.01842
3458000000,66.658134,169.13008
3459000000,66.58773,171.07233
3460000000,66.573708,171.23549
3461000000,66.464767,169.46635
3462000000,66.123863,167.73019
3463000000,66.139351,166.29929
3464000000,66.095894,168.72818
3465000000,66.040253,168.12444
3466000000,65.760414,168.9234
3467000000,65.503273,163.853
3468000000,65.411003,169.68579
3469000000,65.38958,164.97917
3470000000,65.045563,163.7899
3471000000,64.994263,166.20563
3472000000,64.900833,167.71942
3473000000,64.819855,168.79234
3474000000,64.596085,171.67862
3475000000,64.502869,169.55698
3476000000,64.600372,166.416
3477000000,64.305382,168.06506
3478000000,64.281181,168.61076
3479000000,63.993176,170.57527
3480000000,63.920258,168.65169
3481000000,63.895969,168.25195
3482000000,63.866756,164.21368
3483000000,63.674309,164.41275
3484000000,63.565006,165.85913
3485000000,63.461037,165.56282
3486000000,63.078449,161.47818
3487000000,63.156513,162.6156
3488000000,63.125149,159.94096
3489000000,63.083431,161.58968
3490000000,62.839115,160.49779
3491000000,62.670284,160.66104
3492000000,62.42741,160.2952
3493000000,62.398895,161.77464
3494000000,62.563866,159.20061
3495000000,62.223114,160.29796
3496000000,62.057316,159.10477
3497000000,62.028458,162.24103
3498000000,61.905743,160.39209
3499000000,61.696247,161.73154
3500000000,61.653831,159.21069
3501000000,61.558079,155.70204
3502000000,61.239075,156.26991
3503000000,61.163906,163.79509
3504000000,60.951481,160.80321
3505000000,60.855537,158.31308
3506000000,60.720203,153.48872
3507000000,60.762688,158.25182
3508000000,60.591072,160.55113
3509000000,60.47998,157.96051
3510000000,60.454277,159.53592
3511000000,60.343273,157.48506
3512000000,60.262924,159.81244
3513000000,59.938175,158.6241
3514000000,59.811897,163.7865
3515000000,59.627403,159.48351
3516000000,59.531097,160.90408
3517000000,59.5541,163.99727
3518000000,59.382259,157.33508
3519000000,59.073986,162.94595
3520000000,58.947052,162.10765
3521000000,58.878323,158.74583
3522000000,58.832321,163.08336
3523000000,58.852612,161.41864
3524000000,58.788601,160.29993
3525000000,58.497704,158.25124
3526000000,58.430447,155.02303
3527000000,58.22543,154.00014
3528000000,57.999207,156.67299
3529000000,57.805225,155.76929
3530000000,57.967381,155.81532
3531000000,57.5923,153.94495
3532000000,57.602093,157.42128
3533000000,57.339249,153.75739
3534000000,56.986,152.90651
3535000000,57.208103,153.52739
3536000000,57.004642,156.63562
3537000000,57.119633,153.0679
3538000000,56.936604,148.52908
3539000000,56.808292,155.81725
3540000000,56.648438,147.9684
3541000000,56.376312,150.22305
3542000000,56.559227,146.86154
3543000000,56.138992,149.29515
3544000000,55.873989,147.2114
3545000000,55.962601,144.75885
3546000000,55.882401,147.35123
3547000000,55.587376,141.98546
3548000000,55.376015,142.29442
3549000000,55.343319,143.97316
3550000000,55.341278,144.20731
3551000000,55.030243,147.74344
3552000000,55.06897,144.83453
3553000000,54.805882,139.16048
3554000000,54.706596,143.83231
3555000000,54.563454,140.30182
3556000000,54.715374,142.55779
3557000000,54.560184,141.60764
3558000000,54.006306,138.82422
3559000000,54.051151,141.93666
3560000000,53.985847,141.93507
3561000000,53.869633,143.72173
3562000000,53.848106,140.44777
3563000000,53.458073,137.82233
3564000000,53.285721,140.47252
3565000000,53.216293,142.22838
3566000000,53.085949,137.01784
3567000000,53.053383,142.28163
3568000000,52.796738,144.80865
3569000000,52.572388,141.40259
3570000000,52.607113,138.76108
3571000000,52.518101,141.4984
3572000000,52.442749,140.38727
3573000000,52.498146,139.28702
3574000000,52.046349,147.16736
3575000000,51.64156,141.67979
3576000000,51.737946,140.04057
3577000000,51.752342,141.72363
3578000000,51.509567,136.03505
3579000000,51.206215,138.94559
3580000000,51.087772,137.44905
3581000000,51.089005,140.41426
3582000000,50.614407,133.74474
3583000000,50.69841,136.45958
3584000000,50.46883,135.56108
3585000000,50.612686,135.98314
3586000000,50.190506,136.80598
3587000000,50.427094,135.85248
3588000000,50.243484,138.11165
3589000000,49.986187,135.65544
3590000000,49.717777,134.2834
3591000000,49.462982,129.66507
3592000000,49.53067,132.96341
3593000000,49.373184,132.73784
3594000000,49.399673,132.48119
3595000000,49.084885,136.0401
3596000000,48.99004,137.3436
3597000000,48.827446,134.38159
3598000000,48.655006,132.02277
3599000000,48.500492,132.23119
3600000000,48.469002,130.60287
3601000000,48.247482,131.34378
3602000000,48.11116,130.88383
3603000000,47.991253,129.50214
3604000000,47.853474,130.97226
3605000000,47.822189,127.90584
3606000000,47.605476,128.67184
3607000000,47.33102,129.18916
3608000000,47.19212,128.43608
3609000000,47.213562,130.38489
3610000000,46.93552,130.43336
3611000000,46.743679,124.596
3612000000,46.724342,126.40899
3613000000,46.4869,128.00223
3614000000,46.344769,127.85467
3615000000,46.30476,125.3594
3616000000,46.148991,127.08588
3617000000,45.731754,122.13606
3618000000,45.83186,122.28597
3619000000,45.726368,128.2962
3620000000,45.558681,125.99594
3621000000,45.622704,126.43244
3622000000,44.808887,120.91764
3623000000,44.810837,119.88911
3624000000,44.82663,122.89191
3625000000,44.785938,123.85875
3626000000,44.508167,123.53178
3627000000,44.495934,120.33128
3628000000,44.328262,118.42369
3629000000,43.924084,120.59027
3630000000,43.913231,121.89974
3631000000,43.960812,117.4992
3632000000,43.624653,121.92836
3633000000,43.72934,119.95117
3634000000,43.47113,120.3453
3635000000,43.081543,120.25056
3636000000,43.080097,123.78159
3637000000,42.729355,117.68835
3638000000,42.744507,120.42538
3639000000,42.569431,120.83298
3640000000,42.276978,122.09055
3641000000,42.505798,119.91499
3642000000,41.928913,119.27861
3643000000,42.048611,118.94952
3644000000,41.866238,121.61155
3645000000,41.838127,119.27094
3646000000,41.463074,116.21456
3647000000,41.518448,121.47571
3648000000,41.136108,116.20042
3649000000,40.803509,116.8999
3650000000,40.756287,116.0694
3651000000,40.793835,116.15063
3652000000,40.554829,116.04645
3653000000,40.419819,117.37862
3654000000,40.016762,115.51432
3655000000,40.097168,117.4815
3656000000,39.682148,118.96812
3657000000,39.347385,117.28831
3658000000,39.480373,114.4312
3659000000,39.425735,116.65324
3660000000,39.246471,117.47283
3661000000,38.968227,113.59245
3662000000,39.076988,117.0144
3663000000,38.771038,113.09245
3664000000,38.684654,116.85499
3665000000,38.194828,115.68371
3666000000,38.14555,118.1702
3667000000,38.174957,113.05762
3668000000,37.91016,115.37276
3669000000,37.618912,114.73093
3670000000,37.50108,110.97181
3671000000,37.550056,116.40313
3672000000,37.315762,114.32748
3673000000,36.719177,117.48304
3674000000,36.780865,116.67442
3675000000,37.03933,114.54908
3676000000,36.547604,113.85627
3677000000,36.240017,117.98148
3678000000,35.922993,117.1883
3679000000,36.045784,118.48451
3680000000,35.811016,116.97446
3681000000,35.680149,118.01585
3682000000,35.387901,114.27362
3683000000,35.432507,114.7355
3684000000,35.207661,116.6022
3685000000,34.820641,115.61758
3686000000,34.780777,116.98669
3687000000,34.423031,115.31168
3688000000,34.191658,114.29193
3689000000,34.096581,115.82664
3690000000,33.903011,112.34419
3691000000,33.716335,115.86687
3692000000,33.977821,115.94085
3693000000,33.561096,115.10689
3694000000,33.290844,113.11451
3695000000,33.203087,116.84573
3696000000,33.11816,112.88976
3697000000,32.610943,111.78368
3698000000,32.648697,115.84352
3699000000,32.742188,114.13832
3700000000,32.067535,114.72395
3701000000,32.328598,115.09901
3702000000,31.591627,114.00333
3703000000,31.703604,114.1639
3704000000,31.471722,114.47257
3705000000,31.021416,112.25555
3706000000,30.949026,113.76559
3707000000,30.668823,113.42542
3708000000,30.698078,109.9476
3709000000,30.290646,110.52459
3710000000,30.154516,113.61754
3711000000,29.755999,111.70258
3712000000,29.753899,110.58121
3713000000,29.600588,108.99512
3714000000,29.455414,110.52922
3715000000,29.134634,110.21954
3716000000,29.070576,110.41412
3717000000,28.676949,107.80062
3718000000,28.61784,108.71848
3719000000,28.38055,107.65403
3720000000,28.286203,108.02273
3721000000,28.026884,109.39039
3722000000,27.775797,111.40163
3723000000,27.541714,107.62065
3724000000,27.304873,108.95117
3725000000,27.257389,107.23416
3726000000,26.855474,107.98787
3727000000,26.793829,108.44778
3728000000,26.450554,106.65651
3729000000,26.564402,108.92719
3730000000,26.185835,108.31918
3731000000,26.16824,107.91701
3732000000,25.581474,109.08185
3733000000,25.508303,109.38145
3734000000,25.392519,108.81731
3735000000,24.882441,109.36365
3736000000,24.822678,108.44236
3737000000,24.342636,106.14069
3738000000,24.449196,110.15687
3739000000,24.386492,108.45501
3740000000,23.795006,109.48583
3741000000,23.886013,109.13026
3742000000,23.36323,109.53316
3743000000,23.220121,110.16248
3744000000,23.170803,107.97263
3745000000,22.871834,108.60736
3746000000,22.359222,110.01748
3747000000,22.187508,108.37286
3748000000,22.17705,108.80416
3749000000,21.833773,106.73959
3750000000,21.641233,106.16505
3751000000,21.449736,105.04503
3752000000,21.184322,105.16435
3753000000,20.812557,105.75867
3754000000,20.750795,105.10091
3755000000,20.325068,103.13546
3756000000,20.286314,104.83147
3757000000,20.168657,103.72533
3758000000,20.031818,103.21597
3759000000,19.446171,102.34075
3760000000,19.225632,103.21827
3761000000,19.092081,103.22674
3762000000,18.7612,102.08368
3763000000,18.326298,102.63526
3764000000,18.335705,101.37183
3765000000,18.232101,101.60103
3766000000,17.902508,100.5637
3767000000,17.448906,98.812378
3768000000,17.385607,101.26129
3769000000,17.149624,101.01665
3770000000,16.688084,101.67657
3771000000,16.614193,100.27554
3772000000,16.457218,99.390144
3773000000,16.016512,101.08495
3774000000,15.917181,101.21392
3775000000,15.569081,100.74631
3776000000,15.516161,102.50591
3777000000,14.960897,101.16729
3778000000,14.523897,99.570038
3779000000,14.430902,100.19952
3780000000,14.189072,100.03698
3781000000,13.88448,101.41796
3782000000,13.738693,101.07047
3783000000,13.178901,99.365341
3784000000,13.142899,99.457207
3785000000,12.833035,99.153336
3786000000,12.489128,100.71013
3787000000,12.410614,99.091026
3788000000,12.044832,99.60907
3789000000,11.807648,99.547386
3790000000,11.570275,99.308311
3791000000,11.278898,99.988968
3792000000,10.978138,100.51884
3793000000,10.844563,99.764397
3794000000,10.277912,98.062241
3795000000,10.014621,99.254852
3796000000,9.7998877,98.592262
3797000000,9.6405478,99.317207
3798000000,9.1523466,98.016266
3799000000,9.1601963,96.673805
3800000000,8.8463411,97.06366
3801000000,8.2084208,96.391785
3802000000,7.9870348,96.184189
3803000000,7.7266326,95.810913
3804000000,7.4088378,95.066925
3805000000,7.2270789,94.444344
3806000000,6.943162,94.178513
3807000000,6.4776387,92.943497
3808000000,6.0137534,93.812622
3809000000,5.9978485,92.884819
3810000000,5.6636968,92.571198
3811000000,5.2282481,92.566414
3812000000,4.9549727,91.562325
3813000000,4.5243473,91.475273
3814000000,4.0110984,91.88369
3815000000,3.9241021,92.152855
3816000000,3.8063517,91.655739
3817000000,3.2447946,91.89431
3818000000,2.8934939,91.74118
3819000000,2.8543637,91.610237
3820000000,2.5574574,91.106621
3821000000,2.145412,91.037064
3822000000,1.8683946,91.520721
3823000000,1.5066699,92.037506
3824000000,0.88739371,92.393585
3825000000,0.68517756,92.577324
3826000000,0.15824392,92.680199
3827000000,0.03997162,91.15184
3828000000,-0.15576591,91.51796
3829000000,-0.62788153,92.028183
3830000000,-0.88668799,91.626617
3831000000,-1.3348671,91.625168
3832000000,-1.7576014,91.254318
3833000000,-2.0763218,91.421127
3834000000,-2.2208571,91.568642
3835000000,-2.6352515,91.076469
3836000000,-3.1132491,92.288437
3837000000,-3.3397739,91.024513
3838000000,-3.6602287,90.98391
3839000000,-4.1343837,91.179382
3840000000,-4.3104887,91.268906
3841000000,-4.8667169,89.838524
3842000000,-5.2857785,90.656548
3843000000,-5.6557703,90.216423
3844000000,-6.0731502,89.549896
3845000000,-6.318923,88.787941
3846000000,-6.7829871,88.525078
3847000000,-6.9098582,88.006996
3848000000,-7.5305238,87.834953
3849000000,-7.969038,87.263474
3850000000,-8.3154383,86.330986
3851000000,-8.7485657,86.658203
3852000000,-8.9705315,86.137283
3853000000,-9.71632,85.749756
3854000000,-9.7369986,85.874611
3855000000,-10.238353,85.286369
3856000000,-10.844066,85.622597
3857000000,-11.345371,85.553505
3858000000,-11.387408,85.000008
3859000000,-11.861526,85.021904
3860000000,-12.450027,85.474945
3861000000,-12.781531,85.7612
3862000000,-13.292839,85.53569
3863000000,-13.905654,85.056496
3864000000,-13.855664,85.131386
3865000000,-14.143785,85.10611
3866000000,-14.958867,84.674706
3867000000,-15.030811,84.9748
3868000000,-15.686872,85.4011
3869000000,-16.330481,84.372757
3870000000,-16.724043,84.680984
3871000000,-17.10482,84.87455
3872000000,-17.474508,84.114838
3873000000,-17.770981,83.943443
3874000000,-18.408852,84.558746
3875000000,-18.57498,84.655167
3876000000,-19.26108,84.280586
3877000000,-19.39411,83.983833
3878000000,-20.146393,84.404053
3879000000,-20.464388,83.92392
3880000000,-20.72965,82.956749
3881000000,-21.42955,83.393021
3882000000,-21.763855,82.938217
3883000000,-22.174129,83.196526
3884000000,-22.929193,82.15567
3885000000,-23.110653,83.223869
3886000000,-23.573614,82.414993
3887000000,-24.278442,81.245674
3888000000,-24.586819,81.596725
3889000000,-25.338223,81.023254
3890000000,-25.674252,80.362053
3891000000,-26.217287,80.364357
3892000000,-26.744423,80.49437
3893000000,-27.106531,80.293076
3894000000,-27.613373,79.677277
3895000000,-28.207207,79.349236
3896000000,-28.804199,79.039406
3897000000,-29.535921,78.178642
3898000000,-30.057207,77.954071
3899000000,-30.454199,77.709846
3900000000,-31.001379,77.659554
3901000000,-31.501633,77.604652
3902000000,-32.235718,77.178848
3903000000,-32.68449,77.760269
3904000000,-32.984985,77.773544
3905000000,-33.359844,77.564636
3906000000,-34.248489,78.046333
3907000000,-34.666515,78.319412
3908000000,-35.490494,77.695175
3909000000,-36.077423,78.073158
3910000000,-36.291317,77.815865
3911000000,-36.964462,78.134834
3912000000,-37.632336,77.505547
3913000000,-37.936993,77.707245
3914000000,-38.650333,77.097084
3915000000,-39.327404,77.586617
3916000000,-39.422935,76.898315
3917000000,-40.079914,76.748657
3918000000,-40.761002,76.974533
3919000000,-41.362221,76.237434
3920000000,-42.112659,76.403641
3921000000,-42.637947,75.919174
3922000000,-43.057621,76.105095
3923000000,-43.662292,75.730835
3924000000,-44.375908,74.785339
3925000000,-45.075996,75.276741
3926000000,-45.46883,74.828133
3927000000,-46.080574,74.259552
3928000000,-46.661232,73.83091
3929000000,-47.631695,73.418861
3930000000,-48.352676,73.312775
3931000000,-48.787655,72.795074
3932000000,-49.476807,72.63015
3933000000,-50.161991,72.085258
3934000000,-51.002419,72.039047
3935000000,-51.521473,70.871132
3936000000,-52.146114,71.01088
3937000000,-53.087067,70.585556
3938000000,-54.025703,70.157433
3939000000,-54.381702,70.353531
3940000000,-55.348282,69.994003
3941000000,-56.164089,69.962051
3942000000,-56.910583,69.338951
3943000000,-57.524128,69.50502
3944000000,-58.069237,68.841797
3945000000,-58.607899,68.9627
3946000000,-59.859341,68.90538
3947000000,-60.064281,69.009102
3948000000,-60.844086,68.530502
3949000000,-61.879719,68.403481
3950000000,-62.69445,67.899734
3951000000,-63.439487,67.950798
3952000000,-64.127335,67.705635
3953000000,-64.854088,67.712166
3954000000,-65.721001,67.41272
3955000000,-66.851349,66.860359
3956000000,-67.332603,66.719933
3957000000,-68.082916,66.91568
3958000000,-69.084351,66.413834
3959000000,-69.60556,66.271042
3960000000,-70.570107,65.712738
3961000000,-71.628639,65.996765
3962000000,-72.161217,65.774666
3963000000,-73.7948,65.481644
3964000000,-74.601845,65.166016
3965000000,-76.320992,64.976952
3966000000,-77.538239,64.592468
3967000000,-79.182732,64.515907
3968000000,-80.180336,64.613159
3969000000,-81.642151,63.911633
3970000000,-83.161247,63.986874
3971000000,-85.559799,64.086868
3972000000,-87.457916,64.043137
3973000000,-88.603539,63.953854
3974000000,-92.07048,63.336414
3975000000,-95.281754,63.178192
3976000000,-98.673241,62.38055
3977000000,-103.69576,62.447956
3978000000,-109.04822,62.02298
3979000000,-116.12554,62.176708
3980000000,-124.07753,61.360432
3981000000,-137.31915,61.444206
3982000000,-151.24327,60.973244
3983000000,-168.73149,60.775551
3984000000,173.7309,60.928616
3985000000,158.24754,60.659157
3986000000,146.33989,60.51067
3987000000,139.06096,60.41098
3988000000,131.55867,60.309895
3989000000,127.03033,59.803135
3990000000,122.31861,60.268246
3991000000,118.69593,60.034004
3992000000,115.87553,60.092728
3993000000,112.93615,59.946392
3994000000,111.08161,59.728161
3995000000,109.17916,59.690376
3996000000,107.6573,59.620605
3997000000,105.69416,59.273899
3998000000,103.98206,59.404152
3999000000,102.85431,58.769791
4000000000,101.67855,58.99453
4001000000,99.820602,58.47567
4002000000,98.830841,58.639469
4003000000,97.905609,58.529728
4004000000,97.055046,58.307755
4005000000,96.076431,58.422871
4006000000,94.785126,58.22242
4007000000,93.806931,58.247253
4008000000,92.758522,58.213142
4009000000,91.957024,58.014198
4010000000,90.961288,58.297211
4011000000,90.059479,58.150196
4012000000,89.147896,58.30703
4013000000,88.34697,57.915409
4014000000,87.568718,57.96067
4015000000,86.806847,57.806229
4016000000,85.401329,57.340847
4017000000,85.338776,57.602947
4018000000,84.488556,57.678249
4019000000,83.376839,57.090187
4020000000,82.687813,57.219929
4021000000,81.90728,56.66404
4022000000,81.422501,56.70052
4023000000,80.356842,56.668106
4024000000,79.492554,56.30772
4025000000,78.850151,56.264904
4026000000,78.038284,56.181793
4027000000,77.482399,55.969231
4028000000,76.652275,56.014492
4029000000,75.79026,55.68327
4030000000,75.328476,55.71431
4031000000,74.307449,55.82095
4032000000,73.389557,55.847244
4033000000,73.078529,56.026897
4034000000,72.133232,55.345898
4035000000,71.375214,55.553246
4036000000,70.78524,55.47628
4037000000,69.985435,55.298569
4038000000,69.049751,54.918186
4039000000,68.34996,54.831379
4040000000,67.984253,54.508537
4041000000,67.236557,54.502434
4042000000,66.558952,54.726406
4043000000,65.929138,54.301849
4044000000,64.879539,54.41185
4045000000,64.564491,54.435272
4046000000,63.77412,54.277161
4047000000,63.086266,54.242214
4048000000,62.357655,54.09034
4049000000,61.708908,54.096275
4050000000,61.151764,54.246357
4051000000,60.399063,54.022652
4052000000,59.733303,54.20784
4053000000,58.940361,54.21489
4054000000,58.252354,54.035484
4055000000,57.856766,54.256618
4056000000,57.110947,53.988064
4057000000,56.506046,54.015266
4058000000,55.574162,53.675396
4059000000,55.341843,53.651913
4060000000,54.677498,53.930119
4061000000,53.697037,53.283577
4062000000,53.273369,53.382622
4063000000,52.565838,53.162201
4064000000,51.77388,53.197197
4065000000,51.277447,52.816265
4066000000,50.649529,52.764545
4067000000,50.086563,52.660645
4068000000,49.342175,52.691742
4069000000,48.783634,52.599514
4070000000,48.098648,52.426228
4071000000,47.374939,52.497665
4072000000,46.768223,52.280247
4073000000,46.025608,52.255314
4074000000,45.878559,52.169865
4075000000,45.181019,51.849876
4076000000,44.23074,51.733982
4077000000,43.902256,51.559246
4078000000,43.257458,51.529381
4079000000,42.616032,51.039654
4080000000,41.878284,50.853767
4081000000,41.456059,50.591122
4082000000,40.818577,50.628086
4083000000,40.169235,50.516865
4084000000,39.401348,50.03091
4085000000,38.983692,50.306431
4086000000,38.690613,50.401733
4087000000,37.657269,50.040588
4088000000,37.109921,49.961075
4089000000,36.725662,49.816929
4090000000,36.274174,50.000969
4091000000,35.596596,49.654709
4092000000,34.977135,49.77718
4093000000,34.30476,49.651779
4094000000,33.790451,49.426266
4095000000,33.000557,49.280052
4096000000,32.362411,49.317776
4097000000,32.029598,49.174133
4098000000,31.190376,48.670311
4099000000,30.438046,48.578915
4100000000,30.051426,48.367958
4101000000,29.50012,48.266491
4102000000,28.915947,47.966515
4103000000,28.433924,47.796997
4104000000,27.783018,47.501415
4105000000,27.233128,47.654331
4106000000,26.596397,47.433857
4107000000,25.97393,47.090298
4108000000,25.463009,46.915352
4109000000,25.189053,46.950581
4110000000,24.119204,46.470608
4111000000,23.874893,46.272064
4112000000,22.962763,46.00161
4113000000,22.754318,46.083294
4114000000,21.963253,45.646965
4115000000,21.36021,45.672802
4116000000,20.768387,45.219597
4117000000,20.316713,45.123234
4118000000,19.962849,44.827885
4119000000,19.246605,44.85725
4120000000,18.713301,44.44878
4121000000,18.245783,44.414547
4122000000,17.840897,44.391823
4123000000,16.86335,43.878288
4124000000,16.519249,43.854347
4125000000,15.664964,43.57975
4126000000,15.559907,43.385326
4127000000,14.67804,43.172764
4128000000,14.083252,42.802742
4129000000,13.702343,42.73914
4130000000,13.131273,42.353622
4131000000,12.665374,42.257366
4132000000,11.606,41.566257
4133000000,11.477773,41.587135
4134000000,10.685287,41.177303
4135000000,10.343406,41.232456
4136000000,9.5243092,40.835655
4137000000,9.0448341,40.542927
4138000000,8.4151716,40.156158
4139000000,8.0130768,40.021217
4140000000,7.3282833,39.736305
4141000000,6.6144156,39.432404
4142000000,6.1732483,39.239902
4143000000,5.5240717,38.834934
4144000000,4.9028745,38.73106
4145000000,4.3261647,38.322128
4146000000,3.8987579,38.212257
4147000000,3.539495,37.965611
4148000000,3.1131518,37.83728
4149000000,2.2455633,37.310612
4150000000,1.647468,37.081215
4151000000,0.93793535,36.62606
4152000000,0.66499722,36.528824
4153000000,-0.032663092,36.012611
4154000000,-0.46100602,35.833324
4155000000,-1.1453297,35.547256
4156000000,-2.033596,35.192352
4157000000,-2.2942169,34.997917
4158000000,-2.855495,34.524895
4159000000,-3.3058763,34.361961
4160000000,-4.1004066,34.032139
4161000000,-4.4854326,33.821003
4162000000,-5.3443317,33.407017
4163000000,-5.6553211,33.254734
4164000000,-6.1296411,32.771049
4165000000,-6.7886291,32.727776
4166000000,-7.4620142,32.226715
4167000000,-7.8142667,32.213608
4168000000,-8.6010857,31.671568
4169000000,-9.222353,31.157356
4170000000,-9.608777,30.972221
4171000000,-10.400307,30.572613
4172000000,-10.750111,30.358278
4173000000,-11.383167,30.017015
4174000000,-12.01266,29.696198
4175000000,-12.737651,29.261959
4176000000,-13.259112,28.899361
4177000000,-13.61869,28.635511
4178000000,-14.411491,28.11743
4179000000,-14.840452,27.743767
4180000000,-15.373131,27.414829
4181000000,-16.080662,26.794445
4182000000,-16.51412,26.593252
4183000000,-17.196272,26.025623
4184000000,-17.486328,25.895733
4185000000,-18.244511,25.531601
4186000000,-18.866356,24.966534
4187000000,-19.54048,24.479202
4188000000,-20.066269,24.149363
4189000000,-20.229132,24.032526
4190000000,-21.024128,23.53948
4191000000,-21.858547,22.932249
4192000000,-22.312777,22.732401
4193000000,-22.820959,22.385328
4194000000,-23.218405,22.094143
4195000000,-23.88975,21.573908
4196000000,-24.737074,20.96088
4197000000,-25.100473,20.60482
4198000000,-25.354906,20.637545
4199000000,-26.12118,20.040815
4200000000,-26.644642,19.627043
4201000000,-27.288212,19.232409
4202000000,-27.787712,18.891436
4203000000,-28.637897,18.301512
4204000000,-29.040592,18.00264
4205000000,-29.27108,17.720623
4206000000,-30.305956,16.996618
4207000000,-30.784046,16.551725
4208000000,-31.135838,16.403727
4209000000,-31.778214,15.853584
4210000000,-32.506504,15.317154
4211000000,-33.006702,14.926458
4212000000,-33.484505,14.510809
4213000000,-34.207062,14.076932
4214000000,-34.762974,13.682283
4215000000,-35.308117,13.075337
4216000000,-35.782341,12.740163
4217000000,-36.229267,12.432845
4218000000,-37.075184,11.656861
4219000000,-37.16964,11.460762
4220000000,-38.129467,10.932384
4221000000,-38.576946,10.559297
4222000000,-39.182247,10.05979
4223000000,-39.648037,9.5869598
4224000000,-39.899712,9.14781
4225000000,-41.040359,8.3935604
4226000000,-41.426289,8.0124502
4227000000,-41.752632,7.6592374
4228000000,-42.648716,7.1260304
4229000000,-43.059891,6.4398346
4230000000,-43.470089,6.3354344
4231000000,-44.288029,5.6496964
4232000000,-44.891483,5.1780238
4233000000,-45.428936,4.7488556
4234000000,-45.920727,4.3087912
4235000000,-46.420731,3.7455835
4236000000,-47.008869,3.2530496
4237000000,-47.594688,2.5113876
4238000000,-48.184284,2.1006198
4239000000,-48.442432,1.8181152
4240000000,-49.048298,1.3860993
4241000000,-49.622181,0.90310937
4242000000,-50.089821,0.44397289
4243000000,-50.416229,-0.29748836
4244000000,-50.990562,-0.73073673
4245000000,-51.601421,-1.4652207
4246000000,-52.223679,-1.8521981
4247000000,-52.756256,-2.3373473
4248000000,-53.208824,-2.7378495
4249000000,-53.709454,-3.101079
4250000000,-54.336643,-3.6958196
4251000000,-54.773903,-3.9970093
4252000000,-55.614697,-4.9779682
4253000000,-55.875618,-5.3114123
4254000000,-56.455521,-5.6646919
4255000000,-57.317356,-6.3771706
4256000000,-57.571411,-6.627914
4257000000,-58.022976,-7.3780532
4258000000,-58.814793,-8.1261883
4259000000,-59.256351,-8.5302467
4260000000,-59.795952,-8.9712553
4261000000,-60.240494,-9.5524969
4262000000,-60.421867,-9.964716
4263000000,-61.280846,-10.692117
4264000000,-61.671165,-11.029361
4265000000,-61.849667,-11.699699
4266000000,-62.711231,-12.380054
4267000000,-62.831688,-12.823154
4268000000,-63.423416,-13.441453
4269000000,-63.895157,-13.969234
4270000000,-64.286781,-14.534989
4271000000,-64.603249,-14.964231
4272000000,-65.080261,-15.439028
4273000000,-65.856033,-16.059895
4274000000,-66.242226,-16.639385
4275000000,-66.69487,-17.230061
4276000000,-67.158119,-17.887886
4277000000,-67.371048,-18.50173
4278000000,-68.154007,-18.999472
4279000000,-68.455231,-19.366611
4280000000,-68.860405,-20.05633
4281000000,-69.215775,-20.732851
4282000000,-69.576645,-21.076378
4283000000,-70.015556,-21.686995
4284000000,-70.494736,-22.214182
4285000000,-71.078232,-22.825605
4286000000,-71.216316,-23.144663
4287000000,-72.088043,-23.985575
4288000000,-72.250824,-24.540525
4289000000,-72.280777,-25.020071
4290000000,-72.662338,-25.62776
4291000000,-73.148476,-26.150326
4292000000,-73.847076,-26.911865
4293000000,-73.777725,-27.385605
4294000000,-74.143456,-28.036356
4295000000,-74.493271,-28.598791
4296000000,-74.90522,-29.218054
4297000000,-75.240128,-29.851486
4298000000,-75.46402,-30.292723
4299000000,-75.832886,-31.057089
4300000000,-76.434212,-31.707197
4301000000,-76.480804,-32.067043
4302000000,-76.864708,-32.552063
4303000000,-76.993568,-33.104588
4304000000,-77.415909,-33.874752
4305000000,-77.330994,-34.345253
4306000000,-78.035469,-35.115414
4307000000,-78.421486,-35.677578
4308000000,-78.495926,-36.151463
4309000000,-78.835159,-36.735565
4310000000,-79.218323,-37.480141
4311000000,-79.58567,-38.140854
4312000000,-79.59304,-38.599907
4313000000,-80.047531,-39.15424
4314000000,-80.435699,-39.768501
4315000000,-80.572426,-40.313034
4316000000,-80.623352,-40.852016
4317000000,-81.062912,-41.507858
4318000000,-81.35688,-42.011791
4319000000,-81.445419,-42.78017
4320000000,-81.699753,-43.090446
4321000000,-82.057701,-43.784264
4322000000,-82.31546,-44.299461
4323000000,-82.435585,-45.045128
4324000000,-82.587677,-45.504265
4325000000,-82.826645,-46.251457
4326000000,-83.044609,-46.758167
4327000000,-83.175201,-47.460014
4328000000,-83.345833,-47.823032
4329000000,-83.855888,-48.50996
4330000000,-83.830994,-49.09045
4331000000,-84.380028,-49.848724
4332000000,-84.275871,-50.176838
4333000000,-84.252838,-50.725445
4334000000,-84.382423,-51.261616
4335000000,-84.641777,-51.851109
4336000000,-85.094864,-52.541725
4337000000,-85.156761,-52.977001
4338000000,-85.379097,-53.778851
4339000000,-85.617775,-54.320332
4340000000,-85.946953,-54.991528
4341000000,-86.034058,-55.318325
4342000000,-86.42527,-56.299137
4343000000,-86.501106,-56.611328
4344000000,-86.84716,-57.019245
4345000000,-87.235535,-57.737446
4346000000,-87.148468,-58.175797
4347000000,-87.659019,-58.892311
4348000000,-87.879311,-59.431492
4349000000,-88.096413,-59.775028
4350000000,-88.075439,-60.483189
4351000000,-88.633553,-61.081356
4352000000,-88.688461,-61.539486
4353000000,-89.201065,-62.0485
4354000000,-89.867294,-62.84906
4355000000,-89.790108,-63.218887
4356000000,-90.065109,-63.933937
4357000000,-90.261902,-64.465714
4358000000,-90.477501,-64.994972
4359000000,-90.847412,-65.432045
4360000000,-91.018623,-66.133461
4361000000,-91.351692,-66.40889
4362000000,-91.800308,-67.056953
4363000000,-92.135155,-67.486893
4364000000,-92.12973,-68.167007
4365000000,-92.778793,-68.667213
4366000000,-93.167412,-69.305244
4367000000,-93.64505,-69.72435
4368000000,-93.491875,-70.190414
4369000000,-93.814095,-70.710205
4370000000,-94.089912,-71.285393
4371000000,-94.562996,-71.791702
4372000000,-94.97934,-72.552338
4373000000,-95.345497,-73.113335
4374000000,-95.755341,-73.507996
4375000000,-96.196541,-73.948463
4376000000,-96.731094,-74.600395
4377000000,-97.333603,-75.313148
4378000000,-97.298904,-75.659523
4379000000,-97.648659,-76.258209
4380000000,-98.334,-76.701675
4381000000,-98.794861,-77.395889
4382000000,-98.949333,-77.721413
4383000000,-99.212173,-78.22776
4384000000,-99.762573,-78.793297
4385000000,-100.16949,-79.343376
4386000000,-100.44732,-79.837509
4387000000,-100.85126,-80.44796
4388000000,-101.32191,-80.826241
4389000000,-101.84888,-81.340569
4390000000,-102.27789,-81.833786
4391000000,-102.83741,-82.506599
4392000000,-103.14974,-82.897675
4393000000,-103.67651,-83.260139
4394000000,-103.91143,-83.867607
4395000000,-104.34893,-84.217873
4396000000,-105.56181,-84.876266
4397000000,-105.8025,-85.421791
4398000000,-106.04306,-85.774017
4399000000,-106.28923,-86.240479
4400000000,-106.86606,-86.750877
4401000000,-107.44433,-87.302025
4402000000,-108.11423,-87.730675
4403000000,-108.63435,-88.211349
4404000000,-108.89925,-88.649055
4405000000,-109.65344,-89.260849
4406000000,-110.43096,-89.704605
4407000000,-110.57997,-90.283058
4408000000,-111.0882,-90.754364
4409000000,-111.62826,-91.137711
4410000000,-112.15734,-91.377144
4411000000,-112.46227,-92.124245
4412000000,-112.94617,-92.498756
4413000000,-113.81495,-93.234932
4414000000,-113.99565,-93.505898
4415000000,-114.71979,-94.031944
4416000000,-115.04607,-94.488464
4417000000,-115.58362,-94.984604
4418000000,-116.528,-95.334175
4419000000,-116.76929,-95.777092
4420000000,-117.39479,-96.374146
4421000000,-117.36831,-96.56424
4422000000,-118.25363,-97.192047
4423000000,-118.79787,-97.764076
4424000000,-119.31689,-98.13382
4425000000,-119.90538,-98.563881
4426000000,-120.48429,-99.039108
4427000000,-121.03823,-99.39888
4428000000,-121.67924,-99.997055
4429000000,-122.38064,-100.57657
4430000000,-122.51992,-100.7668
4431000000,-123.10422,-101.3533
4432000000,-123.86459,-101.87813
4433000000,-124.43989,-102.21618
4434000000,-124.76514,-102.74494
4435000000,-125.28853,-103.13146
4436000000,-125.95187,-103.54748
4437000000,-126.24992,-104.00906
4438000000,-127.23677,-104.62517
4439000000,-127.34679,-104.82145
4440000000,-128.19565,-105.3461
4441000000,-128.73354,-105.76939
4442000000,-129.31604,-106.27681
4443000000,-129.80598,-106.6499
4444000000,-130.26869,-106.99094
4445000000,-131.06795,-107.52091
4446000000,-131.4501,-108.00224
4447000000,-132.01065,-108.27995
4448000000,-132.47662,-108.87512
4449000000,-133.19341,-109.44244
4450000000,-133.86046,-109.75403
4451000000,-134.25391,-110.2459
4452000000,-134.91577,-110.39321
4453000000,-135.50948,-110.94534
4454000000,-135.87459,-111.2824
4455000000,-136.20468,-111.79321
4456000000,-137.0627,-112.26269
4457000000,-137.29768,-112.52093
4458000000,-138.14632,-112.94572
4459000000,-138.67995,-113.30945
4460000000,-138.98746,-113.74499
4461000000,-139.73917,-114.23449
4462000000,-140.30074,-114.51212
4463000000,-140.87155,-114.97706
4464000000,-141.31325,-115.45081
4465000000,-142.20862,-115.82216
4466000000,-142.39413,-116.08284
4467000000,-143.24805,-116.74159
4468000000,-143.44655,-117.01289
4469000000,-144.2626,-117.45323
4470000000,-144.60788,-117.81357
4471000000,-145.18539,-118.18797
4472000000,-145.70613,-118.56587
4473000000,-146.02438,-118.99596
4474000000,-146.67555,-119.34888
4475000000,-147.2717,-119.82642
4476000000,-147.97621,-120.23421
4477000000,-148.3763,-120.5644
4478000000,-149.13933,-121.16466
4479000000,-149.27046,-121.46992
4480000000,-149.97658,-121.70922
4481000000,-150.70145,-122.0734
4482000000,-150.88156,-122.42325
4483000000,-151.41898,-122.85491
4484000000,-151.81514,-123.29019
4485000000,-152.73289,-123.72049
4486000000,-153.09952,-124.04882
4487000000,-153.63959,-124.55406
4488000000,-154.10277,-124.78388
4489000000,-154.32904,-125.33863
4490000000,-155.1826,-125.43753
4491000000,-155.5511,-126.08916
4492000000,-156.3624,-126.40911
4493000000,-156.72334,-126.80577
4494000000,-156.90405,-127.21832
4495000000,-157.57426,-127.2745
4496000000,-158.18176,-128.0121
4497000000,-158.7028,-128.19994
4498000000,-159.20128,-128.62671
4499000000,-159.70322,-128.94655
4500000000,-160.26218,-129.21967
4501000000,-160.77344,-129.78728
4502000000,-160.94464,-130.01419
4503000000,-161.65849,-130.27829
4504000000,-162.34233,-130.79131
4505000000,-162.73344,-131.12483
4506000000,-163.17531,-131.61307
4507000000,-163.62856,-131.87585
4508000000,-164.14952,-132.03618
4509000000,-164.50754,-132.40935
4510000000,-165.00175,-132.90446
4511000000,-165.85518,-133.40892
4512000000,-166.15216,-133.55693
4513000000,-166.63675,-133.98653
4514000000,-167.13052,-134.35806
4515000000,-167.65871,-134.80624
4516000000,-167.9912,-134.97189
4517000000,-168.56111,-135.42116
4518000000,-168.93019,-135.87538
4519000000,-169.47943,-136.07515
4520000000,-169.91856,-136.59192
4521000000,-170.44875,-136.74626
4522000000,-170.8746,-137.20551
4523000000,-171.57426,-137.49352
4524000000,-171.9567,-137.84599
4525000000,-172.35289,-138.26396
4526000000,-172.91809,-138.63156
4527000000,-173.41653,-138.89424
4528000000,-173.65634,-139.06601
4529000000,-174.2753,-139.63138
4530000000,-174.76241,-139.89375
4531000000,-174.98015,-140.31197
4532000000,-175.68256,-140.61348
4533000000,-176.22069,-141.0302
4534000000,-176.60385,-141.32805
4535000000,-176.86848,-141.68649
4536000000,-177.62129,-142.02722
4537000000,-178.06863,-142.34891
4538000000,-178.38362,-142.73073
4539000000,-178.81451,-142.89996
4540000000,-179.15309,-143.31
4541000000,-179.69826,-143.67285
4542000000,-179.94196,-144.0161
4543000000,179.31189,-144.27747
4544000000,179.06825,-144.54063
4545000000,178.317,-145.03462
4546000000,178.10641,-145.41745
4547000000,177.70952,-145.62514
4548000000,177.28043,-145.97525
4549000000,176.7211,-146.41347
4550000000,176.41754,-146.56267
4551000000,175.71237,-147.1382
4552000000,175.30688,-147.3338
4553000000,175.02362,-147.59352
4554000000,174.67624,-147.97627
4555000000,174.11441,-148.34926
4556000000,173.55316,-148.73024
4557000000,173.29761,-148.97742
4558000000,172.96773,-149.25819
4559000000,172.33588,-149.63022
4560000000,172.08508,-149.91379
4561000000,171.58611,-150.23026
4562000000,170.97215,-150.6799
4563000000,170.54167,-150.89949
4564000000,170.24106,-151.26735
4565000000,169.76373,-151.55779
4566000000,169.22914,-151.78311
4567000000,168.90511,-152.08755
4568000000,168.41011,-152.50034
4569000000,168.02795,-152.7751
4570000000,167.83687,-153.0183
4571000000,167.27051,-153.45815
4572000000,166.85188,-153.88924
4573000000,166.22232,-154.15605
4574000000,166.08499,-154.33168
4575000000,165.71751,-154.5499
4576000000,165.04668,-154.96959
4577000000,164.82381,-155.31944
4578000000,164.25662,-155.58687
4579000000,163.99698,-155.85139
4580000000,163.52168,-156.1696
4581000000,163.08936,-156.64581
4582000000,162.73634,-156.80022
4583000000,162.48109,-157.00038
4584000000,161.93796,-157.44916
4585000000,161.62256,-157.62393
4586000000,161.28534,-157.94611
4587000000,160.80923,-158.33243
4588000000,160.46101,-158.57274
4589000000,160.15685,-158.89555
4590000000,159.66399,-159.20862
4591000000,159.21457,-159.54245
4592000000,158.84348,-159.89844
4593000000,158.58453,-160.19736
4594000000,158.1331,-160.61874
4595000000,157.75107,-160.6713
4596000000,157.41753,-161.10149
4597000000,156.91872,-161.45354
4598000000,156.63423,-161.70895
4599000000,156.19215,-161.98682
4600000000,155.94566,-162.19711
4601000000,155.34328,-162.57266
4602000000,154.95259,-162.95932
4603000000,154.57101,-163.22585
4604000000,154.43417,-163.47653
4605000000,154.02802,-163.6812
4606000000,153.65988,-163.9709
4607000000,153.46527,-164.2963
4608000000,153.04425,-164.44444
4609000000,152.48993,-164.90497
4610000000,152.25487,-165.08606
4611000000,151.75217,-165.38354
4612000000,151.46114,-165.79001
4613000000,151.01659,-166.02664
4614000000,150.62366,-166.39993
4615000000,150.33015,-166.68404
4616000000,149.86806,-166.96732
4617000000,149.52905,-167.48471
4618000000,149.33975,-167.50072
4619000000,148.86397,-167.87601
4620000000,148.50427,-168.13632
4621000000,148.0428,-168.41049
4622000000,147.98541,-168.49825
4623000000,147.38884,-168.92639
4624000000,147.01851,-169.23599
4625000000,146.49318,-169.64194
4626000000,146.31859,-169.819
4627000000,145.88252,-169.99168
4628000000,145.60371,-170.39476
4629000000,145.35068,-170.67386
4630000000,145.10176,-170.96906
4631000000,144.61742,-171.07297
4632000000,144.39821,-171.37366
4633000000,143.84325,-171.8988
4634000000,143.52277,-171.96043
4635000000,143.33197,-172.32973
4636000000,142.85638,-172.66954
4637000000,142.41483,-172.9283
4638000000,142.4397,-173.02834
4639000000,141.85744,-173.48033
4640000000,141.39496,-173.73465
4641000000,141.25241,-173.86398
4642000000,140.96204,-174.31296
4643000000,140.53429,-174.68431
4644000000,140.03304,-174.81454
4645000000,140.00131,-175.07227
4646000000,139.47658,-175.59778
4647000000,139.37428,-175.60931
4648000000,139.05424,-175.73676
4649000000,138.49673,-176.2925
4650000000,138.52472,-176.42957
4651000000,137.79376,-176.78564
4652000000,137.70189,-176.88174
4653000000,137.37926,-177.26685
4654000000,136.88258,-177.65788
4655000000,136.57668,-177.8618
4656000000,136.1944,-178.19038
4657000000,136.05334,-178.33458
4658000000,135.68858,-178.56375
4659000000,135.33005,-178.87535
4660000000,134.89528,-179.28189
4661000000,134.96465,-179.36417
4662000000,134.41101,-179.75482
4663000000,134.11887,-179.97682
4664000000,133.77148,179.87946
4665000000,133.31009,179.35899
4666000000,133.17986,179.15691
4667000000,132.69699,178.91354
4668000000,132.16182,178.43742
4669000000,131.95154,178.34904
4670000000,131.80591,178.17276
4671000000,131.25177,177.66423
4672000000,130.92165,177.50978
4673000000,130.65805,177.17372
4674000000,130.5233,177.06194
4675000000,130.24583,176.70375
4676000000,129.77571,176.47766
4677000000,129.33511,176.05296
4678000000,128.82613,175.84616
4679000000,128.75873,175.61189
4680000000,128.51651,175.47195
4681000000,128.06204,175.16719
4682000000,128.12563,175.03914
4683000000,127.51897,174.64899
4684000000,127.3098,174.39804
4685000000,126.84896,173.86038
4686000000,126.93616,173.86961
4687000000,126.53479,173.59549
4688000000,126.03389,173.29321
4689000000,125.82384,173.16077
4690000000,125.55665,172.71149
4691000000,125.32999,172.60196
4692000000,124.8641,172.35904
4693000000,124.64515,171.89313
4694000000,124.34047,171.68971
4695000000,124.24489,171.57857
4696000000,123.57274,171.09425
4697000000,123.71544,171.15875
4698000000,123.13539,170.58266
4699000000,122.89677,170.36938
4700000000,122.55474,170.02335
4701000000,122.28715,169.92877
4702000000,121.95184,169.70256
4703000000,121.60902,169.24452
4704000000,121.29426,169.05235
4705000000,121.18448,168.92485
4706000000,121.06248,168.74013
4707000000,120.54705,168.43993
4708000000,120.30381,168.07732
4709000000,119.87817,167.67757
4710000000,119.54585,167.28619
4711000000,119.20383,167.20601
4712000000,119.04103,166.9803
4713000000,118.73737,166.74495
4714000000,118.65361,166.48717
4715000000,118.15539,166.14308
4716000000,117.97757,165.92387
4717000000,117.64904,165.77472
4718000000,117.32105,165.48203
4719000000,117.1116,165.106
4720000000,116.83228,165.10609
4721000000,116.56636,164.72609
4722000000,116.3312,164.47537
4723000000,116.04524,164.34349
4724000000,115.68288,163.89172
4725000000,115.22888,163.49352
4726000000,115.06346,163.40526
4727000000,114.85784,163.17516
4728000000,114.66801,163.01111
4729000000,114.36806,162.74867
4730000000,114.09042,162.39264
4731000000,113.79083,162.35312
4732000000,113.55482,162.01949
4733000000,113.06725,161.46899
4734000000,112.96461,161.46774
4735000000,112.70272,161.30348
4736000000,112.63158,161.04121
4737000000,112.25172,160.74826
4738000000,111.94855,160.3812
4739000000,111.57252,160.07176
4740000000,111.24967,159.7852
4741000000,111.15956,159.65527
4742000000,111.00455,159.59271
4743000000,110.52203,159.11633
4744000000,110.26997,158.85883
4745000000,110.07887,158.64302
4746000000,109.90995,158.47624
4747000000,109.57522,158.15396
4748000000,109.2773,157.87456
4749000000,109.22345,157.73683
4750000000,108.85117,157.34491
4751000000,108.6739,157.14729
4752000000,108.11257,156.79597
4753000000,108.25543,156.77481
4754000000,107.74727,156.3708
4755000000,107.39945,156.06494
4756000000,106.9284,155.7278
4757000000,106.82656,155.52292
4758000000,106.86275,155.37766
4759000000,106.34152,155.00888
4760000000,106.29325,154.87077
4761000000,105.95029,154.54686
4762000000,105.61819,154.38962
4763000000,105.29934,154.02666
4764000000,105.35491,154.04106
4765000000,105.06938,153.51881
4766000000,104.76863,153.40402
4767000000,104.26734,152.99092
4768000000,104.2196,152.854
4769000000,103.94684,152.64549
4770000000,103.81976,152.36957
4771000000,103.67007,152.26897
4772000000,103.15865,151.93637
4773000000,102.91995,151.65233
4774000000,102.58304,151.31151
4775000000,102.48628,151.15636
4776000000,102.4703,151.02505
4777000000,101.82414,150.63878
4778000000,101.72426,150.2995
4779000000,101.50642,150.09535
4780000000,101.16885,149.76868
4781000000,101.19162,149.6537
4782000000,100.84702,149.27905
4783000000,100.37833,149.04819
4784000000,100.18426,148.83981
4785000000,100.04088,148.63843
4786000000,99.710426,148.26295
4787000000,99.604301,148.14018
4788000000,99.411293,147.97649
4789000000,98.928444,147.50739
4790000000,98.733635,147.18353
4791000000,98.669579,147.10583
4792000000,98.359901,146.68875
4793000000,98.122711,146.49704
4794000000,97.847832,146.47115
4795000000,97.499138,146.02824
4796000000,97.343315,145.7233
4797000000,97.079796,145.66574
4798000000,96.921158,145.36859
4799000000,96.74453,145.14127
4800000000,96.469589,144.91815
4801000000,96.011475,144.52109
4802000000,95.810524,144.33659
4803000000,95.762611,144.0811
4804000000,95.593872,143.785
4805000000,95.302269,143.62227
4806000000,95.237671,143.29634
4807000000,94.893723,143.22426
4808000000,94.568054,142.80765
4809000000,94.543671,142.62036
4810000000,94.065849,142.17271
4811000000,93.972794,142.08295
4812000000,93.72274,141.85535
4813000000,93.649719,141.68077
4814000000,93.263443,141.29729
4815000000,92.931061,141.01628
4816000000,92.716858,140.77481
4817000000,92.695999,140.57312
4818000000,92.324432,140.28474
4819000000,91.999222,139.92111
4820000000,92.029266,139.78911
4821000000,91.532066,139.45328
4822000000,91.404007,139.28595
4823000000,91.207916,139.11858
4824000000,90.754929,138.64241
4825000000,90.786392,138.68954
4826000000,90.790298,138.48148
4827000000,90.449188,138.05757
4828000000,90.364861,137.80984
4829000000,90.078568,137.52191
4830000000,89.934929,137.34782
4831000000,89.462029,136.92339
4832000000,89.52459,136.91161
4833000000,88.979576,136.54788
4834000000,89.014816,136.26044
4835000000,88.833519,136.13203
4836000000,88.463417,135.82076
4837000000,88.233063,135.75052
4838000000,88.075569,135.26529
4839000000,87.838852,135.07835
4840000000,87.509575,134.69551
4841000000,87.414307,134.52847
4842000000,87.081009,134.19315
4843000000,87.115311,133.95859
4844000000,86.974808,133.89078
4845000000,86.37796,133.48878
4846000000,86.676811,133.2617
4847000000,86.108315,132.95058
4848000000,85.894867,132.78239
4849000000,86.121155,132.65251
4850000000,85.508675,132.27023
4851000000,85.481316,132.09033
4852000000,85.189674,131.73398
4853000000,84.968002,131.54051
4854000000,84.921631,131.42209
4855000000,84.556953,130.9373
4856000000,84.489677,130.78513
4857000000,84.151749,130.4966
4858000000,83.738045,130.08131
4859000000,83.729591,129.95303
4860000000,83.361931,129.71031
4861000000,83.463577,129.43198
4862000000,83.408226,129.22125
4863000000,82.885193,128.85001
4864000000,82.613014,128.53952
4865000000,82.82103,128.46738
4866000000,82.683754,128.24585
4867000000,82.179916,127.84793
4868000000,82.249207,127.81642
4869000000,82.019821,127.54414
4870000000,81.66201,127.075
4871000000,81.231712,126.865
4872000000,81.07,126.54319
4873000000,81.016762,126.29861
4874000000,80.842239,126.03999
4875000000,80.875565,125.92656
4876000000,80.582672,125.66823
4877000000,80.400101,125.38143
4878000000,80.135849,125.04003
4879000000,80.065849,124.82877
4880000000,79.887283,124.58456
4881000000,79.705399,124.27074
4882000000,79.41568,124.09354
4883000000,79.296165,123.89809
4884000000,79.391853,123.75464
4885000000,78.895905,123.28396
4886000000,78.586571,122.981
4887000000,78.553108,122.87075
4888000000,78.330856,122.52724
4889000000,78.190216,122.15044
4890000000,78.031815,122.02066
4891000000,78.002167,121.9091
4892000000,77.46302,121.42153
4893000000,77.420868,121.2206
4894000000,77.227058,120.86827
4895000000,77.168312,120.79949
4896000000,77.017769,120.39994
4897000000,76.829201,120.0526
4898000000,76.812241,119.95423
4899000000,76.171608,119.64693
4900000000,76.215378,119.37325
4901000000,76.220627,119.30249
4902000000,75.999985,118.91765
4903000000,75.824631,118.76504
4904000000,75.908569,118.61603
4905000000,75.755936,118.19384
4906000000,75.138542,117.76728
4907000000,75.187798,117.74133
4908000000,75.246063,117.5606
4909000000,74.747375,117.18953
4910000000,74.740303,117.03297
4911000000,74.639572,116.55965
4912000000,74.039452,116.29723
4913000000,74.009018,116.14808
4914000000,73.95266,115.90533
4915000000,73.990952,115.70555
4916000000,73.965248,115.39668
4917000000,73.637474,115.13132
4918000000,73.475159,114.8744
4919000000,73.365105,114.49687
4920000000,73.181252,114.27766
4921000000,73.076912,114.16182
4922000000,72.994186,113.78096
4923000000,72.753998,113.53453
4924000000,72.640152,113.21416
4925000000,72.702316,112.92886
4926000000,72.584579,112.78915
4927000000,72.394775,112.36646
4928000000,72.193283,112.22423
4929000000,71.858086,111.85794
4930000000,71.785042,111.55135
4931000000,71.674904,111.3687
4932000000,71.619164,111.23263
4933000000,71.48539,110.91144
4934000000,71.273422,110.67938
4935000000,71.207588,110.27597
4936000000,71.16214,110.12926
4937000000,71.047752,109.97022
4938000000,70.942986,109.54323
4939000000,70.660896,109.36295
4940000000,70.35334,109.0485
4941000000,70.312424,108.77563
4942000000,70.504242,108.53374
4943000000,69.98719,108.27566
4944000000,70.071533,108.16071
4945000000,69.594681,107.80796
4946000000,69.536835,107.40845
4947000000,69.610992,107.25056
4948000000,69.799301,107.12983
4949000000,69.535889,106.90095
4950000000,69.316963,106.38419
4951000000,68.965858,106.21408
4952000000,68.846695,106.00746
4953000000,69.167076,105.61868
4954000000,68.669449,105.47113
4955000000,68.60154,104.9851
4956000000,68.71389,105.01369
4957000000,68.278259,104.63768
4958000000,68.141922,104.24973
4959000000,68.213516,104.06434
4960000000,68.078751,103.74397
4961000000,68.066345,103.52199
4962000000,67.996696,103.30836
4963000000,67.940819,103.18245
4964000000,67.959389,102.95199
4965000000,67.93045,102.59594
4966000000,67.416756,102.32387
4967000000,67.791527,102.05386
4968000000,67.585632,101.78419
4969000000,67.400795,101.39906
4970000000,67.183838,101.0921
4971000000,67.245277,100.98546
4972000000,67.115227,100.74754
4973000000,66.861382,100.49241
4974000000,66.65567,100.0308
4975000000,66.893265,99.826035
4976000000,66.585594,99.618523
4977000000,66.665642,99.395226
4978000000,66.821907,99.259018
4979000000,66.497742,98.805077
4980000000,66.515495,98.596901
4981000000,66.202621,98.284126
4982000000,66.176353,97.947243
4983000000,66.075714,97.928528
4984000000,65.858475,97.394951
4985000000,65.931267,97.328148
4986000000,65.790993,96.832832
4987000000,65.734299,96.777328
4988000000,65.809799,96.49041
4989000000,65.741837,96.251549
4990000000,65.471817,95.85228
4991000000,65.461517,95.695213
4992000000,65.241089,95.273666
4993000000,65.698486,95.166389
4994000000,65.362686,94.896095
4995000000,65.277016,94.513115
4996000000,65.550751,94.205383
4997000000,64.925468,93.962616
4998000000,65.176826,93.758934
4999000000,65.038078,93.368561
5000000000,65.219124,93.250168
END,,
