Freq(Hz),S11 Log Mag(dB),S11 Phase
1000000000,-14.300021,119.21049
1001000000,-14.306345,119.28559
1002000000,-14.278394,119.51999
1003000000,-14.290505,119.35461
1004000000,-14.275203,119.5321
1005000000,-14.321868,119.28111
1006000000,-14.305704,119.12949
1007000000,-14.304113,119.29576
1008000000,-14.306793,119.21896
1009000000,-14.316817,119.24446
1010000000,-14.279301,119.15956
1011000000,-14.339478,118.46354
1012000000,-14.363085,118.83692
1013000000,-14.353533,118.59124
1014000000,-14.317296,118.7683
1015000000,-14.381784,118.97276
1016000000,-14.351166,119.06185
1017000000,-14.354682,118.95971
1018000000,-14.400917,118.62856
1019000000,-14.396955,118.39742
1020000000,-14.393271,118.63709
1021000000,-14.409789,118.51868
1022000000,-14.337261,118.67869
1023000000,-14.4259,118.32308
1024000000,-14.398869,118.60519
1025000000,-14.446362,118.60267
1026000000,-14.397699,117.92841
1027000000,-14.431259,118.20049
1028000000,-14.439301,117.96685
1029000000,-14.466365,118.27441
1030000000,-14.462805,117.94181
1031000000,-14.438236,118.06896
1032000000,-14.46242,117.9753
1033000000,-14.44999,118.17898
1034000000,-14.48852,118.03874
1035000000,-14.448808,117.95135
1036000000,-14.45181,118.27934
1037000000,-14.439985,117.96141
1038000000,-14.503059,118.05359
1039000000,-14.535621,117.72606
1040000000,-14.484746,117.70921
1041000000,-14.573742,118.04272
1042000000,-14.522586,117.64339
1043000000,-14.534884,117.75079
1044000000,-14.520307,117.53361
1045000000,-14.544664,117.43725
1046000000,-14.507842,117.69833
1047000000,-14.520999,117.71529
1048000000,-14.570007,117.66681
1049000000,-14.522012,117.52718
1050000000,-14.612346,117.69962
1051000000,-14.596937,117.27011
1052000000,-14.57027,117.12977
1053000000,-14.52684,117.00912
1054000000,-14.550153,116.90977
1055000000,-14.591261,117.16236
1056000000,-14.580582,117.23563
1057000000,-14.579645,117.01902
1058000000,-14.610353,117.21377
1059000000,-14.646408,116.66228
1060000000,-14.601452,116.97213
1061000000,-14.632771,116.93268
1062000000,-14.627371,116.89941
1063000000,-14.63978,116.82402
1064000000,-14.652156,117.30669
1065000000,-14.650734,116.597
1066000000,-14.634023,116.74176
1067000000,-14.680746,116.86831
1068000000,-14.64434,116.62206
1069000000,-14.612847,116.78815
1070000000,-14.68426,116.619
1071000000,-14.716465,116.67765
1072000000,-14.67216,116.37334
1073000000,-14.708735,116.35899
1074000000,-14.691785,116.60293
1075000000,-14.732418,116.5543
1076000000,-14.775084,116.63306
1077000000,-14.740139,116.76625
1078000000,-14.749069,116.08965
1079000000,-14.754567,116.01923
1080000000,-14.740864,116.17599
1081000000,-14.719471,116.16558
1082000000,-14.768456,116.12836
1083000000,-14.7766,116.22675
1084000000,-14.708719,115.87576
1085000000,-14.759569,115.878
1086000000,-14.823761,115.74547
1087000000,-14.781899,116.1557
1088000000,-14.770027,116.0674
1089000000,-14.812264,115.59924
1090000000,-14.825729,115.82692
1091000000,-14.792626,115.45879
1092000000,-14.856089,115.70139
1093000000,-14.812549,115.71995
1094000000,-14.809291,115.76488
1095000000,-14.852143,115.88066
1096000000,-14.780326,115.5644
1097000000,-14.827867,115.51655
1098000000,-14.870893,115.6168
1099000000,-14.907434,115.64585
1100000000,-14.882931,115.22162
1101000000,-14.872505,115.31175
1102000000,-14.889507,115.03343
1103000000,-14.892884,114.95413
1104000000,-14.893991,115.22932
1105000000,-14.929855,115.13616
1106000000,-14.923505,114.84315
1107000000,-14.914742,115.06103
1108000000,-14.880026,114.83591
1109000000,-14.835521,114.81709
1110000000,-14.907979,115.09547
1111000000,-14.962475,115.00106
1112000000,-14.960933,114.50759
1113000000,-14.974758,114.91134
1114000000,-14.944509,114.72157
1115000000,-14.929942,114.89577
1116000000,-15.005775,114.70004
1117000000,-14.94711,114.5209
1118000000,-15.001506,114.92912
1119000000,-14.969074,114.38305
1120000000,-14.985226,114.63314
1121000000,-14.986928,114.37197
1122000000,-15.005181,114.47814
1123000000,-15.007262,114.26135
1124000000,-14.976213,114.33375
1125000000,-15.070377,114.51885
1126000000,-14.989016,114.16283
1127000000,-15.057828,114.07837
1128000000,-15.052324,114.16096
1129000000,-15.015865,113.94122
1130000000,-15.013461,113.92757
1131000000,-15.024509,114.2209
1132000000,-15.048821,114.22842
1133000000,-15.046734,113.91173
1134000000,-15.094934,113.88236
1135000000,-15.122106,113.82269
1136000000,-15.147092,113.93987
1137000000,-15.128906,113.57342
1138000000,-15.111493,113.49619
1139000000,-15.091083,113.73604
1140000000,-15.158314,113.44909
1141000000,-15.135756,113.86561
1142000000,-15.142888,113.2687
1143000000,-15.176283,113.63442
1144000000,-15.197341,113.49389
1145000000,-15.100681,113.32818
1146000000,-15.150697,113.5737
1147000000,-15.154462,113.28203
1148000000,-15.20194,113.08075
1149000000,-15.219363,113.34443
1150000000,-15.236629,113.02416
1151000000,-15.186556,113.31746
1152000000,-15.165966,113.33648
1153000000,-15.196902,112.99442
1154000000,-15.222344,113.05325
1155000000,-15.185664,113.04977
1156000000,-15.228167,112.94137
1157000000,-15.193965,113.19208
1158000000,-15.209511,112.90546
1159000000,-15.203706,112.95428
1160000000,-15.238254,112.88734
1161000000,-15.24626,112.98119
1162000000,-15.281507,113.08835
1163000000,-15.271078,112.75969
1164000000,-15.308498,112.75762
1165000000,-15.278342,112.63901
1166000000,-15.266824,112.73077
1167000000,-15.322979,112.78139
1168000000,-15.309242,112.55945
1169000000,-15.318543,112.13251
1170000000,-15.302574,112.60699
1171000000,-15.34479,112.51797
1172000000,-15.370058,112.26986
1173000000,-15.335656,112.19009
1174000000,-15.408298,112.16132
1175000000,-15.357203,112.31026
1176000000,-15.386769,112.16059
1177000000,-15.399499,111.99628
1178000000,-15.349679,112.45215
1179000000,-15.419118,111.81074
1180000000,-15.389479,111.98347
1181000000,-15.438829,112.14953
1182000000,-15.382832,112.04489
1183000000,-15.420436,111.70287
1184000000,-15.453069,111.76651
1185000000,-15.450248,111.85412
1186000000,-15.437957,111.72256
1187000000,-15.469495,111.60856
1188000000,-15.413198,111.74309
1189000000,-15.425978,111.5872
1190000000,-15.463767,111.27607
1191000000,-15.462584,111.70103
1192000000,-15.458021,111.80531
1193000000,-15.491741,111.26694
1194000000,-15.531969,111.24597
1195000000,-15.467272,111.15871
1196000000,-15.441461,111.42661
1197000000,-15.547067,111.1725
1198000000,-15.547061,111.05029
1199000000,-15.529598,111.04745
1200000000,-15.527096,111.01032
1201000000,-15.550687,110.74674
1202000000,-15.532988,111.07231
1203000000,-15.593041,110.98241
1204000000,-15.558757,110.77376
1205000000,-15.545537,110.89194
1206000000,-15.564857,110.99193
1207000000,-15.584168,111.33779
1208000000,-15.600732,111.0493
1209000000,-15.555869,110.86396
1210000000,-15.613829,110.69608
1211000000,-15.618205,110.88052
1212000000,-15.592237,110.41089
1213000000,-15.62153,110.74399
1214000000,-15.641511,110.33385
1215000000,-15.581509,110.51808
1216000000,-15.62966,110.41237
1217000000,-15.605838,110.55807
1218000000,-15.647332,110.29836
1219000000,-15.587466,110.38563
1220000000,-15.638007,110.12215
1221000000,-15.664528,110.26402
1222000000,-15.665068,110.44479
1223000000,-15.666223,110.13129
1224000000,-15.697031,109.87652
1225000000,-15.708597,109.84686
1226000000,-15.693132,109.78003
1227000000,-15.730988,109.87481
1228000000,-15.715912,109.60529
1229000000,-15.749578,109.96938
1230000000,-15.765574,109.89722
1231000000,-15.738166,109.41757
1232000000,-15.856424,109.70156
1233000000,-15.744193,109.7613
1234000000,-15.772892,109.84034
1235000000,-15.743916,109.51089
1236000000,-15.723834,109.74226
1237000000,-15.777672,109.58193
1238000000,-15.740213,109.13234
1239000000,-15.786721,109.61454
1240000000,-15.767907,109.54849
1241000000,-15.791296,109.41548
1242000000,-15.817246,109.15808
1243000000,-15.788072,109.21421
1244000000,-15.816984,109.12429
1245000000,-15.867202,109.21966
1246000000,-15.862107,108.73306
1247000000,-15.801922,109.3148
1248000000,-15.870657,108.69759
1249000000,-15.842671,108.99318
1250000000,-15.893259,108.97683
1251000000,-15.913817,108.63975
1252000000,-15.870002,108.44326
1253000000,-15.922973,108.67598
1254000000,-15.941619,108.75938
1255000000,-15.893897,108.80272
1256000000,-15.872686,108.78508
1257000000,-15.923507,108.65102
1258000000,-15.913407,108.5696
1259000000,-15.931177,108.46643
1260000000,-15.957259,108.3287
1261000000,-15.993075,108.75855
1262000000,-15.941607,108.27876
1263000000,-15.944871,108.25469
1264000000,-15.983602,108.5195
1265000000,-15.980083,108.31575
1266000000,-16.020857,108.44463
1267000000,-16.01787,108.36771
1268000000,-16.030449,107.99446
1269000000,-16.002731,107.88261
1270000000,-16.014502,108.05457
1271000000,-16.05654,107.56306
1272000000,-16.048326,107.86029
1273000000,-16.103512,107.7312
1274000000,-16.057558,107.56061
1275000000,-16.034649,107.82014
1276000000,-16.082508,107.80153
1277000000,-16.067032,107.84791
1278000000,-16.072193,107.44946
1279000000,-16.082779,107.30361
1280000000,-16.120094,107.33475
1281000000,-16.116192,107.50392
1282000000,-16.11841,107.44826
1283000000,-16.077196,106.84634
1284000000,-16.120136,107.47732
1285000000,-16.122419,107.20258
1286000000,-16.161919,107.38937
1287000000,-16.154861,107.42572
1288000000,-16.117994,106.92841
1289000000,-16.217451,106.74194
1290000000,-16.188581,106.90483
1291000000,-16.219425,106.99763
1292000000,-16.121277,106.79933
1293000000,-16.187992,107.0028
1294000000,-16.225273,106.88775
1295000000,-16.209122,106.98226
1296000000,-16.226475,107.01028
1297000000,-16.211752,106.58123
1298000000,-16.186636,106.50671
1299000000,-16.268929,106.85443
1300000000,-16.209892,106.91392
1301000000,-16.303774,106.18366
1302000000,-16.275454,106.49598
1303000000,-16.30282,106.54398
1304000000,-16.29644,106.35625
1305000000,-16.283745,106.44701
1306000000,-16.245411,106.14981
1307000000,-16.281898,106.05553
1308000000,-16.340706,105.90299
1309000000,-16.35742,106.27694
1310000000,-16.270109,106.03321
1311000000,-16.349398,105.81064
1312000000,-16.400038,105.95934
1313000000,-16.314102,105.71532
1314000000,-16.382881,105.87629
1315000000,-16.337187,105.67873
1316000000,-16.430586,105.72185
1317000000,-16.422392,105.94904
1318000000,-16.351767,105.67136
1319000000,-16.412664,105.58872
1320000000,-16.370844,105.61003
1321000000,-16.412176,105.47389
1322000000,-16.411768,105.37257
1323000000,-16.468538,105.30678
1324000000,-16.419538,105.34832
1325000000,-16.452536,105.20975
1326000000,-16.442816,105.18016
1327000000,-16.454159,105.20623
1328000000,-16.449587,105.1785
1329000000,-16.499472,104.97341
1330000000,-16.472364,105.16344
1331000000,-16.473581,105.02135
1332000000,-16.445093,105.28475
1333000000,-16.476351,105.13325
1334000000,-16.506386,104.97722
1335000000,-16.55554,104.88346
1336000000,-16.478813,104.66229
1337000000,-16.550762,104.73617
1338000000,-16.572073,104.83903
1339000000,-16.533041,104.53986
1340000000,-16.553953,104.4277
1341000000,-16.573135,104.74955
1342000000,-16.571394,104.54715
1343000000,-16.607887,104.27708
1344000000,-16.65951,104.7132
1345000000,-16.625792,103.89173
1346000000,-16.643663,104.08323
1347000000,-16.664288,103.97765
1348000000,-16.681393,104.03667
1349000000,-16.673464,103.96942
1350000000,-16.649168,103.95887
1351000000,-16.691526,103.96871
1352000000,-16.625713,103.79966
1353000000,-16.653297,103.89924
1354000000,-16.691784,103.72459
1355000000,-16.724073,103.63048
1356000000,-16.680763,103.65444
1357000000,-16.711582,103.56012
1358000000,-16.723951,103.46519
1359000000,-16.721853,103.48033
1360000000,-16.690998,103.96137
1361000000,-16.776463,103.49464
1362000000,-16.776464,103.37199
1363000000,-16.765118,103.36195
1364000000,-16.75848,102.89716
1365000000,-16.78196,103.1749
1366000000,-16.771467,103.1889
1367000000,-16.799116,103.71107
1368000000,-16.81675,103.02652
1369000000,-16.820965,103.02905
1370000000,-16.845741,103.10667
1371000000,-16.842543,103.0668
1372000000,-16.805967,102.51289
1373000000,-16.860659,102.86965
1374000000,-16.914446,102.66378
1375000000,-16.923725,102.67398
1376000000,-16.899212,102.65679
1377000000,-16.892096,102.2622
1378000000,-16.915075,102.31734
1379000000,-16.898258,102.37896
1380000000,-16.948107,102.12135
1381000000,-16.950979,102.59232
1382000000,-16.93125,102.26185
1383000000,-16.877651,102.21825
1384000000,-17.022482,102.25697
1385000000,-16.958672,102.19178
1386000000,-16.99778,101.79201
1387000000,-17.029999,101.86834
1388000000,-16.981516,101.90465
1389000000,-17.037863,101.95456
1390000000,-17.018068,101.45163
1391000000,-17.054552,102.06596
1392000000,-17.070589,101.87325
1393000000,-17.03883,101.44325
1394000000,-17.029686,101.45971
1395000000,-17.038937,101.58483
1396000000,-17.068527,101.55175
1397000000,-17.03763,101.53498
1398000000,-17.097778,101.27532
1399000000,-17.069181,101.2123
1400000000,-17.119944,101.18169
1401000000,-17.140261,101.01819
1402000000,-17.113358,101.15977
1403000000,-17.155539,100.92938
1404000000,-17.160702,100.84801
1405000000,-17.166361,100.85033
1406000000,-17.216227,100.83209
1407000000,-17.230839,100.93156
1408000000,-17.181484,100.56114
1409000000,-17.17878,100.65017
1410000000,-17.207378,100.62057
1411000000,-17.222315,100.37939
1412000000,-17.243887,100.3433
1413000000,-17.236265,100.39888
1414000000,-17.276606,100.48279
1415000000,-17.293165,100.53206
1416000000,-17.238363,100.08828
1417000000,-17.290428,100.33364
1418000000,-17.293772,100.42403
1419000000,-17.307425,100.11562
1420000000,-17.328785,99.865936
1421000000,-17.335047,100.03975
1422000000,-17.365252,100.15004
1423000000,-17.367046,99.902893
1424000000,-17.35252,99.699928
1425000000,-17.347536,99.892471
1426000000,-17.370634,99.688805
1427000000,-17.404215,99.618828
1428000000,-17.424891,99.307129
1429000000,-17.429819,99.759003
1430000000,-17.455889,99.506416
1431000000,-17.424191,99.54052
1432000000,-17.479733,98.915863
1433000000,-17.476833,99.114685
1434000000,-17.490643,99.006065
1435000000,-17.456593,98.824287
1436000000,-17.526094,98.878433
1437000000,-17.552303,98.878365
1438000000,-17.51786,98.900948
1439000000,-17.527338,98.862694
1440000000,-17.55028,98.882172
1441000000,-17.563301,98.876732
1442000000,-17.553932,98.845421
1443000000,-17.56547,98.596558
1444000000,-17.625393,98.599907
1445000000,-17.582783,98.637596
1446000000,-17.575569,98.2883
1447000000,-17.642906,98.319908
1448000000,-17.644028,98.250526
1449000000,-17.706892,98.290253
1450000000,-17.657671,98.265594
1451000000,-17.683893,98.035973
1452000000,-17.723551,98.145218
1453000000,-17.673975,97.937469
1454000000,-17.718685,98.047836
1455000000,-17.714901,97.790504
1456000000,-17.735767,98.094994
1457000000,-17.792423,97.727768
1458000000,-17.78863,97.355667
1459000000,-17.78503,97.631035
1460000000,-17.842602,97.744148
1461000000,-17.80221,97.59729
1462000000,-17.850893,97.560966
1463000000,-17.817078,97.448929
1464000000,-17.839636,97.238701
1465000000,-17.884335,97.257172
1466000000,-17.884874,97.136536
1467000000,-17.881392,97.153534
1468000000,-17.946964,97.22448
1469000000,-17.900827,97.135956
1470000000,-17.913984,96.99897
1471000000,-17.923056,97.231003
1472000000,-17.951365,97.193672
1473000000,-17.983913,96.81218
1474000000,-17.969168,96.686317
1475000000,-18.004318,96.646355
1476000000,-18.035383,96.790337
1477000000,-18.05164,96.538277
1478000000,-18.038471,96.774551
1479000000,-18.071365,96.672966
1480000000,-18.050739,96.499786
1481000000,-18.079821,96.363358
1482000000,-18.080284,96.320435
1483000000,-18.126045,96.639656
1484000000,-18.10956,96.025223
1485000000,-18.13022,96.565712
1486000000,-18.142498,96.101006
1487000000,-18.18907,96.209213
1488000000,-18.242775,95.941864
1489000000,-18.208475,96.063667
1490000000,-18.182468,95.954536
1491000000,-18.167427,95.835457
1492000000,-18.24898,95.569679
1493000000,-18.230906,95.936768
1494000000,-18.275978,95.693336
1495000000,-18.278605,95.785561
1496000000,-18.298166,95.464005
1497000000,-18.33589,95.609451
1498000000,-18.325968,95.538475
1499000000,-18.35285,95.627876
1500000000,-18.306286,95.285248
1501000000,-18.298275,95.270424
1502000000,-18.3629,95.389969
1503000000,-18.38036,95.189873
1504000000,-18.382389,95.274078
1505000000,-18.41861,95.364128
1506000000,-18.441187,94.694221
1507000000,-18.447035,94.934982
1508000000,-18.475525,95.300903
1509000000,-18.462023,95.085213
1510000000,-18.495762,94.89299
1511000000,-18.517824,94.702049
1512000000,-18.476727,94.76786
1513000000,-18.530718,94.788452
1514000000,-18.578915,94.954895
1515000000,-18.558867,94.531578
1516000000,-18.612617,94.424805
1517000000,-18.591789,94.111755
1518000000,-18.660397,94.468521
1519000000,-18.692076,94.407066
1520000000,-18.63607,94.441086
1521000000,-18.685549,94.257683
1522000000,-18.694075,93.987343
1523000000,-18.716818,94.255501
1524000000,-18.777174,93.910667
1525000000,-18.768177,93.656235
1526000000,-18.782427,93.665489
1527000000,-18.764359,93.840088
1528000000,-18.835203,93.98716
1529000000,-18.824562,93.864845
1530000000,-18.819702,93.604836
1531000000,-18.862406,93.793961
1532000000,-18.886164,93.679588
1533000000,-18.911806,93.370712
1534000000,-18.95739,93.418701
1535000000,-18.891747,93.336105
1536000000,-18.949652,93.2341
1537000000,-19.023041,93.219765
1538000000,-18.964167,93.206383
1539000000,-19.04804,93.11322
1540000000,-18.999441,93.0438
1541000000,-19.073551,93.15699
1542000000,-19.047123,92.629646
1543000000,-19.068491,92.818916
1544000000,-19.090727,92.891121
1545000000,-19.096876,92.64183
1546000000,-19.113775,93.009995
1547000000,-19.15169,92.416527
1548000000,-19.196815,92.902481
1549000000,-19.129841,92.577454
1550000000,-19.203638,92.288155
1551000000,-19.200167,92.429581
1552000000,-19.226171,92.217049
1553000000,-19.253042,92.158203
1554000000,-19.250147,92.491722
1555000000,-19.253174,92.171776
1556000000,-19.242525,92.302124
1557000000,-19.30032,92.072472
1558000000,-19.357914,91.694511
1559000000,-19.336174,91.961685
1560000000,-19.398535,91.857964
1561000000,-19.378344,91.91423
1562000000,-19.40807,91.776871
1563000000,-19.494286,91.680977
1564000000,-19.456541,91.56076
1565000000,-19.500616,91.776703
1566000000,-19.477196,91.553383
1567000000,-19.582708,91.286537
1568000000,-19.593262,91.673584
1569000000,-19.57576,91.239761
1570000000,-19.573648,91.361191
1571000000,-19.584648,91.437454
1572000000,-19.609575,91.334145
1573000000,-19.617924,91.545837
1574000000,-19.679811,91.536194
1575000000,-19.654964,91.293579
1576000000,-19.646364,91.116692
1577000000,-19.699387,91.093292
1578000000,-19.736101,91.103134
1579000000,-19.742447,90.813538
1580000000,-19.784153,90.805321
1581000000,-19.779921,90.628265
1582000000,-19.813868,90.910057
1583000000,-19.796873,91.01123
1584000000,-19.863749,90.49366
1585000000,-19.821636,90.567261
1586000000,-19.898886,90.418076
1587000000,-19.890944,90.597076
1588000000,-19.928926,90.220543
1589000000,-19.913124,90.606544
1590000000,-19.982647,90.610466
1591000000,-19.988844,90.405685
1592000000,-20.026083,90.328545
1593000000,-20.025459,90.389626
1594000000,-20.07181,90.046013
1595000000,-20.105627,90.306419
1596000000,-20.098082,89.972046
1597000000,-20.029936,90.081505
1598000000,-20.118912,90.317329
1599000000,-20.153023,89.756401
1600000000,-20.178343,89.884575
1601000000,-20.212183,90.063728
1602000000,-20.228643,89.579842
1603000000,-20.339312,89.616623
1604000000,-20.210085,89.745331
1605000000,-20.288763,89.777977
1606000000,-20.331717,89.517601
1607000000,-20.370312,89.375252
1608000000,-20.407017,89.309441
1609000000,-20.354799,89.335304
1610000000,-20.435141,89.528481
1611000000,-20.490404,89.253059
1612000000,-20.490007,89.306419
1613000000,-20.428118,89.429283
1614000000,-20.551222,89.120949
1615000000,-20.503017,89.214409
1616000000,-20.550377,89.445763
1617000000,-20.574995,89.017525
1618000000,-20.596004,89.159317
1619000000,-20.603472,88.9347
1620000000,-20.609783,89.039185
1621000000,-20.675156,88.659294
1622000000,-20.667351,89.178413
1623000000,-20.699621,88.776192
1624000000,-20.723001,88.470146
1625000000,-20.773035,88.703995
1626000000,-20.846888,88.596352
1627000000,-20.83095,88.512978
1628000000,-20.820309,88.618492
1629000000,-20.879587,88.64592
1630000000,-20.859652,88.43531
1631000000,-20.916443,88.623383
1632000000,-21.014555,88.564445
1633000000,-20.90012,88.682381
1634000000,-21.011436,88.257668
1635000000,-21.023773,88.607475
1636000000,-21.035759,88.570244
1637000000,-21.039537,88.393669
1638000000,-21.077772,88.293999
1639000000,-21.094797,88.21978
1640000000,-21.118849,88.467751
1641000000,-21.168951,88.424835
1642000000,-21.181177,88.124069
1643000000,-21.183756,88.225525
1644000000,-21.208611,88.166924
1645000000,-21.305813,87.96347
1646000000,-21.292618,87.675461
1647000000,-21.336128,88.404099
1648000000,-21.377861,88.11132
1649000000,-21.388288,87.811974
1650000000,-21.404276,87.819756
1651000000,-21.41161,88.073387
1652000000,-21.470741,87.601906
1653000000,-21.485018,87.657776
1654000000,-21.489733,87.449318
1655000000,-21.560181,87.564056
1656000000,-21.57391,87.886276
1657000000,-21.673412,87.570862
1658000000,-21.666502,87.753517
1659000000,-21.697136,87.394386
1660000000,-21.669538,87.043449
1661000000,-21.757421,87.366249
1662000000,-21.791517,87.304176
1663000000,-21.809084,87.424316
1664000000,-21.778841,87.184326
1665000000,-21.86447,87.206139
1666000000,-21.868595,87.321281
1667000000,-21.932089,87.408302
1668000000,-21.998035,87.244141
1669000000,-21.965742,87.171547
1670000000,-22.000053,87.614029
1671000000,-22.07349,87.236847
1672000000,-22.077866,87.203316
1673000000,-22.154478,87.262215
1674000000,-22.131748,87.11055
1675000000,-22.167643,87.150558
1676000000,-22.168259,87.248779
1677000000,-22.214916,87.097763
1678000000,-22.232622,86.883301
1679000000,-22.305902,87.011864
1680000000,-22.350328,87.201019
1681000000,-22.375092,87.343231
1682000000,-22.392214,87.047829
1683000000,-22.424465,86.737434
1684000000,-22.529222,87.368149
1685000000,-22.514868,87.41555
1686000000,-22.574202,86.817032
1687000000,-22.550945,86.809402
1688000000,-22.580095,87.282616
1689000000,-22.63423,86.774361
1690000000,-22.740181,86.769859
1691000000,-22.677786,86.738205
1692000000,-22.681774,86.604523
1693000000,-22.745674,86.289833
1694000000,-22.78459,86.56665
1695000000,-22.868671,86.536896
1696000000,-22.868702,86.663727
1697000000,-22.873869,86.574883
1698000000,-22.947689,86.831192
1699000000,-22.964449,86.658661
1700000000,-23.010971,86.7547
1701000000,-23.052721,86.613686
1702000000,-23.103733,86.75676
1703000000,-23.116821,86.31356
1704000000,-23.170771,86.656647
1705000000,-23.202061,86.673836
1706000000,-23.237862,86.696686
1707000000,-23.231186,86.842812
1708000000,-23.240396,86.883423
1709000000,-23.331133,87.108276
1710000000,-23.341568,86.612206
1711000000,-23.398178,86.538841
1712000000,-23.413462,86.79213
1713000000,-23.418661,86.503044
1714000000,-23.493431,86.381042
1715000000,-23.528093,86.593163
1716000000,-23.612547,86.689079
1717000000,-23.603634,86.639839
1718000000,-23.617077,86.899811
1719000000,-23.623564,86.675652
1720000000,-23.707266,86.587395
1721000000,-23.799246,86.865227
1722000000,-23.820541,86.834114
1723000000,-23.821266,86.602036
1724000000,-23.865082,86.97567
1725000000,-23.902531,86.831268
1726000000,-23.972488,86.796844
1727000000,-23.945244,86.934631
1728000000,-24.093916,86.7416
1729000000,-24.055981,87.026161
1730000000,-24.062149,86.761612
1731000000,-24.204535,87.278
1732000000,-24.231394,86.734962
1733000000,-24.245514,87.042053
1734000000,-24.340647,86.83831
1735000000,-24.385151,87.009872
1736000000,-24.30699,86.760216
1737000000,-24.441833,86.848076
1738000000,-24.474514,87.35231
1739000000,-24.547331,87.224899
1740000000,-24.512444,87.598587
1741000000,-24.521887,87.557457
1742000000,-24.620123,87.397568
1743000000,-24.682671,87.342545
1744000000,-24.738018,87.415855
1745000000,-24.776859,87.979492
1746000000,-24.759268,87.754875
1747000000,-24.883917,87.449097
1748000000,-24.925478,88.367607
1749000000,-24.942465,87.633507
1750000000,-24.989328,87.849823
1751000000,-25.078043,88.080643
1752000000,-25.038948,88.249756
1753000000,-25.121344,88.55146
1754000000,-25.202234,87.744385
1755000000,-25.173168,87.773689
1756000000,-25.220678,88.947716
1757000000,-25.401394,88.548531
1758000000,-25.327648,88.423698
1759000000,-25.381285,88.484108
1760000000,-25.453995,88.012672
1761000000,-25.503183,88.255135
1762000000,-25.492987,88.789658
1763000000,-25.602726,88.826683
1764000000,-25.509066,88.844421
1765000000,-25.696812,89.107056
1766000000,-25.762516,89.160484
1767000000,-25.825232,89.290939
1768000000,-25.793777,89.896805
1769000000,-25.88796,89.023132
1770000000,-25.916126,88.955505
1771000000,-26.009398,88.703079
1772000000,-25.998426,89.603645
1773000000,-26.044195,90.239914
1774000000,-26.1283,89.778961
1775000000,-26.121258,89.96302
1776000000,-26.182528,90.011986
1777000000,-26.259043,89.571991
1778000000,-26.363796,89.859848
1779000000,-26.393042,89.946594
1780000000,-26.525713,91.091461
1781000000,-26.475891,91.512604
1782000000,-26.573582,90.64901
1783000000,-26.633875,90.501465
1784000000,-26.520935,91.322578
1785000000,-26.671093,91.18528
1786000000,-26.67256,91.862
1787000000,-26.835642,92.065926
1788000000,-26.912603,91.863426
1789000000,-26.814163,91.750832
1790000000,-26.876785,92.064697
1791000000,-26.868605,92.244415
1792000000,-26.9158,92.221085
1793000000,-27.124092,92.968361
1794000000,-27.110954,92.345436
1795000000,-27.108706,93.209633
1796000000,-27.142355,93.238037
1797000000,-27.263651,93.457474
1798000000,-27.346436,93.407455
1799000000,-27.311024,94.218857
1800000000,-27.392389,93.522614
1801000000,-27.479656,93.806786
1802000000,-27.443996,94.403091
1803000000,-27.613304,94.370079
1804000000,-27.550625,94.93589
1805000000,-27.738052,94.69928
1806000000,-27.749102,94.853561
1807000000,-27.736778,95.306564
1808000000,-27.760996,95.419296
1809000000,-27.931206,95.51606
1810000000,-27.972908,96.232437
1811000000,-27.973522,96.023087
1812000000,-28.024046,96.341095
1813000000,-28.093918,97.737328
1814000000,-28.116905,97.168686
1815000000,-28.07794,97.514755
1816000000,-28.253399,97.802109
1817000000,-28.284258,98.012253
1818000000,-28.371525,97.924309
1819000000,-28.526703,98.638817
1820000000,-28.508678,98.108261
1821000000,-28.601763,99.364647
1822000000,-28.573843,98.744949
1823000000,-28.658203,100.10329
1824000000,-28.719255,99.641243
1825000000,-28.821312,100.61787
1826000000,-28.72753,101.09011
1827000000,-28.887505,101.14939
1828000000,-28.864986,101.12648
1829000000,-29.027571,101.62706
1830000000,-29.128134,101.51552
1831000000,-29.12388,101.92134
1832000000,-29.090094,102.78242
1833000000,-29.205133,102.99678
1834000000,-29.271835,103.05333
1835000000,-29.297626,103.091
1836000000,-29.409113,103.99293
1837000000,-29.339613,104.14599
1838000000,-29.39146,104.33937
1839000000,-29.478615,104.20572
1840000000,-29.563917,105.56673
1841000000,-29.568251,105.70766
1842000000,-29.583143,106.08985
1843000000,-29.722666,106.75747
1844000000,-29.604805,106.62428
1845000000,-29.861376,107.41075
1846000000,-29.824968,108.29084
1847000000,-29.928734,107.67268
1848000000,-29.812147,108.30965
1849000000,-29.99299,108.98339
1850000000,-30.035572,109.14449
1851000000,-30.133398,110.79944
1852000000,-30.248787,110.63237
1853000000,-30.149202,110.54393
1854000000,-30.251326,111.22166
1855000000,-30.300495,111.93677
1856000000,-30.310575,112.2368
1857000000,-30.504885,112.11742
1858000000,-30.343023,113.38189
1859000000,-30.597839,113.5923
1860000000,-30.569639,114.42879
1861000000,-30.629116,113.83292
1862000000,-30.56995,114.98763
1863000000,-30.701342,115.73399
1864000000,-30.870852,116.58692
1865000000,-30.851263,116.46329
1866000000,-30.855932,117.65955
1867000000,-30.856274,117.70169
1868000000,-30.841236,117.67284
1869000000,-30.987955,118.6804
1870000000,-31.108685,120.47767
1871000000,-30.969017,121.43928
1872000000,-31.042137,121.02673
1873000000,-31.028986,122.02188
1874000000,-31.057726,121.74856
1875000000,-31.082176,123.17642
1876000000,-31.138926,123.71134
1877000000,-31.099981,123.51559
1878000000,-31.284845,124.44639
1879000000,-31.177959,124.49998
1880000000,-31.109013,124.66592
1881000000,-31.292475,126.06255
1882000000,-31.189289,128.2023
1883000000,-31.239418,128.27365
1884000000,-31.287762,128.09367
1885000000,-31.183088,130.34998
1886000000,-31.103241,129.3735
1887000000,-31.31645,129.76457
1888000000,-31.308584,132.11435
1889000000,-31.364384,131.05792
1890000000,-31.379368,131.63504
1891000000,-31.298721,133.93512
1892000000,-31.301437,133.85457
1893000000,-31.318468,134.68542
1894000000,-31.311781,135.60388
1895000000,-31.513062,136.34482
1896000000,-31.32431,137.03598
1897000000,-31.154799,137.27975
1898000000,-31.195927,136.50923
1899000000,-31.454729,138.26483
1900000000,-31.51968,138.97964
1901000000,-31.394869,139.81082
1902000000,-31.468981,140.82858
1903000000,-31.081224,141.01999
1904000000,-31.327936,142.29979
1905000000,-31.340694,142.66281
1906000000,-31.168781,142.80589
1907000000,-31.137543,143.82991
1908000000,-31.181921,143.19922
1909000000,-31.178032,145.05983
1910000000,-31.172926,145.11809
1911000000,-31.230141,147.02162
1912000000,-31.071346,147.2975
1913000000,-31.074291,146.73956
1914000000,-30.963129,147.51967
1915000000,-30.973925,148.78537
1916000000,-31.117941,149.72087
1917000000,-31.055054,149.85855
1918000000,-30.949808,149.76903
1919000000,-30.762808,151.43004
1920000000,-30.845873,152.49612
1921000000,-30.943794,152.03709
1922000000,-30.795431,151.75606
1923000000,-30.706285,153.76842
1924000000,-30.821127,154.45235
1925000000,-30.694078,154.24977
1926000000,-30.575218,153.85896
1927000000,-30.465586,155.28297
1928000000,-30.509241,156.25372
1929000000,-30.377066,157.73044
1930000000,-30.479939,157.98607
1931000000,-30.421181,158.44952
1932000000,-30.4035,158.79922
1933000000,-30.253927,158.53148
1934000000,-30.26829,160.00487
1935000000,-30.208961,159.61778
1936000000,-30.185925,160.23633
1937000000,-29.937325,161.36452
1938000000,-29.998871,161.89203
1939000000,-30.068907,161.89732
1940000000,-30.004293,162.44119
1941000000,-29.798399,162.10399
1942000000,-29.737709,163.34468
1943000000,-29.59284,164.08563
1944000000,-29.820137,164.18265
1945000000,-29.598595,163.87466
1946000000,-29.490257,165.18889
1947000000,-29.356119,165.3037
1948000000,-29.395626,165.78499
1949000000,-29.411705,165.94946
1950000000,-29.292383,166.5648
1951000000,-29.271593,166.13586
1952000000,-29.335732,167.48297
1953000000,-29.100304,166.6154
1954000000,-29.038042,168.37369
1955000000,-28.963324,168.21371
1956000000,-28.99383,169.49158
1957000000,-28.751572,168.4313
1958000000,-28.820721,168.94356
1959000000,-28.867842,169.75316
1960000000,-28.785852,169.99001
1961000000,-28.774321,170.81361
1962000000,-28.702721,170.05066
1963000000,-28.615078,170.52867
1964000000,-28.597559,170.50169
1965000000,-28.469053,170.72275
1966000000,-28.439003,171.98103
1967000000,-28.227501,171.67572
1968000000,-28.193258,171.88182
1969000000,-28.164938,172.73581
1970000000,-28.2649,172.71504
1971000000,-28.052979,172.31596
1972000000,-28.002834,173.06503
1973000000,-28.037785,173.62123
1974000000,-27.853945,172.95877
1975000000,-27.818449,173.98143
1976000000,-27.787884,173.7525
1977000000,-27.771246,174.04959
1978000000,-27.676182,175.0697
1979000000,-27.549368,174.39178
1980000000,-27.563103,175.73732
1981000000,-27.55162,175.67667
1982000000,-27.491594,175.65152
1983000000,-27.349525,176.31686
1984000000,-27.318888,176.5954
1985000000,-27.319704,176.62004
1986000000,-27.199068,175.76547
1987000000,-27.130363,176.84418
1988000000,-27.059416,176.88802
1989000000,-27.096863,176.91409
1990000000,-27.117744,177.36438
1991000000,-26.93121,177.2122
1992000000,-26.817154,177.25755
1993000000,-26.901064,178.21838
1994000000,-26.731674,178.0873
1995000000,-26.716541,177.78252
1996000000,-26.621809,178.40388
1997000000,-26.49577,177.98756
1998000000,-26.465649,178.20152
1999000000,-26.4611,178.50987
2000000000,-26.465109,178.83839
2001000000,-26.384733,179.16879
2002000000,-26.320662,179.15169
2003000000,-26.370691,179.11455
2004000000,-26.346737,180.13985
2005000000,-26.169176,180.28036
2006000000,-26.152882,179.70898
2007000000,-26.171059,179.87193
2008000000,-26.025316,180.40839
2009000000,-25.930645,180.07803
2010000000,-25.940557,179.80444
2011000000,-25.794352,180.49345
2012000000,-25.784254,180.64822
2013000000,-25.753637,181.0345
2014000000,-25.706158,180.81332
2015000000,-25.725046,180.78758
2016000000,-25.604115,180.80231
2017000000,-25.563185,181.10216
2018000000,-25.588882,180.97604
2019000000,-25.459833,180.75594
2020000000,-25.402191,181.15213
2021000000,-25.37339,181.7086
2022000000,-25.310604,180.93547
2023000000,-25.299452,181.73076
2024000000,-25.252964,182.05914
2025000000,-25.189718,181.24431
2026000000,-25.121101,182.26627
2027000000,-25.081455,181.8188
2028000000,-25.114952,182.27348
2029000000,-24.935141,181.91362
2030000000,-25.000168,182.24084
2031000000,-24.873549,182.41055
2032000000,-24.887558,182.79106
2033000000,-24.729292,182.68396
2034000000,-24.714247,183.22881
2035000000,-24.623995,181.97173
2036000000,-24.606447,182.78285
2037000000,-24.708452,182.47508
2038000000,-24.555521,182.42337
2039000000,-24.444065,183.57661
2040000000,-24.495077,183.44939
2041000000,-24.327961,183.63223
2042000000,-24.310154,183.56726
2043000000,-24.357925,183.88171
2044000000,-24.184893,183.7233
2045000000,-24.231253,183.38316
2046000000,-24.127802,183.81184
2047000000,-24.125059,183.56714
2048000000,-24.092575,183.87424
2049000000,-24.093676,183.75003
2050000000,-24.01033,183.03471
2051000000,-24.030193,184.00513
2052000000,-23.889013,183.77206
2053000000,-23.809933,183.69107
2054000000,-23.755424,183.92422
2055000000,-23.832062,183.93195
2056000000,-23.71678,183.97931
2057000000,-23.669142,183.34206
2058000000,-23.580038,183.43202
2059000000,-23.568636,183.74187
2060000000,-23.521065,183.42104
2061000000,-23.488216,184.24495
2062000000,-23.478662,184.25102
2063000000,-23.351837,184.52884
2064000000,-23.385242,184.20439
2065000000,-23.383583,183.76591
2066000000,-23.326138,184.28889
2067000000,-23.259808,184.37379
2068000000,-23.275949,184.03435
2069000000,-23.255814,184.38252
2070000000,-23.077431,184.03127
2071000000,-23.160868,184.30368
2072000000,-23.038607,184.18852
2073000000,-23.010517,184.0094
2074000000,-22.988716,184.58121
2075000000,-22.898979,184.2435
2076000000,-22.943899,184.27014
2077000000,-22.923223,184.16013
2078000000,-22.77573,184.63326
2079000000,-22.783354,184.34059
2080000000,-22.708006,184.00731
2081000000,-22.633797,184.51599
2082000000,-22.632696,184.45976
2083000000,-22.573278,184.3868
2084000000,-22.586168,184.07007
2085000000,-22.512714,184.20654
2086000000,-22.494629,184.03551
2087000000,-22.436857,183.84828
2088000000,-22.37792,184.52885
2089000000,-22.380058,184.36702
2090000000,-22.265356,184.48799
2091000000,-22.274136,184.05055
2092000000,-22.273584,184.68341
2093000000,-22.239889,184.20399
2094000000,-22.142187,184.81688
2095000000,-22.147116,184.3075
2096000000,-22.080074,184.9819
2097000000,-22.007126,184.58476
2098000000,-21.947468,184.43561
2099000000,-21.943274,184.47423
2100000000,-21.903839,183.90642
2101000000,-21.883764,184.222
2102000000,-21.838797,184.54596
2103000000,-21.823034,184.19785
2104000000,-21.807367,184.14037
2105000000,-21.703804,184.44106
2106000000,-21.77248,184.59221
2107000000,-21.721079,184.59529
2108000000,-21.60453,184.0677
2109000000,-21.664845,184.80754
2110000000,-21.541367,184.08205
2111000000,-21.584337,184.05956
2112000000,-21.523849,184.22029
2113000000,-21.528105,183.95161
2114000000,-21.37784,184.40121
2115000000,-21.359272,183.93575
2116000000,-21.323755,184.19475
2117000000,-21.308794,183.80713
2118000000,-21.297365,184.09779
2119000000,-21.260326,184.04317
2120000000,-21.246571,183.86964
2121000000,-21.226437,183.42657
2122000000,-21.171095,183.45056
2123000000,-21.13822,183.5795
2124000000,-21.051538,184.03082
2125000000,-21.078091,183.35542
2126000000,-21.081213,183.67514
2127000000,-21.04982,183.8098
2128000000,-21.026028,183.24361
2129000000,-21.032145,183.11304
2130000000,-20.916203,183.59686
2131000000,-20.891842,183.25244
2132000000,-20.89558,183.35579
2133000000,-20.754601,183.16061
2134000000,-20.819447,183.36221
2135000000,-20.724674,183.38393
2136000000,-20.704679,183.45827
2137000000,-20.714867,183.26476
2138000000,-20.646158,182.7052
2139000000,-20.637199,182.86067
2140000000,-20.621433,182.8905
2141000000,-20.569155,183.09636
2142000000,-20.538534,183.10912
2143000000,-20.52984,183.06055
2144000000,-20.478609,183.33286
2145000000,-20.510582,183.2655
2146000000,-20.445295,182.84756
2147000000,-20.389664,182.91939
2148000000,-20.344894,182.93385
2149000000,-20.34277,182.5255
2150000000,-20.265137,183.05632
2151000000,-20.235653,182.6852
2152000000,-20.22024,182.8215
2153000000,-20.220234,182.56067
2154000000,-20.116415,182.33871
2155000000,-20.217268,182.04913
2156000000,-20.150019,182.58423
2157000000,-20.124535,182.73553
2158000000,-20.032417,182.18745
2159000000,-19.975149,182.53528
2160000000,-20.001453,181.75514
2161000000,-19.993553,182.13129
2162000000,-19.96039,181.96092
2163000000,-19.962505,182.15733
2164000000,-19.968122,181.78145
2165000000,-19.877277,182.07407
2166000000,-19.893934,182.04568
2167000000,-19.818441,181.60764
2168000000,-19.781876,181.82124
2169000000,-19.857594,182.24782
2170000000,-19.718649,181.86542
2171000000,-19.696972,181.98502
2172000000,-19.662243,181.66882
2173000000,-19.657373,181.35141
2174000000,-19.642698,181.40112
2175000000,-19.599781,181.52495
2176000000,-19.584433,181.28992
2177000000,-19.585331,181.48236
2178000000,-19.559988,181.11099
2179000000,-19.46344,181.39285
2180000000,-19.478004,180.91469
2181000000,-19.396971,181.41347
2182000000,-19.387194,181.30684
2183000000,-19.337503,180.948
2184000000,-19.296137,181.09021
2185000000,-19.345892,180.72369
2186000000,-19.325932,181.09317
2187000000,-19.328163,180.52594
2188000000,-19.241859,180.73619
2189000000,-19.23933,180.5502
2190000000,-19.198412,180.59406
2191000000,-19.147644,180.71516
2192000000,-19.172995,180.58748
2193000000,-19.158607,180.27571
2194000000,-19.104828,180.19026
2195000000,-19.083664,180.23671
2196000000,-19.065878,180.00562
2197000000,-19.042595,179.83177
2198000000,-18.98443,180.30608
2199000000,-19.020325,179.74161
2200000000,-18.87504,180.09462
2201000000,-18.958517,179.7968
2202000000,-18.874619,179.84142
2203000000,-18.900053,179.63284
2204000000,-18.878704,179.14775
2205000000,-18.803734,179.42915
2206000000,-18.810841,179.82281
2207000000,-18.758905,179.36395
2208000000,-18.760527,179.44728
2209000000,-18.721172,179.47575
2210000000,-18.657543,179.36449
2211000000,-18.7307,179.58978
2212000000,-18.743582,178.64902
2213000000,-18.65703,179.67287
2214000000,-18.596813,179.06688
2215000000,-18.673271,179.19147
2216000000,-18.60321,178.94798
2217000000,-18.493183,178.95424
2218000000,-18.452007,178.85681
2219000000,-18.459616,178.86005
2220000000,-18.517164,178.51439
2221000000,-18.451118,178.69608
2222000000,-18.433661,178.83621
2223000000,-18.419983,178.65852
2224000000,-18.381271,178.46713
2225000000,-18.40476,178.17191
2226000000,-18.343683,178.42757
2227000000,-18.287514,177.76593
2228000000,-18.247923,177.92157
2229000000,-18.25176,178.06747
2230000000,-18.24135,177.91902
2231000000,-18.212404,177.79117
2232000000,-18.210711,177.65175
2233000000,-18.174696,177.48564
2234000000,-18.140835,177.86823
2235000000,-18.115211,177.84912
2236000000,-18.130116,177.62306
2237000000,-18.063568,177.68344
2238000000,-18.026909,177.59319
2239000000,-18.074421,177.30075
2240000000,-17.996088,177.15198
2241000000,-18.066187,177.1783
2242000000,-17.966749,177.16431
2243000000,-17.939505,176.85522
2244000000,-17.86599,177.25754
2245000000,-17.942101,176.71758
2246000000,-17.909916,176.84602
2247000000,-17.864992,176.73206
2248000000,-17.849098,176.6077
2249000000,-17.822908,176.30524
2250000000,-17.79808,176.80907
2251000000,-17.767729,176.31644
2252000000,-17.734827,176.26157
2253000000,-17.773445,176.1797
2254000000,-17.73036,176.1765
2255000000,-17.74168,176.21687
2256000000,-17.724409,176.18971
2257000000,-17.673027,175.80186
2258000000,-17.722612,175.29018
2259000000,-17.615147,176.06346
2260000000,-17.650244,175.51511
2261000000,-17.624525,175.642
2262000000,-17.563913,175.63823
2263000000,-17.521603,175.62482
2264000000,-17.597244,175.38673
2265000000,-17.504393,175.20554
2266000000,-17.504377,175.30215
2267000000,-17.43384,175.3804
2268000000,-17.472488,175.35786
2269000000,-17.408667,175.35905
2270000000,-17.369764,174.70908
2271000000,-17.371071,175.03482
2272000000,-17.365574,174.71069
2273000000,-17.324356,174.49399
2274000000,-17.320002,174.92229
2275000000,-17.277679,175.01169
2276000000,-17.291952,174.5979
2277000000,-17.276672,174.01295
2278000000,-17.271749,174.29182
2279000000,-17.260824,174.511
2280000000,-17.243914,174.36362
2281000000,-17.237158,173.96777
2282000000,-17.139318,174.06047
2283000000,-17.194052,173.83966
2284000000,-17.138361,173.77029
2285000000,-17.112368,173.71017
2286000000,-17.149509,173.37569
2287000000,-17.079197,173.86295
2288000000,-17.040108,173.81859
2289000000,-17.075609,173.41013
2290000000,-17.066992,173.67859
2291000000,-17.043402,173.25447
2292000000,-16.976933,173.45081
2293000000,-16.994249,173.03001
2294000000,-16.968252,173.0136
2295000000,-16.986696,172.97447
2296000000,-16.967316,172.748
2297000000,-16.970795,173.00169
2298000000,-16.913139,172.72462
2299000000,-16.867538,172.71118
2300000000,-16.842556,172.69273
2301000000,-16.888794,172.50679
2302000000,-16.857183,172.37253
2303000000,-16.86128,172.44351
2304000000,-16.873758,172.71265
2305000000,-16.826893,172.19597
2306000000,-16.804697,172.05241
2307000000,-16.783485,172.03601
2308000000,-16.748569,172.0399
2309000000,-16.756044,171.44614
2310000000,-16.693798,172.15929
2311000000,-16.687073,171.44476
2312000000,-16.698042,171.43423
2313000000,-16.686066,171.30363
2314000000,-16.639839,171.17314
2315000000,-16.619703,171.30739
2316000000,-16.633722,171.36842
2317000000,-16.588713,171.605
2318000000,-16.57526,171.05661
2319000000,-16.557899,171.06844
2320000000,-16.553352,170.75832
2321000000,-16.562881,170.88504
2322000000,-16.525343,170.65321
2323000000,-16.452688,170.84927
2324000000,-16.496172,170.65846
2325000000,-16.494436,170.7993
2326000000,-16.461231,170.64813
2327000000,-16.432798,170.13457
2328000000,-16.407307,170.71211
2329000000,-16.441044,170.24411
2330000000,-16.400221,170.17969
2331000000,-16.372541,170.06638
2332000000,-16.360142,170.07396
2333000000,-16.340689,169.72501
2334000000,-16.341124,169.80814
2335000000,-16.312067,169.59113
2336000000,-16.28113,169.48981
2337000000,-16.256908,169.70738
2338000000,-16.295048,169.80481
2339000000,-16.285639,168.98094
2340000000,-16.194483,169.02106
2341000000,-16.239937,169.66946
2342000000,-16.179569,169.19003
2343000000,-16.220633,168.95459
2344000000,-16.148001,168.72362
2345000000,-16.173719,169.32414
2346000000,-16.14385,168.88342
2347000000,-16.116459,168.54459
2348000000,-16.122637,168.54678
2349000000,-16.12825,168.62498
2350000000,-16.108078,168.38916
2351000000,-16.115543,168.46568
2352000000,-16.032751,168.22617
2353000000,-16.037304,168.35323
2354000000,-16.072508,168.06905
2355000000,-16.001369,167.99052
2356000000,-16.031874,167.65244
2357000000,-15.975874,168.05507
2358000000,-15.968755,167.54956
2359000000,-15.955848,167.60828
2360000000,-15.94964,167.6492
2361000000,-15.95689,167.26323
2362000000,-15.923437,167.64235
2363000000,-15.931944,167.30548
2364000000,-15.870435,167.20456
2365000000,-15.915072,167.28001
2366000000,-15.880085,166.85161
2367000000,-15.867359,166.7751
2368000000,-15.792372,166.96951
2369000000,-15.790977,166.95537
2370000000,-15.787374,166.86049
2371000000,-15.797128,166.34094
2372000000,-15.805906,166.57234
2373000000,-15.759493,166.14526
2374000000,-15.790046,166.17551
2375000000,-15.752799,166.03285
2376000000,-15.750562,166.29985
2377000000,-15.668687,165.99832
2378000000,-15.705007,165.80293
2379000000,-15.695678,165.41116
2380000000,-15.7002,165.40245
2381000000,-15.688282,165.54008
2382000000,-15.663577,165.28293
2383000000,-15.644179,165.34616
2384000000,-15.617433,165.29401
2385000000,-15.639889,165.48688
2386000000,-15.565285,165.21573
2387000000,-15.544472,164.931
2388000000,-15.588919,165.21237
2389000000,-15.564197,164.7169
2390000000,-15.586076,164.51662
2391000000,-15.597136,164.58615
2392000000,-15.439607,164.43153
2393000000,-15.513082,164.96704
2394000000,-15.525393,164.31192
2395000000,-15.504243,164.72931
2396000000,-15.530115,164.30943
2397000000,-15.486348,164.20738
2398000000,-15.467003,164.41737
2399000000,-15.456779,163.65794
2400000000,-15.455984,163.83018
2401000000,-15.437497,163.86549
2402000000,-15.449278,163.79066
2403000000,-15.390212,163.43747
2404000000,-15.409479,163.7934
2405000000,-15.380782,163.26019
2406000000,-15.382654,163.4619
2407000000,-15.332711,163.06166
2408000000,-15.320708,162.95724
2409000000,-15.354563,163.38263
2410000000,-15.324105,162.67679
2411000000,-15.325951,162.91191
2412000000,-15.315048,162.72461
2413000000,-15.307391,162.57495
2414000000,-15.303171,162.42401
2415000000,-15.287395,162.17728
2416000000,-15.256991,162.00037
2417000000,-15.233194,162.05769
2418000000,-15.234139,162.21259
2419000000,-15.223144,162.07231
2420000000,-15.189051,161.99115
2421000000,-15.216768,161.65002
2422000000,-15.196944,161.65504
2423000000,-15.172919,161.70207
2424000000,-15.14008,161.6512
2425000000,-15.157842,161.64902
2426000000,-15.173722,161.29904
2427000000,-15.136374,160.99753
2428000000,-15.127756,161.603
2429000000,-15.162244,160.99672
2430000000,-15.107896,160.97845
2431000000,-15.109109,160.99982
2432000000,-15.081175,161.13165
2433000000,-15.117142,160.71973
2434000000,-15.086364,160.61102
2435000000,-15.070246,160.18019
2436000000,-15.0589,160.34483
2437000000,-15.086211,160.50757
2438000000,-15.085099,160.28915
2439000000,-15.042645,160.25481
2440000000,-15.038074,159.96992
2441000000,-15.019087,160.09328
2442000000,-15.010242,159.89073
2443000000,-14.987049,160.05495
2444000000,-14.984023,159.7653
2445000000,-14.978026,159.51178
2446000000,-14.957054,159.34167
2447000000,-14.951205,159.11108
2448000000,-14.947653,159.20062
2449000000,-14.944731,158.90495
2450000000,-14.951329,158.89915
2451000000,-14.88696,158.95488
2452000000,-14.92574,158.60971
2453000000,-14.824203,158.89499
2454000000,-14.878842,158.63603
2455000000,-14.855866,158.40793
2456000000,-14.864734,158.45192
2457000000,-14.865455,158.25839
2458000000,-14.842797,158.41838
2459000000,-14.837462,158.18353
2460000000,-14.801796,158.02605
2461000000,-14.880877,157.88043
2462000000,-14.859129,157.85709
2463000000,-14.809678,157.65533
2464000000,-14.790936,157.84743
2465000000,-14.771163,157.49925
2466000000,-14.829898,157.3584
2467000000,-14.792519,157.35138
2468000000,-14.768189,157.44618
2469000000,-14.754134,157.27754
2470000000,-14.736945,157.13713
2471000000,-14.796195,156.9072
2472000000,-14.708261,156.77705
2473000000,-14.747116,156.76762
2474000000,-14.73045,156.68971
2475000000,-14.723272,156.51227
2476000000,-14.709782,156.35509
2477000000,-14.709007,156.44775
2478000000,-14.725076,156.18979
2479000000,-14.709584,156.06384
2480000000,-14.688832,156.03598
2481000000,-14.64812,155.85034
2482000000,-14.697553,155.77536
2483000000,-14.649032,155.74124
2484000000,-14.663865,155.66243
2485000000,-14.628597,155.46246
2486000000,-14.607529,155.34775
2487000000,-14.636327,155.45248
2488000000,-14.65611,155.01205
2489000000,-14.565685,155.07117
2490000000,-14.622412,155.04504
2491000000,-14.611272,154.94162
2492000000,-14.598241,154.86052
2493000000,-14.605167,154.8994
2494000000,-14.569645,154.51195
2495000000,-14.531041,154.86041
2496000000,-14.51259,154.47346
2497000000,-14.556194,154.43013
2498000000,-14.532671,154.35759
2499000000,-14.583181,154.19872
2500000000,-14.538715,154.23849
2501000000,-14.552504,153.90681
2502000000,-14.529094,153.88347
2503000000,-14.536431,153.69708
2504000000,-14.53728,153.772
2505000000,-14.473942,153.56012
2506000000,-14.508021,153.47513
2507000000,-14.527878,153.68008
2508000000,-14.435846,153.16327
2509000000,-14.485144,153.30116
2510000000,-14.466779,153.00708
2511000000,-14.436007,152.88184
2512000000,-14.492486,153.17218
2513000000,-14.431466,152.8138
2514000000,-14.45233,152.54021
2515000000,-14.437674,152.61771
2516000000,-14.450483,152.50487
2517000000,-14.424236,152.37337
2518000000,-14.455108,152.58197
2519000000,-14.382017,152.55824
2520000000,-14.443423,151.65877
2521000000,-14.389804,152.07642
2522000000,-14.413002,151.58839
2523000000,-14.427494,151.84085
2524000000,-14.432851,151.49593
2525000000,-14.410764,151.56097
2526000000,-14.413211,151.61362
2527000000,-14.396897,151.39827
2528000000,-14.379445,151.25198
2529000000,-14.31657,151.10281
2530000000,-14.397532,150.83316
2531000000,-14.354624,150.57991
2532000000,-14.33886,150.71599
2533000000,-14.340854,150.70541
2534000000,-14.336398,150.57426
2535000000,-14.337005,150.43829
2536000000,-14.312085,150.5094
2537000000,-14.314456,150.17529
2538000000,-14.35265,150.34914
2539000000,-14.34048,149.7361
2540000000,-14.319142,150.13422
2541000000,-14.331945,149.87163
2542000000,-14.333977,149.78633
2543000000,-14.301516,149.69852
2544000000,-14.306413,149.3662
2545000000,-14.263719,149.3414
2546000000,-14.253892,149.56482
2547000000,-14.275326,149.32135
2548000000,-14.272602,149.0531
2549000000,-14.262146,149.17017
2550000000,-14.289091,148.93312
2551000000,-14.291389,149.03218
2552000000,-14.29422,148.83763
2553000000,-14.29231,148.96664
2554000000,-14.195562,148.75974
2555000000,-14.217279,148.94646
2556000000,-14.230309,148.37959
2557000000,-14.261508,148.1593
2558000000,-14.237233,148.17557
2559000000,-14.207935,148.02142
2560000000,-14.188773,147.77899
2561000000,-14.23172,148.12395
2562000000,-14.182092,147.91267
2563000000,-14.214685,147.69141
2564000000,-14.211466,147.36288
2565000000,-14.184316,147.29214
2566000000,-14.170162,147.36711
2567000000,-14.179664,147.06779
2568000000,-14.168546,147.23299
2569000000,-14.147134,147.29736
2570000000,-14.167638,147.46591
2571000000,-14.150555,146.64487
2572000000,-14.132174,146.47804
2573000000,-14.181553,146.64247
2574000000,-14.122034,146.86617
2575000000,-14.16857,146.46013
2576000000,-14.154862,146.16771
2577000000,-14.107439,146.14485
2578000000,-14.11923,146.15428
2579000000,-14.130127,146.34795
2580000000,-14.128507,145.88757
2581000000,-14.161013,145.9136
2582000000,-14.155421,145.48438
2583000000,-14.134649,145.76289
2584000000,-14.111195,145.67966
2585000000,-14.11506,145.2066
2586000000,-14.080879,145.23396
2587000000,-14.117696,145.1313
2588000000,-14.077846,145.12759
2589000000,-14.080944,144.92279
2590000000,-14.156046,144.9088
2591000000,-14.117896,144.72087
2592000000,-14.155456,144.69228
2593000000,-14.102323,144.3633
2594000000,-14.133657,144.47505
2595000000,-14.094972,144.16341
2596000000,-14.072663,144.32022
2597000000,-14.091168,144.33218
2598000000,-14.091191,144.12253
2599000000,-14.097634,143.95515
2600000000,-14.111558,143.71504
2601000000,-14.107139,143.6866
2602000000,-14.062641,143.87254
2603000000,-14.015782,143.77921
2604000000,-14.070007,143.59769
2605000000,-14.086765,143.3421
2606000000,-14.092741,143.36821
2607000000,-14.072494,143.24995
2608000000,-14.051657,142.98567
2609000000,-14.083105,142.67267
2610000000,-14.050744,142.66451
2611000000,-14.045769,142.64911
2612000000,-14.060464,142.80592
2613000000,-14.052114,142.60304
2614000000,-14.023515,142.61118
2615000000,-14.039919,142.43857
2616000000,-14.064451,142.30695
2617000000,-14.059205,141.88272
2618000000,-14.030155,141.82559
2619000000,-14.06371,141.81546
2620000000,-13.989008,141.79224
2621000000,-14.032172,141.80048
2622000000,-14.029746,141.8322
2623000000,-14.029978,141.69012
2624000000,-14.034514,141.39645
2625000000,-14.026819,141.46114
2626000000,-14.014817,141.01088
2627000000,-14.004569,141.24358
2628000000,-13.998117,141.17702
2629000000,-14.040216,140.77264
2630000000,-14.059736,140.80417
2631000000,-14.017187,140.60327
2632000000,-14.063562,140.75949
2633000000,-14.027877,140.40913
2634000000,-14.040693,140.32607
2635000000,-13.996982,140.28975
2636000000,-14.022983,140.23537
2637000000,-14.054047,140.18028
2638000000,-14.020252,139.87418
2639000000,-14.049595,139.75671
2640000000,-14.007401,139.99921
2641000000,-14.018031,139.72069
2642000000,-14.010196,139.74826
2643000000,-14.056381,139.53247
2644000000,-14.017325,139.48358
2645000000,-14.0534,139.31049
2646000000,-13.974683,139.20782
2647000000,-14.025499,138.97015
2648000000,-13.97704,138.88287
2649000000,-14.003914,138.97307
2650000000,-14.008383,138.74896
2651000000,-14.006612,138.52115
2652000000,-14.003428,138.43369
2653000000,-13.99014,138.27362
2654000000,-13.964838,138.26567
2655000000,-13.965264,138.22557
2656000000,-14.002544,137.98619
2657000000,-13.981631,137.92773
2658000000,-13.93356,138.131
2659000000,-13.985547,137.74895
2660000000,-14.023121,137.53589
2661000000,-14.009364,137.30774
2662000000,-14.026037,137.46478
2663000000,-13.983327,137.47461
2664000000,-13.992958,137.00858
2665000000,-14.001293,137.08957
2666000000,-14.007557,136.78062
2667000000,-14.026149,136.86214
2668000000,-14.020795,136.85103
2669000000,-13.988201,136.61755
2670000000,-13.97629,136.45502
2671000000,-14.003868,136.33022
2672000000,-13.978727,136.58078
2673000000,-14.061278,136.23607
2674000000,-14.011974,135.8743
2675000000,-13.999267,135.96693
2676000000,-13.952487,136.13499
2677000000,-13.959333,135.73695
2678000000,-14.027384,135.7829
2679000000,-13.995317,135.41829
2680000000,-13.992255,135.81107
2681000000,-13.983957,135.4801
2682000000,-14.041877,135.45729
2683000000,-14.006537,134.90953
2684000000,-14.019358,135.14813
2685000000,-14.00001,135.00685
2686000000,-13.994672,135.20554
2687000000,-14.002675,134.44606
2688000000,-14.031729,134.57065
2689000000,-14.048731,134.59615
2690000000,-13.985217,134.5197
2691000000,-14.031459,134.48497
2692000000,-14.04646,134.06973
2693000000,-14.011819,134.34036
2694000000,-14.003912,134.12064
2695000000,-14.010036,133.95993
2696000000,-14.053498,133.90738
2697000000,-14.011934,133.71788
2698000000,-14.027774,133.41707
2699000000,-14.02055,133.3452
2700000000,-14.018835,133.31627
2701000000,-14.078301,133.28696
2702000000,-14.004683,133.16238
2703000000,-14.04654,132.94925
2704000000,-14.019174,132.86723
2705000000,-14.033551,132.70561
2706000000,-14.018012,132.88571
2707000000,-14.030534,132.71213
2708000000,-14.004727,132.53571
2709000000,-14.007169,132.52969
2710000000,-14.014585,132.28725
2711000000,-14.028634,132.05437
2712000000,-14.052445,132.31537
2713000000,-14.047879,132.10512
2714000000,-14.052689,132.01289
2715000000,-14.070233,131.81801
2716000000,-14.058947,131.57036
2717000000,-14.042778,131.45711
2718000000,-14.032468,131.48123
2719000000,-14.06302,131.45813
2720000000,-14.046085,131.25475
2721000000,-14.073831,131.15457
2722000000,-14.090559,131.20743
2723000000,-14.067835,131.01732
2724000000,-14.097452,130.95979
2725000000,-14.081972,130.88885
2726000000,-14.061676,130.44809
2727000000,-14.109222,130.54802
2728000000,-14.10627,130.19209
2729000000,-14.063993,130.37891
2730000000,-14.070286,130.39575
2731000000,-14.105032,130.16675
2732000000,-14.095743,130.03371
2733000000,-14.073818,130.03001
2734000000,-14.070026,129.82925
2735000000,-14.062392,129.68521
2736000000,-14.095229,129.49425
2737000000,-14.102189,129.21283
2738000000,-14.11778,129.24666
2739000000,-14.074084,129.17975
2740000000,-14.100764,129.23857
2741000000,-14.118954,129.14543
2742000000,-14.11266,128.86974
2743000000,-14.075835,128.89325
2744000000,-14.09199,128.76776
2745000000,-14.108273,128.74522
2746000000,-14.134367,128.27354
2747000000,-14.142461,128.28622
2748000000,-14.129078,128.28812
2749000000,-14.152287,128.26007
2750000000,-14.116493,128.05037
2751000000,-14.118722,127.95576
2752000000,-14.158653,127.78889
2753000000,-14.144793,127.68495
2754000000,-14.158993,127.51664
2755000000,-14.16683,127.51638
2756000000,-14.149006,127.22822
2757000000,-14.183376,127.379
2758000000,-14.148712,127.37174
2759000000,-14.197831,127.28243
2760000000,-14.176941,127.02037
2761000000,-14.187172,126.625
2762000000,-14.165754,126.88371
2763000000,-14.165409,126.53506
2764000000,-14.202714,126.52021
2765000000,-14.204254,126.43467
2766000000,-14.187151,126.35234
2767000000,-14.209638,126.20741
2768000000,-14.233584,126.08169
2769000000,-14.270861,126.05542
2770000000,-14.232653,126.03255
2771000000,-14.211022,125.75079
2772000000,-14.224768,125.90482
2773000000,-14.240273,125.66515
2774000000,-14.229233,125.82944
2775000000,-14.216595,125.77482
2776000000,-14.251014,125.34945
2777000000,-14.261635,124.98961
2778000000,-14.258285,125.12039
2779000000,-14.235203,125.0531
2780000000,-14.24631,124.65845
2781000000,-14.275297,124.66701
2782000000,-14.239359,124.837
2783000000,-14.285015,124.22291
2784000000,-14.286112,124.38912
2785000000,-14.309373,124.38441
2786000000,-14.296277,124.16692
2787000000,-14.310778,123.93291
2788000000,-14.310084,123.77743
2789000000,-14.305221,123.94743
2790000000,-14.292412,123.97248
2791000000,-14.342263,123.59057
2792000000,-14.350993,123.33913
2793000000,-14.350805,123.42713
2794000000,-14.371548,123.12326
2795000000,-14.339355,123.08743
2796000000,-14.362003,123.34062
2797000000,-14.385492,122.97891
2798000000,-14.365461,122.74982
2799000000,-14.365461,122.69195
2800000000,-14.35731,122.81371
2801000000,-14.395259,122.47981
2802000000,-14.388743,122.69341
2803000000,-14.409639,122.23171
2804000000,-14.4068,122.03977
2805000000,-14.448548,122.27693
2806000000,-14.448547,122.03338
2807000000,-14.405569,121.83012
2808000000,-14.421011,121.60082
2809000000,-14.401841,121.73584
2810000000,-14.424178,121.54521
2811000000,-14.44196,121.44298
2812000000,-14.464011,121.3437
2813000000,-14.456806,121.24441
2814000000,-14.469027,121.15772
2815000000,-14.456899,120.94895
2816000000,-14.480608,120.95381
2817000000,-14.452518,120.72966
2818000000,-14.510364,120.64893
2819000000,-14.49817,120.51602
2820000000,-14.54086,120.51707
2821000000,-14.5254,120.41396
2822000000,-14.510147,120.1447
2823000000,-14.540988,119.97626
2824000000,-14.529944,119.92783
2825000000,-14.550953,120.03545
2826000000,-14.540181,119.85664
2827000000,-14.547902,119.88833
2828000000,-14.545367,119.64251
2829000000,-14.560849,119.47274
2830000000,-14.599282,119.39922
2831000000,-14.659686,119.24581
2832000000,-14.590396,119.3054
2833000000,-14.626307,119.19908
2834000000,-14.634814,119.13213
2835000000,-14.655084,118.95475
2836000000,-14.604965,118.70813
2837000000,-14.676872,118.77157
2838000000,-14.646424,118.4656
2839000000,-14.627541,118.39265
2840000000,-14.704682,118.2194
2841000000,-14.662887,118.19278
2842000000,-14.63748,117.84851
2843000000,-14.694629,117.82207
2844000000,-14.694781,117.91304
2845000000,-14.671861,117.86636
2846000000,-14.696,117.63635
2847000000,-14.718133,117.36063
2848000000,-14.713663,117.49804
2849000000,-14.724882,117.07684
2850000000,-14.786592,117.40393
2851000000,-14.7508,117.09277
2852000000,-14.714631,116.88782
2853000000,-14.777837,116.94657
2854000000,-14.78143,116.72565
2855000000,-14.802406,116.42522
2856000000,-14.810625,116.41362
2857000000,-14.774273,116.44512
2858000000,-14.76757,116.34752
2859000000,-14.806276,116.24701
2860000000,-14.843965,115.97909
2861000000,-14.799519,115.95666
2862000000,-14.847173,115.75256
2863000000,-14.817633,115.92973
2864000000,-14.875278,115.47734
2865000000,-14.867968,115.55721
2866000000,-14.861712,115.42245
2867000000,-14.898438,115.39983
2868000000,-14.866946,114.98599
2869000000,-14.913752,114.94557
2870000000,-14.896087,115.0116
2871000000,-14.957973,115.07926
2872000000,-14.961503,114.74351
2873000000,-14.952499,114.58649
2874000000,-14.937674,114.49414
2875000000,-14.981181,114.42581
2876000000,-14.992857,114.3877
2877000000,-15.004109,114.22199
2878000000,-14.973777,114.15497
2879000000,-15.012183,113.66826
2880000000,-15.037426,113.49348
2881000000,-15.023685,113.66125
2882000000,-15.037967,113.48847
2883000000,-15.057364,113.23544
2884000000,-15.047116,113.30609
2885000000,-15.058974,113.02825
2886000000,-15.059689,112.82441
2887000000,-15.089052,112.9804
2888000000,-15.116145,112.59641
2889000000,-15.081548,112.64274
2890000000,-15.144512,112.60328
2891000000,-15.10489,112.22685
2892000000,-15.148711,112.43713
2893000000,-15.135677,112.23611
2894000000,-15.172315,112.07977
2895000000,-15.145658,111.91172
2896000000,-15.182399,111.74221
2897000000,-15.219705,111.85555
2898000000,-15.213596,111.67433
2899000000,-15.187786,111.48601
2900000000,-15.267309,111.44324
2901000000,-15.255281,111.02791
2902000000,-15.27264,110.97135
2903000000,-15.251751,111.03084
2904000000,-15.261029,111.12929
2905000000,-15.224072,111.01221
2906000000,-15.281424,110.79581
2907000000,-15.261912,110.66502
2908000000,-15.332671,110.58085
2909000000,-15.33324,110.49078
2910000000,-15.368265,110.04042
2911000000,-15.314919,110.2522
2912000000,-15.342334,110.21757
2913000000,-15.356803,110.09892
2914000000,-15.391536,109.71589
2915000000,-15.392624,110.18488
2916000000,-15.417616,109.61116
2917000000,-15.401194,109.64578
2918000000,-15.460353,109.08675
2919000000,-15.470449,109.33522
2920000000,-15.445173,109.30746
2921000000,-15.486039,109.06607
2922000000,-15.479611,108.87648
2923000000,-15.490649,108.9727
2924000000,-15.502614,108.50094
2925000000,-15.51516,108.49554
2926000000,-15.523887,108.44481
2927000000,-15.552845,108.47346
2928000000,-15.561549,108.36734
2929000000,-15.536899,107.94591
2930000000,-15.591993,108.06593
2931000000,-15.586299,107.67149
2932000000,-15.634007,107.76601
2933000000,-15.596351,107.72594
2934000000,-15.62291,107.57105
2935000000,-15.644298,107.32571
2936000000,-15.61878,107.32628
2937000000,-15.644526,107.08841
2938000000,-15.679703,107.22935
2939000000,-15.691963,107.09061
2940000000,-15.690034,106.75852
2941000000,-15.716341,106.52388
2942000000,-15.751151,106.49271
2943000000,-15.739222,106.68203
2944000000,-15.781756,106.5443
2945000000,-15.781431,106.12338
2946000000,-15.791428,106.13972
2947000000,-15.772275,105.96306
2948000000,-15.83862,105.76737
2949000000,-15.813419,105.64055
2950000000,-15.88828,106.03591
2951000000,-15.870356,105.42307
2952000000,-15.875276,105.37341
2953000000,-15.927741,105.54961
2954000000,-15.892662,105.32294
2955000000,-15.941515,104.7225
2956000000,-15.927252,104.88281
2957000000,-15.945154,104.53886
2958000000,-15.999708,104.80077
2959000000,-15.990962,104.65299
2960000000,-15.976537,104.41615
2961000000,-16.019749,104.08207
2962000000,-16.022251,103.94104
2963000000,-16.059101,103.96378
2964000000,-16.074692,103.84566
2965000000,-16.098061,103.57895
2966000000,-16.089577,103.74865
2967000000,-16.100458,103.49631
2968000000,-16.111603,103.45037
2969000000,-16.142462,103.69359
2970000000,-16.199923,103.23129
2971000000,-16.19298,103.11997
2972000000,-16.195503,102.82058
2973000000,-16.205688,102.71386
2974000000,-16.258652,102.64188
2975000000,-16.20298,102.43707
2976000000,-16.261955,102.37447
2977000000,-16.301237,102.50709
2978000000,-16.272654,101.93404
2979000000,-16.290316,102.13659
2980000000,-16.318525,101.86214
2981000000,-16.360994,101.87794
2982000000,-16.367201,101.7362
2983000000,-16.377127,101.51109
2984000000,-16.365818,101.54834
2985000000,-16.391909,101.10111
2986000000,-16.407633,100.95106
2987000000,-16.437725,100.94905
2988000000,-16.47295,101.06985
2989000000,-16.455988,100.82803
2990000000,-16.493372,100.82689
2991000000,-16.469288,100.46556
2992000000,-16.543354,100.44792
2993000000,-16.550949,100.21289
2994000000,-16.551296,99.802559
2995000000,-16.568884,99.959015
2996000000,-16.555325,99.762512
2997000000,-16.609186,99.723915
2998000000,-16.680374,99.547287
2999000000,-16.668085,99.38768
3000000000,-16.717133,99.211166
3001000000,-16.695759,99.482201
3002000000,-16.741568,98.937111
3003000000,-16.765556,98.927528
3004000000,-16.768036,98.854362
3005000000,-16.790123,98.588112
3006000000,-16.785543,98.752502
3007000000,-16.800644,98.613144
3008000000,-16.802551,98.387024
3009000000,-16.823298,98.31691
3010000000,-16.852385,98.066566
3011000000,-16.896589,97.915627
3012000000,-16.935297,98.075279
3013000000,-16.973026,97.707611
3014000000,-16.947674,97.659683
3015000000,-17.031656,97.389969
3016000000,-16.982649,97.522087
3017000000,-17.044271,97.209663
3018000000,-17.046034,96.881187
3019000000,-17.068342,96.950279
3020000000,-17.095776,96.948509
3021000000,-17.101225,96.594116
3022000000,-17.155958,96.429779
3023000000,-17.173897,96.258659
3024000000,-17.139008,96.439804
3025000000,-17.164148,96.138145
3026000000,-17.221111,95.819817
3027000000,-17.27853,96.090607
3028000000,-17.200825,95.822464
3029000000,-17.287239,95.540314
3030000000,-17.294722,95.546532
3031000000,-17.315168,95.603218
3032000000,-17.333887,95.422417
3033000000,-17.358644,95.323982
3034000000,-17.408552,94.994301
3035000000,-17.391394,94.884888
3036000000,-17.403337,94.627708
3037000000,-17.391064,94.578522
3038000000,-17.501104,94.319008
3039000000,-17.491083,94.130219
3040000000,-17.538071,94.208107
3041000000,-17.539648,93.874954
3042000000,-17.562464,94.140831
3043000000,-17.576794,93.742134
3044000000,-17.633419,93.686218
3045000000,-17.663916,93.574974
3046000000,-17.671869,93.291267
3047000000,-17.69981,93.08638
3048000000,-17.686995,92.751976
3049000000,-17.742455,92.636353
3050000000,-17.730957,93.103943
3051000000,-17.786787,92.620621
3052000000,-17.836498,92.368248
3053000000,-17.831888,92.653534
3054000000,-17.844318,92.105537
3055000000,-17.833672,91.750549
3056000000,-17.934917,91.96566
3057000000,-17.925751,91.763229
3058000000,-18.000944,91.475662
3059000000,-17.956888,91.175148
3060000000,-17.99732,91.170952
3061000000,-18.067327,91.397095
3062000000,-18.070457,91.245438
3063000000,-18.123056,90.659798
3064000000,-18.125462,91.027542
3065000000,-18.132927,90.649651
3066000000,-18.148563,90.604431
3067000000,-18.207264,90.170403
3068000000,-18.224428,90.235405
3069000000,-18.281412,89.875938
3070000000,-18.243011,89.597824
3071000000,-18.292601,89.715096
3072000000,-18.340591,89.521683
3073000000,-18.349358,89.489532
3074000000,-18.408409,89.588585
3075000000,-18.39851,89.240265
3076000000,-18.505697,89.236038
3077000000,-18.50811,88.750641
3078000000,-18.489815,88.62178
3079000000,-18.503319,88.515381
3080000000,-18.608259,88.356575
3081000000,-18.576626,88.343124
3082000000,-18.639759,88.147758
3083000000,-18.654863,88.088524
3084000000,-18.691759,87.854279
3085000000,-18.712202,87.705765
3086000000,-18.80817,87.523239
3087000000,-18.79014,87.262093
3088000000,-18.846893,87.375839
3089000000,-18.80541,87.045753
3090000000,-18.861572,86.82766
3091000000,-18.92407,86.676575
3092000000,-18.920586,86.419662
3093000000,-18.916262,86.360664
3094000000,-18.949179,86.436623
3095000000,-18.986326,86.186188
3096000000,-19.056803,85.842865
3097000000,-19.128565,86.148811
3098000000,-19.11692,85.496948
3099000000,-19.12586,85.627144
3100000000,-19.182503,85.389313
3101000000,-19.213785,85.146652
3102000000,-19.223593,85.006485
3103000000,-19.268423,84.911652
3104000000,-19.340208,84.433792
3105000000,-19.307434,84.309105
3106000000,-19.374088,84.451172
3107000000,-19.475845,84.062065
3108000000,-19.505447,84.181053
3109000000,-19.443727,83.766647
3110000000,-19.550964,83.38018
3111000000,-19.594391,83.540733
3112000000,-19.636314,83.534248
3113000000,-19.655239,83.287613
3114000000,-19.67778,82.837646
3115000000,-19.72847,83.205963
3116000000,-19.784178,82.917046
3117000000,-19.754461,82.628387
3118000000,-19.779285,82.218452
3119000000,-19.841482,81.817848
3120000000,-19.907145,81.886177
3121000000,-19.91288,81.482605
3122000000,-19.916817,81.547112
3123000000,-20.066143,81.761711
3124000000,-20.087147,81.00779
3125000000,-20.056278,81.242767
3126000000,-20.093092,81.283203
3127000000,-20.152987,80.80732
3128000000,-20.123375,80.408058
3129000000,-20.122036,80.33712
3130000000,-20.298288,80.194298
3131000000,-20.286922,80.347549
3132000000,-20.394049,80.372734
3133000000,-20.443312,79.692276
3134000000,-20.39662,79.908005
3135000000,-20.530186,79.997513
3136000000,-20.531099,79.655487
3137000000,-20.630556,79.226479
3138000000,-20.656548,79.065208
3139000000,-20.684792,78.449532
3140000000,-20.743601,78.617371
3141000000,-20.76585,78.934601
3142000000,-20.804281,77.938026
3143000000,-20.851463,77.864052
3144000000,-20.848097,77.83094
3145000000,-20.896614,77.623779
3146000000,-21.001534,77.725418
3147000000,-20.987963,77.33165
3148000000,-21.067476,76.914337
3149000000,-21.086092,76.888672
3150000000,-21.175825,76.245186
3151000000,-21.237068,76.564178
3152000000,-21.224321,76.678642
3153000000,-21.279375,75.946106
3154000000,-21.325403,75.858215
3155000000,-21.329741,75.364204
3156000000,-21.414799,75.724907
3157000000,-21.590734,75.37738
3158000000,-21.538076,74.930656
3159000000,-21.608393,74.918648
3160000000,-21.603586,74.828773
3161000000,-21.707994,74.437866
3162000000,-21.728413,74.155632
3163000000,-21.829746,74.338272
3164000000,-21.818199,73.73378
3165000000,-21.88125,73.521904
3166000000,-21.9181,73.669365
3167000000,-22.022043,72.959778
3168000000,-22.078373,72.785591
3169000000,-22.089178,72.545052
3170000000,-22.116108,72.538162
3171000000,-22.177877,72.543419
3172000000,-22.298141,72.279266
3173000000,-22.272985,71.86113
3174000000,-22.358952,71.943794
3175000000,-22.332117,71.412048
3176000000,-22.462305,71.441467
3177000000,-22.488728,71.200615
3178000000,-22.538157,71.260109
3179000000,-22.697523,70.874962
3180000000,-22.687346,70.300217
3181000000,-22.764925,70.621094
3182000000,-22.899092,70.50898
3183000000,-22.84646,69.73246
3184000000,-22.937012,69.587799
3185000000,-23.051096,69.507454
3186000000,-23.019703,69.065468
3187000000,-23.128229,69.253281
3188000000,-23.11342,68.870491
3189000000,-23.228878,67.92382
3190000000,-23.278708,68.562843
3191000000,-23.404062,68.074905
3192000000,-23.412775,68.099503
3193000000,-23.484152,67.290703
3194000000,-23.547796,67.255852
3195000000,-23.565496,67.490326
3196000000,-23.742395,66.604118
3197000000,-23.723701,66.62027
3198000000,-23.789452,66.241882
3199000000,-23.835718,65.895279
3200000000,-23.982645,65.622391
3201000000,-23.890825,65.769958
3202000000,-24.010099,65.398468
3203000000,-24.145691,64.636147
3204000000,-24.153036,64.649109
3205000000,-24.341082,64.611359
3206000000,-24.341696,64.83503
3207000000,-24.359634,64.425621
3208000000,-24.399267,63.345196
3209000000,-24.564753,63.125988
3210000000,-24.630217,63.420883
3211000000,-24.646402,62.709908
3212000000,-24.778383,63.452377
3213000000,-24.839565,61.691296
3214000000,-24.891775,61.984943
3215000000,-24.993372,61.979557
3216000000,-25.124273,61.81955
3217000000,-25.09037,61.791752
3218000000,-25.173847,61.502132
3219000000,-25.230356,60.516289
3220000000,-25.315218,59.75589
3221000000,-25.400126,60.080368
3222000000,-25.522758,59.632259
3223000000,-25.57707,58.963112
3224000000,-25.732203,58.549644
3225000000,-25.734556,58.545589
3226000000,-25.834522,57.8675
3227000000,-25.873905,57.975826
3228000000,-25.944122,57.214134
3229000000,-26.090889,56.856956
3230000000,-26.081839,56.671043
3231000000,-26.344938,56.398125
3232000000,-26.286297,56.348431
3233000000,-26.470409,55.642616
3234000000,-26.545689,56.426022
3235000000,-26.628567,54.823219
3236000000,-26.761162,55.584415
3237000000,-26.818102,54.12183
3238000000,-26.843489,54.189384
3239000000,-26.897234,52.893993
3240000000,-27.071308,53.548347
3241000000,-27.135756,52.75528
3242000000,-27.296509,52.516979
3243000000,-27.366539,52.686165
3244000000,-27.35037,51.507263
3245000000,-27.524923,51.781406
3246000000,-27.441668,51.203671
3247000000,-27.642014,50.828545
3248000000,-27.798931,49.138611
3249000000,-27.937979,48.002445
3250000000,-27.995802,50.017483
3251000000,-28.215929,49.307411
3252000000,-28.412622,47.7299
3253000000,-28.338911,46.219337
3254000000,-28.189285,47.143345
3255000000,-28.567591,45.776218
3256000000,-28.675245,46.07618
3257000000,-28.744442,45.16996
3258000000,-28.96596,44.228756
3259000000,-29.026121,44.447834
3260000000,-29.222271,42.507565
3261000000,-29.134621,41.646969
3262000000,-29.280375,41.607224
3263000000,-29.368296,41.488712
3264000000,-29.446188,41.51022
3265000000,-29.562553,40.307182
3266000000,-29.654999,39.789272
3267000000,-29.803253,39.118172
3268000000,-29.897419,37.393593
3269000000,-30.18222,36.978401
3270000000,-30.236076,36.509243
3271000000,-30.330523,35.547821
3272000000,-30.448181,36.037018
3273000000,-30.593723,34.130451
3274000000,-30.733965,32.979176
3275000000,-30.800165,31.790689
3276000000,-31.0791,31.767365
3277000000,-30.98842,31.181831
3278000000,-31.175493,30.152861
3279000000,-31.245178,29.253614
3280000000,-31.30117,28.311626
3281000000,-31.456837,27.256407
3282000000,-31.78129,26.038692
3283000000,-31.953411,26.250591
3284000000,-31.781456,24.890564
3285000000,-31.991793,20.927673
3286000000,-32.121754,21.767342
3287000000,-32.196617,20.447882
3288000000,-32.716446,21.784521
3289000000,-32.468315,19.374956
3290000000,-32.774017,17.623371
3291000000,-32.781551,16.914133
3292000000,-32.514927,13.955242
3293000000,-32.796307,13.849462
3294000000,-33.066307,10.872536
3295000000,-33.233673,9.0274172
3296000000,-33.068661,9.2585516
3297000000,-33.180702,9.2297401
3298000000,-33.752186,8.7077065
3299000000,-33.898079,4.9937754
3300000000,-33.680748,2.3450885
3301000000,-33.770199,1.0457742
3302000000,-33.616356,-0.014284347
3303000000,-33.746281,-0.93448621
3304000000,-34.074108,-3.6885881
3305000000,-34.004669,-5.9424005
3306000000,-34.129627,-7.5286589
3307000000,-34.324585,-7.8032036
3308000000,-34.330574,-8.5660543
3309000000,-34.043102,-9.0664816
3310000000,-34.346836,-14.681656
3311000000,-34.22567,-17.885916
3312000000,-34.442905,-18.318974
3313000000,-34.090771,-18.243158
3314000000,-34.191357,-19.733473
3315000000,-34.203861,-22.356947
3316000000,-34.236549,-25.216282
3317000000,-34.119606,-26.594988
3318000000,-33.952469,-28.390127
3319000000,-34.446205,-29.509119
3320000000,-33.992508,-31.911068
3321000000,-34.090927,-34.606754
3322000000,-33.85083,-34.385849
3323000000,-33.727291,-37.006355
3324000000,-33.842941,-37.356712
3325000000,-33.688496,-38.87455
3326000000,-33.748314,-40.193336
3327000000,-33.314072,-43.07336
3328000000,-33.521862,-43.36367
3329000000,-33.284847,-46.076084
3330000000,-33.354126,-46.993248
3331000000,-33.338917,-49.454369
3332000000,-33.099987,-49.088322
3333000000,-32.964504,-52.243359
3334000000,-32.944946,-52.822239
3335000000,-32.747616,-52.150208
3336000000,-32.722443,-55.211632
3337000000,-32.296638,-55.314911
3338000000,-32.46405,-59.116539
3339000000,-32.387222,-57.300098
3340000000,-32.091438,-59.398838
3341000000,-31.819843,-60.158531
3342000000,-31.88999,-60.720261
3343000000,-31.903793,-62.257263
3344000000,-31.814203,-62.920883
3345000000,-31.473333,-65.103607
3346000000,-31.524916,-67.174301
3347000000,-31.343138,-65.630424
3348000000,-30.937487,-65.981171
3349000000,-30.770813,-67.906395
3350000000,-30.981918,-69.428772
3351000000,-30.893114,-71.490143
3352000000,-30.626934,-70.891464
3353000000,-30.405737,-70.578552
3354000000,-30.676018,-73.114494
3355000000,-30.498062,-74.812675
3356000000,-30.21475,-72.953514
3357000000,-30.200632,-73.847946
3358000000,-30.049082,-76.635185
3359000000,-30.154404,-76.268593
3360000000,-29.854185,-77.682327
3361000000,-29.38166,-79.574844
3362000000,-29.440775,-78.166672
3363000000,-29.521027,-80.70224
3364000000,-29.14418,-78.488869
3365000000,-29.122509,-81.834938
3366000000,-28.79035,-81.017555
3367000000,-28.721394,-81.714577
3368000000,-28.803352,-84.012497
3369000000,-28.858425,-82.839699
3370000000,-28.535097,-82.834129
3371000000,-28.642633,-85.455246
3372000000,-28.321392,-85.29007
3373000000,-28.240051,-85.847298
3374000000,-28.135275,-85.208511
3375000000,-28.085737,-86.885078
3376000000,-27.950256,-87.23867
3377000000,-27.55895,-87.538071
3378000000,-27.743738,-88.640297
3379000000,-27.638407,-89.177376
3380000000,-27.294868,-88.906097
3381000000,-27.333389,-89.502197
3382000000,-27.346359,-89.538963
3383000000,-27.107174,-89.97863
3384000000,-27.230749,-89.901855
3385000000,-26.9067,-91.367363
3386000000,-26.883055,-91.804893
3387000000,-26.836697,-91.745468
3388000000,-26.714352,-92.174362
3389000000,-26.598541,-92.57653
3390000000,-26.521906,-92.96666
3391000000,-26.556784,-93.407234
3392000000,-26.353914,-93.135902
3393000000,-26.178192,-94.408752
3394000000,-26.115175,-94.327187
3395000000,-26.06118,-95.195526
3396000000,-25.958895,-94.958191
3397000000,-25.897297,-95.224869
3398000000,-25.858513,-95.939697
3399000000,-25.704441,-95.695305
3400000000,-25.621309,-96.356483
3401000000,-25.587078,-96.609901
3402000000,-25.436251,-97.623154
3403000000,-25.328367,-97.762215
3404000000,-25.391037,-97.973419
3405000000,-25.195938,-98.136269
3406000000,-24.989704,-97.834106
3407000000,-24.968937,-99.276581
3408000000,-24.927547,-98.261269
3409000000,-24.868383,-99.637459
3410000000,-24.847673,-99.623886
3411000000,-24.781782,-100.54129
3412000000,-24.673241,-99.762573
3413000000,-24.481173,-100.6431
3414000000,-24.652004,-100.70535
3415000000,-24.32888,-101.44526
3416000000,-24.227028,-101.74701
3417000000,-24.235188,-101.12167
3418000000,-24.142708,-101.76105
3419000000,-24.097696,-102.06654
3420000000,-23.928686,-102.96831
3421000000,-23.859249,-103.12947
3422000000,-23.834898,-102.43198
3423000000,-23.679596,-103.83427
3424000000,-23.718765,-103.59795
3425000000,-23.734388,-103.65973
3426000000,-23.472925,-103.80501
3427000000,-23.535765,-104.41701
3428000000,-23.463982,-104.70638
3429000000,-23.327089,-104.96948
3430000000,-23.276905,-105.52391
3431000000,-23.257053,-106.38461
3432000000,-23.131462,-105.16364
3433000000,-22.992439,-105.38245
3434000000,-23.085157,-105.53558
3435000000,-22.982998,-106.30525
3436000000,-22.962032,-106.80722
3437000000,-22.897669,-106.71534
3438000000,-22.7728,-106.86271
3439000000,-22.691761,-107.40337
3440000000,-22.699274,-107.45997
3441000000,-22.594791,-107.37534
3442000000,-22.438438,-107.92796
3443000000,-22.378599,-107.83519
3444000000,-22.425554,-108.44064
3445000000,-22.41675,-108.14418
3446000000,-22.229319,-108.8617
3447000000,-22.15626,-108.47899
3448000000,-22.284422,-108.77579
3449000000,-22.084528,-108.94382
3450000000,-22.091272,-109.75729
3451000000,-21.988129,-109.34423
3452000000,-22.034685,-109.56828
3453000000,-21.838095,-110.18481
3454000000,-21.89856,-109.99791
3455000000,-21.738201,-110.69787
3456000000,-21.713005,-110.76577
3457000000,-21.621164,-111.15141
3458000000,-21.639919,-111.2765
3459000000,-21.553461,-110.42163
3460000000,-21.411934,-111.69919
3461000000,-21.43623,-111.26891
3462000000,-21.317999,-111.85548
3463000000,-21.313238,-112.17355
3464000000,-21.235821,-112.02281
3465000000,-21.241909,-112.15678
3466000000,-21.197187,-112.91633
3467000000,-21.066032,-112.57603
3468000000,-21.072666,-112.86683
3469000000,-20.887859,-113.61938
3470000000,-20.915369,-113.8011
3471000000,-20.903452,-113.28899
3472000000,-20.848604,-113.64299
3473000000,-20.785168,-113.53635
3474000000,-20.795095,-113.78098
3475000000,-20.650867,-114.09184
3476000000,-20.56649,-114.87001
3477000000,-20.594584,-114.49747
3478000000,-20.504436,-115.04674
3479000000,-20.452961,-114.65745
3480000000,-20.415419,-114.86802
3481000000,-20.392647,-115.35803
3482000000,-20.339338,-115.61833
3483000000,-20.272394,-115.64918
3484000000,-20.203537,-115.8674
3485000000,-20.159081,-115.87789
3486000000,-20.077581,-116.07683
3487000000,-20.052683,-116.45905
3488000000,-20.015917,-116.6072
3489000000,-19.960226,-116.52269
3490000000,-19.935434,-116.77263
3491000000,-19.820206,-117.09716
3492000000,-19.801828,-117.29491
3493000000,-19.792892,-117.23718
3494000000,-19.67037,-117.37687
3495000000,-19.645758,-117.51521
3496000000,-19.581539,-117.77144
3497000000,-19.678764,-118.47586
3498000000,-19.560369,-117.86336
3499000000,-19.470963,-118.89703
3500000000,-19.46287,-118.45353
3501000000,-19.392324,-118.31188
3502000000,-19.412092,-118.94934
3503000000,-19.299683,-119.20395
3504000000,-19.260515,-119.50184
3505000000,-19.335297,-119.41008
3506000000,-19.204613,-119.3957
3507000000,-19.12479,-119.57689
3508000000,-19.107359,-119.79872
3509000000,-19.014538,-119.96293
3510000000,-18.998487,-120.14538
3511000000,-19.012241,-120.22048
3512000000,-18.962751,-120.76691
3513000000,-18.947779,-120.06947
3514000000,-18.898121,-120.4779
3515000000,-18.809404,-120.74277
3516000000,-18.817724,-121.06634
3517000000,-18.791883,-120.83089
3518000000,-18.74465,-121.00693
3519000000,-18.660585,-121.4853
3520000000,-18.612976,-121.27511
3521000000,-18.522352,-121.59548
3522000000,-18.538258,-121.86821
3523000000,-18.541861,-121.97326
3524000000,-18.478601,-122.00246
3525000000,-18.454391,-122.42116
3526000000,-18.32155,-122.57597
3527000000,-18.390886,-122.73593
3528000000,-18.381302,-122.31066
3529000000,-18.264532,-122.97791
3530000000,-18.308908,-123.18729
3531000000,-18.198481,-122.92702
3532000000,-18.181446,-122.95116
3533000000,-18.147629,-122.91629
3534000000,-18.116104,-123.6035
3535000000,-18.024155,-123.65003
3536000000,-18.009684,-123.42953
3537000000,-18.054684,-123.63942
3538000000,-17.939156,-124.46538
3539000000,-17.931782,-124.45377
3540000000,-17.889339,-124.27323
3541000000,-17.824972,-124.8872
3542000000,-17.832527,-124.94046
3543000000,-17.814396,-124.63343
3544000000,-17.790915,-124.89944
3545000000,-17.716816,-124.78418
3546000000,-17.653759,-124.93023
3547000000,-17.651117,-125.36364
3548000000,-17.618294,-125.22831
3549000000,-17.620319,-125.70896
3550000000,-17.566998,-125.97192
3551000000,-17.52957,-125.87054
3552000000,-17.481529,-125.65484
3553000000,-17.437054,-126.01801
3554000000,-17.387728,-126.28773
3555000000,-17.403105,-126.03087
3556000000,-17.380024,-126.31602
3557000000,-17.311951,-126.78388
3558000000,-17.291327,-126.82634
3559000000,-17.217966,-126.71665
3560000000,-17.200256,-126.8919
3561000000,-17.184097,-126.57823
3562000000,-17.066595,-127.87098
3563000000,-17.101141,-127.49805
3564000000,-17.13665,-127.49547
3565000000,-17.085365,-127.87172
3566000000,-17.06184,-127.83658
3567000000,-17.037949,-127.84962
3568000000,-16.995426,-128.0298
3569000000,-16.992172,-128.18117
3570000000,-16.875355,-128.43123
3571000000,-16.911316,-128.69734
3572000000,-16.836294,-128.49312
3573000000,-16.837946,-128.57082
3574000000,-16.748384,-128.38647
3575000000,-16.708435,-128.92657
3576000000,-16.734831,-128.82014
3577000000,-16.717506,-129.17467
3578000000,-16.696774,-129.2916
3579000000,-16.645494,-129.60323
3580000000,-16.581158,-129.18362
3581000000,-16.554003,-129.75275
3582000000,-16.529396,-129.70607
3583000000,-16.55229,-129.84335
3584000000,-16.513903,-130.13356
3585000000,-16.458761,-129.94969
3586000000,-16.40234,-130.54123
3587000000,-16.358913,-130.55261
3588000000,-16.44495,-130.44901
3589000000,-16.307089,-130.4529
3590000000,-16.293285,-131.00056
3591000000,-16.276375,-130.96994
3592000000,-16.283819,-130.87952
3593000000,-16.246164,-131.15924
3594000000,-16.193119,-131.55598
3595000000,-16.159489,-131.46484
3596000000,-16.121372,-131.39366
3597000000,-16.17717,-131.65526
3598000000,-16.096455,-131.83038
3599000000,-16.047289,-131.64645
3600000000,-16.03006,-131.96867
3601000000,-15.980149,-132.36314
3602000000,-15.959828,-132.23611
3603000000,-15.931939,-132.69447
3604000000,-15.900634,-132.65019
3605000000,-15.924191,-132.65857
3606000000,-15.873142,-132.64194
3607000000,-15.84901,-132.99738
3608000000,-15.799505,-132.72884
3609000000,-15.756648,-133.07985
3610000000,-15.771693,-133.32758
3611000000,-15.747319,-133.13527
3612000000,-15.740076,-133.61035
3613000000,-15.668969,-133.73164
3614000000,-15.660012,-133.73767
3615000000,-15.690162,-133.85611
3616000000,-15.635271,-134.28339
3617000000,-15.637255,-133.98253
3618000000,-15.58008,-134.21678
3619000000,-15.521653,-133.92537
3620000000,-15.514581,-134.29054
3621000000,-15.561594,-134.71495
3622000000,-15.531486,-134.73161
3623000000,-15.462238,-134.89819
3624000000,-15.472444,-134.79456
3625000000,-15.401327,-135.49123
3626000000,-15.356915,-135.19498
3627000000,-15.365169,-135.49435
3628000000,-15.411429,-135.59039
3629000000,-15.304441,-135.42325
3630000000,-15.284674,-135.96751
3631000000,-15.232122,-135.81784
3632000000,-15.259843,-136.19542
3633000000,-15.176291,-135.8181
3634000000,-15.145885,-136.14183
3635000000,-15.191557,-136.28638
3636000000,-15.12189,-136.35237
3637000000,-15.118409,-136.83659
3638000000,-15.081062,-136.67424
3639000000,-15.032784,-136.79654
3640000000,-15.044904,-136.7562
3641000000,-15.008771,-136.91493
3642000000,-15.007826,-137.12646
3643000000,-14.941195,-137.17993
3644000000,-14.962855,-137.38762
3645000000,-14.933477,-137.30055
3646000000,-14.884725,-137.49789
3647000000,-14.884371,-137.70372
3648000000,-14.861023,-137.45529
3649000000,-14.853991,-137.48761
3650000000,-14.804441,-137.77792
3651000000,-14.826486,-138.65788
3652000000,-14.789724,-138.22479
3653000000,-14.755553,-138.32138
3654000000,-14.751024,-138.74992
3655000000,-14.674447,-138.3045
3656000000,-14.741588,-138.82709
3657000000,-14.675106,-138.74535
3658000000,-14.600988,-138.98648
3659000000,-14.648396,-139.03925
3660000000,-14.569132,-139.31589
3661000000,-14.620644,-139.541
3662000000,-14.548963,-139.58244
3663000000,-14.551345,-139.52438
3664000000,-14.548217,-139.7644
3665000000,-14.523971,-139.45808
3666000000,-14.510474,-140.20189
3667000000,-14.445912,-140.03346
3668000000,-14.434536,-139.97621
3669000000,-14.419501,-139.96957
3670000000,-14.410951,-140.06888
3671000000,-14.397365,-140.3707
3672000000,-14.379531,-140.33409
3673000000,-14.340861,-140.55685
3674000000,-14.317773,-140.71246
3675000000,-14.310494,-140.96422
3676000000,-14.275571,-140.76379
3677000000,-14.242234,-141.06598
3678000000,-14.214215,-141.12874
3679000000,-14.215746,-141.39127
3680000000,-14.209008,-141.78665
3681000000,-14.198253,-141.62987
3682000000,-14.133401,-141.69498
3683000000,-14.12799,-141.89493
3684000000,-14.117899,-141.63451
3685000000,-14.105056,-141.93333
3686000000,-14.062731,-142.24751
3687000000,-14.098314,-142.05135
3688000000,-14.041687,-142.57076
3689000000,-14.000558,-142.79292
3690000000,-14.050328,-142.46288
3691000000,-13.965919,-142.63051
3692000000,-13.991459,-142.85817
3693000000,-13.936231,-142.85951
3694000000,-13.945287,-143.28261
3695000000,-13.852571,-143.14349
3696000000,-13.910991,-143.013
3697000000,-13.874975,-142.95404
3698000000,-13.909411,-143.78256
3699000000,-13.868583,-143.44142
3700000000,-13.802775,-143.65656
3701000000,-13.791079,-143.59149
3702000000,-13.776897,-143.79591
3703000000,-13.79906,-144.08739
3704000000,-13.732414,-144.1469
3705000000,-13.752998,-144.0193
3706000000,-13.753052,-144.24545
3707000000,-13.703072,-144.46619
3708000000,-13.692042,-144.48123
3709000000,-13.695875,-144.82326
3710000000,-13.640956,-144.49425
3711000000,-13.637901,-144.76736
3712000000,-13.646807,-144.9765
3713000000,-13.603251,-144.85434
3714000000,-13.570348,-145.21384
3715000000,-13.545599,-145.0885
3716000000,-13.54924,-145.35883
3717000000,-13.51932,-145.45251
3718000000,-13.506051,-145.58151
3719000000,-13.480389,-145.75339
3720000000,-13.450656,-145.72485
3721000000,-13.465155,-145.6693
3722000000,-13.430263,-145.8929
3723000000,-13.422561,-146.17151
3724000000,-13.437135,-146.27872
3725000000,-13.386396,-146.27351
3726000000,-13.376742,-146.47383
3727000000,-13.34046,-146.22415
3728000000,-13.361587,-146.7482
3729000000,-13.320457,-146.86055
3730000000,-13.293238,-146.67592
3731000000,-13.303045,-146.77556
3732000000,-13.241769,-146.94513
3733000000,-13.275546,-146.97337
3734000000,-13.234174,-147.16861
3735000000,-13.251109,-147.28419
3736000000,-13.217767,-147.48747
3737000000,-13.175137,-147.38379
3738000000,-13.220557,-147.84302
3739000000,-13.191849,-147.84387
3740000000,-13.13433,-147.66457
3741000000,-13.127904,-147.98381
3742000000,-13.127053,-148.15796
3743000000,-13.117766,-148.19057
3744000000,-13.127364,-148.5746
3745000000,-13.073865,-148.40224
3746000000,-13.051106,-148.25745
3747000000,-13.025305,-148.57585
3748000000,-13.019602,-148.64308
3749000000,-13.030709,-148.71674
3750000000,-13.030842,-149.1393
3751000000,-13.007313,-148.72003
3752000000,-12.972528,-148.95262
3753000000,-12.956405,-149.11896
3754000000,-12.919476,-149.61624
3755000000,-12.955043,-149.36858
3756000000,-12.91341,-149.37708
3757000000,-12.928453,-149.54274
3758000000,-12.890159,-149.64832
3759000000,-12.855824,-149.53397
3760000000,-12.860171,-150.13132
3761000000,-12.869584,-150.15797
3762000000,-12.814509,-149.99477
3763000000,-12.853625,-150.05301
3764000000,-12.782867,-150.16646
3765000000,-12.794146,-150.13753
3766000000,-12.779171,-150.27782
3767000000,-12.80274,-150.4881
3768000000,-12.727654,-150.72556
3769000000,-12.726464,-150.73553
3770000000,-12.711879,-150.76709
3771000000,-12.736975,-151.00665
3772000000,-12.69078,-151.18753
3773000000,-12.710178,-151.32681
3774000000,-12.643904,-151.15076
3775000000,-12.66486,-151.62968
3776000000,-12.634803,-151.74429
3777000000,-12.616308,-151.45818
3778000000,-12.623541,-151.81337
3779000000,-12.580903,-152.00301
3780000000,-12.582962,-151.84924
3781000000,-12.559755,-152.10986
3782000000,-12.546077,-152.01534
3783000000,-12.568789,-152.27986
3784000000,-12.523825,-152.37927
3785000000,-12.560659,-152.47952
3786000000,-12.488062,-152.67714
3787000000,-12.491077,-152.46439
3788000000,-12.461998,-152.81598
3789000000,-12.496799,-152.77303
3790000000,-12.485106,-152.85205
3791000000,-12.461142,-152.99142
3792000000,-12.432185,-152.89897
3793000000,-12.408812,-153.39429
3794000000,-12.432319,-153.30583
3795000000,-12.397279,-153.49808
3796000000,-12.35646,-153.57558
3797000000,-12.364741,-153.68527
3798000000,-12.368312,-153.69341
3799000000,-12.376639,-153.72333
3800000000,-12.342262,-153.93002
3801000000,-12.324716,-153.75974
3802000000,-12.307901,-153.90894
3803000000,-12.292708,-154.50386
3804000000,-12.307939,-154.07986
3805000000,-12.280137,-154.50351
3806000000,-12.256769,-154.5269
3807000000,-12.240328,-154.45171
3808000000,-12.224369,-154.42986
3809000000,-12.216765,-154.7198
3810000000,-12.189916,-154.96732
3811000000,-12.188051,-154.95215
3812000000,-12.158318,-155.03897
3813000000,-12.174484,-155.14087
3814000000,-12.120401,-155.15405
3815000000,-12.156436,-155.25325
3816000000,-12.118937,-155.28127
3817000000,-12.151786,-155.56668
3818000000,-12.133629,-155.57082
3819000000,-12.079834,-155.62682
3820000000,-12.071095,-155.73573
3821000000,-12.070008,-156.14
3822000000,-12.064606,-156.31979
3823000000,-12.077173,-156.17384
3824000000,-12.030499,-155.93158
3825000000,-12.00206,-156.16858
3826000000,-12.064569,-156.57312
3827000000,-11.997384,-156.45143
3828000000,-12.02809,-156.5412
3829000000,-12.00503,-156.60243
3830000000,-11.971641,-156.83299
3831000000,-11.9609,-157.01541
3832000000,-11.963934,-156.96663
3833000000,-11.929348,-157.12654
3834000000,-11.945026,-157.29617
3835000000,-11.966652,-157.17961
3836000000,-11.926639,-157.32768
3837000000,-11.899043,-157.1877
3838000000,-11.905952,-157.23621
3839000000,-11.872778,-157.73039
3840000000,-11.881215,-157.94507
3841000000,-11.896407,-157.71779
3842000000,-11.886057,-157.86722
3843000000,-11.867967,-158.04686
3844000000,-11.868195,-157.8181
3845000000,-11.818486,-158.20566
3846000000,-11.80162,-158.17017
3847000000,-11.781312,-158.34038
3848000000,-11.82747,-158.41646
3849000000,-11.778028,-158.4521
3850000000,-11.749127,-158.6772
3851000000,-11.764622,-158.71841
3852000000,-11.764042,-159.14957
3853000000,-11.747887,-158.65614
3854000000,-11.672276,-159.03732
3855000000,-11.69715,-158.88687
3856000000,-11.729675,-159.32214
3857000000,-11.690282,-159.3089
3858000000,-11.719427,-159.37148
3859000000,-11.668739,-159.62149
3860000000,-11.677122,-159.43457
3861000000,-11.66582,-159.93179
3862000000,-11.680122,-160.05336
3863000000,-11.67118,-159.73581
3864000000,-11.64158,-159.82314
3865000000,-11.602598,-160.35141
3866000000,-11.644271,-160.41563
3867000000,-11.582458,-160.40979
3868000000,-11.621042,-160.27763
3869000000,-11.577637,-160.45541
3870000000,-11.567876,-160.74303
3871000000,-11.568208,-160.51788
3872000000,-11.572099,-160.73557
3873000000,-11.575081,-160.84988
3874000000,-11.54749,-160.88608
3875000000,-11.540387,-161.12234
3876000000,-11.531917,-161.02594
3877000000,-11.496572,-161.10806
3878000000,-11.522983,-161.49825
3879000000,-11.508772,-161.50864
3880000000,-11.488431,-161.5009
3881000000,-11.472738,-161.51114
3882000000,-11.475384,-161.67331
3883000000,-11.460225,-161.59476
3884000000,-11.454218,-161.93082
3885000000,-11.45575,-161.79773
3886000000,-11.392857,-161.92688
3887000000,-11.427908,-162.00618
3888000000,-11.417888,-161.964
3889000000,-11.401889,-162.28963
3890000000,-11.355881,-162.34
3891000000,-11.386614,-162.45695
3892000000,-11.38358,-162.45757
3893000000,-11.369726,-162.52086
3894000000,-11.384344,-162.41624
3895000000,-11.359916,-163.01294
3896000000,-11.368976,-162.87292
3897000000,-11.345583,-162.98683
3898000000,-11.353538,-163.18933
3899000000,-11.3144,-163.09723
3900000000,-11.309806,-163.00215
3901000000,-11.29415,-163.43321
3902000000,-11.351364,-163.31659
3903000000,-11.288737,-163.50575
3904000000,-11.281286,-163.62152
3905000000,-11.253869,-163.66348
3906000000,-11.289245,-163.68275
3907000000,-11.290849,-163.76688
3908000000,-11.247137,-163.85983
3909000000,-11.229962,-163.85989
3910000000,-11.219419,-163.81792
3911000000,-11.215624,-164.34604
3912000000,-11.285238,-164.64786
3913000000,-11.239685,-164.35783
3914000000,-11.200019,-164.55067
3915000000,-11.211595,-164.44423
3916000000,-11.220109,-164.59987
3917000000,-11.189829,-164.795
3918000000,-11.165594,-164.98753
3919000000,-11.161079,-164.98042
3920000000,-11.140277,-164.62607
3921000000,-11.144029,-165.12048
3922000000,-11.159759,-165.05995
3923000000,-11.126065,-165.50302
3924000000,-11.153822,-165.41449
3925000000,-11.101507,-165.4908
3926000000,-11.108685,-165.67012
3927000000,-11.106124,-165.68163
3928000000,-11.116335,-165.54231
3929000000,-11.081464,-165.78477
3930000000,-11.129487,-166.0883
3931000000,-11.058554,-166.00746
3932000000,-11.086187,-166.01326
3933000000,-11.034427,-166.19728
3934000000,-11.070985,-166.09706
3935000000,-11.053598,-166.46651
3936000000,-11.042924,-166.2765
3937000000,-11.030397,-166.5731
3938000000,-11.015394,-166.64919
3939000000,-11.030298,-166.7558
3940000000,-11.001765,-166.9118
3941000000,-11.025522,-166.86154
3942000000,-10.998898,-166.81197
3943000000,-11.005509,-166.94751
3944000000,-10.978868,-166.96231
3945000000,-10.969406,-167.10553
3946000000,-10.995997,-167.20638
3947000000,-10.969989,-167.29248
3948000000,-10.980003,-167.55009
3949000000,-10.968212,-167.62265
3950000000,-10.982237,-167.62268
3951000000,-10.955692,-167.5871
3952000000,-10.945701,-167.59404
3953000000,-10.93356,-167.97491
3954000000,-10.958843,-167.98865
3955000000,-10.923888,-168.17262
3956000000,-10.917207,-167.83493
3957000000,-10.942241,-168.19528
3958000000,-10.871817,-168.27242
3959000000,-10.886701,-168.38481
3960000000,-10.904185,-168.26073
3961000000,-10.903181,-168.53986
3962000000,-10.879061,-168.70084
3963000000,-10.856238,-168.73734
3964000000,-10.884311,-168.88184
3965000000,-10.88477,-168.93103
3966000000,-10.829942,-169.01506
3967000000,-10.841342,-169.16112
3968000000,-10.84604,-169.07072
3969000000,-10.852759,-169.37259
3970000000,-10.808035,-169.19952
3971000000,-10.823426,-169.53699
3972000000,-10.821691,-169.50417
3973000000,-10.803547,-169.66562
3974000000,-10.838317,-169.6637
3975000000,-10.803014,-169.91313
3976000000,-10.830377,-169.71521
3977000000,-10.802591,-170.04071
3978000000,-10.825419,-170.022
3979000000,-10.793015,-170.05174
3980000000,-10.796912,-170.26675
3981000000,-10.797739,-170.25169
3982000000,-10.762322,-170.29225
3983000000,-10.768229,-170.5407
3984000000,-10.788846,-170.5858
3985000000,-10.74281,-170.57669
3986000000,-10.735928,-170.73782
3987000000,-10.739635,-171.01472
3988000000,-10.731864,-170.77843
3989000000,-10.73884,-170.94479
3990000000,-10.717982,-170.99533
3991000000,-10.768501,-170.97858
3992000000,-10.739754,-171.17125
3993000000,-10.728148,-171.25269
3994000000,-10.696503,-171.18332
3995000000,-10.671606,-171.46951
3996000000,-10.687229,-171.62337
3997000000,-10.723725,-171.44519
3998000000,-10.696945,-171.63409
3999000000,-10.662582,-171.82462
4000000000,-10.6767,-171.77638
4001000000,-10.648028,-171.92921
4002000000,-10.660758,-171.97707
4003000000,-10.642902,-172.03851
4004000000,-10.667904,-172.11507
4005000000,-10.643579,-172.29283
4006000000,-10.638003,-172.31927
4007000000,-10.658121,-172.52744
4008000000,-10.621705,-172.39682
4009000000,-10.642112,-172.64923
4010000000,-10.617556,-172.63127
4011000000,-10.626433,-172.8252
4012000000,-10.638954,-173.07378
4013000000,-10.640667,-172.8278
4014000000,-10.651275,-173.02637
4015000000,-10.602427,-173.06648
4016000000,-10.575805,-173.17232
4017000000,-10.618333,-173.21126
4018000000,-10.609138,-173.26665
4019000000,-10.596164,-173.51076
4020000000,-10.577468,-173.4071
4021000000,-10.589218,-173.62827
4022000000,-10.566954,-173.70634
4023000000,-10.55077,-173.92116
4024000000,-10.582041,-173.85922
4025000000,-10.555285,-173.68994
4026000000,-10.534819,-173.95111
4027000000,-10.547247,-174.08636
4028000000,-10.538431,-174.25339
4029000000,-10.522429,-174.29048
4030000000,-10.566314,-174.19789
4031000000,-10.561987,-174.45984
4032000000,-10.550553,-174.45383
4033000000,-10.534175,-174.40794
4034000000,-10.566324,-174.38217
4035000000,-10.540719,-174.57695
4036000000,-10.541272,-174.77003
4037000000,-10.554953,-174.95653
4038000000,-10.526368,-175.01027
4039000000,-10.489653,-175.02681
4040000000,-10.49358,-175.16339
4041000000,-10.508333,-175.30621
4042000000,-10.500867,-175.29329
4043000000,-10.523031,-175.5246
4044000000,-10.491049,-175.55724
4045000000,-10.503371,-175.4666
4046000000,-10.511317,-175.40871
4047000000,-10.495494,-175.60226
4048000000,-10.485916,-175.86624
4049000000,-10.475496,-175.89081
4050000000,-10.484405,-175.97084
4051000000,-10.499874,-176.04027
4052000000,-10.493582,-176.19179
4053000000,-10.467971,-176.06171
4054000000,-10.468182,-176.18422
4055000000,-10.463819,-176.39203
4056000000,-10.456988,-176.3438
4057000000,-10.459244,-176.50607
4058000000,-10.443533,-176.57759
4059000000,-10.446048,-176.57278
4060000000,-10.452446,-176.60181
4061000000,-10.472733,-176.80258
4062000000,-10.459761,-176.87315
4063000000,-10.444815,-176.84044
4064000000,-10.448739,-177.02493
4065000000,-10.469556,-176.99336
4066000000,-10.425212,-177.31432
4067000000,-10.427275,-177.1403
4068000000,-10.431313,-177.35774
4069000000,-10.429302,-177.36617
4070000000,-10.438533,-177.33772
4071000000,-10.403975,-177.48604
4072000000,-10.435555,-177.6145
4073000000,-10.406094,-177.54733
4074000000,-10.437265,-177.8044
4075000000,-10.402005,-177.82436
4076000000,-10.430779,-178.04495
4077000000,-10.410943,-178.0394
4078000000,-10.394531,-177.9998
4079000000,-10.384976,-177.98221
4080000000,-10.407463,-178.21434
4081000000,-10.399844,-178.28708
4082000000,-10.3929,-178.32846
4083000000,-10.399523,-178.34448
4084000000,-10.407878,-178.62163
4085000000,-10.427679,-178.43761
4086000000,-10.418051,-178.79904
4087000000,-10.416296,-178.6682
4088000000,-10.415046,-179.03111
4089000000,-10.404771,-178.75388
4090000000,-10.388768,-178.91681
4091000000,-10.393351,-178.94765
4092000000,-10.399278,-179.0022
4093000000,-10.40997,-179.04977
4094000000,-10.388817,-179.00424
4095000000,-10.377016,-179.2081
4096000000,-10.388248,-179.37897
4097000000,-10.386241,-179.53177
4098000000,-10.391254,-179.43176
4099000000,-10.396741,-179.54773
4100000000,-10.360624,-179.75186
4101000000,-10.401063,-179.69595
4102000000,-10.382975,-179.66719
4103000000,-10.357756,-180.16203
4104000000,-10.387487,-179.71233
4105000000,-10.367373,-179.97539
4106000000,-10.367967,-180.13104
4107000000,-10.374518,-180.04506
4108000000,-10.337102,-180.20721
4109000000,-10.375907,-180.43126
4110000000,-10.364304,-180.24496
4111000000,-10.351702,-180.55177
4112000000,-10.355194,-180.41708
4113000000,-10.381425,-180.58128
4114000000,-10.347462,-180.65791
4115000000,-10.364614,-180.70737
4116000000,-10.35522,-180.81462
4117000000,-10.351032,-180.79665
4118000000,-10.345162,-180.83719
4119000000,-10.338742,-180.88628
4120000000,-10.330371,-181.23871
4121000000,-10.328817,-181.26135
4122000000,-10.353599,-181.31813
4123000000,-10.335343,-181.43196
4124000000,-10.357864,-181.39345
4125000000,-10.337476,-181.36555
4126000000,-10.343781,-181.6671
4127000000,-10.343546,-181.62897
4128000000,-10.346794,-181.7169
4129000000,-10.328619,-181.73701
4130000000,-10.330832,-181.75513
4131000000,-10.323156,-181.99641
4132000000,-10.357174,-182.06569
4133000000,-10.334409,-182.04822
4134000000,-10.344986,-182.00391
4135000000,-10.337088,-182.22826
4136000000,-10.326941,-182.32362
4137000000,-10.316533,-182.45731
4138000000,-10.34038,-182.37679
4139000000,-10.348852,-182.52237
4140000000,-10.335977,-182.4908
4141000000,-10.316751,-182.68166
4142000000,-10.332319,-182.59891
4143000000,-10.327739,-182.79442
4144000000,-10.34285,-182.80827
4145000000,-10.322308,-182.88861
4146000000,-10.313571,-182.71149
4147000000,-10.319879,-182.94586
4148000000,-10.308279,-183.11581
4149000000,-10.313608,-182.92447
4150000000,-10.307922,-183.20033
4151000000,-10.331861,-183.08813
4152000000,-10.319795,-183.37256
4153000000,-10.321793,-183.23509
4154000000,-10.30067,-183.40814
4155000000,-10.331757,-183.53615
4156000000,-10.30784,-183.66487
4157000000,-10.29372,-183.64825
4158000000,-10.313993,-183.53647
4159000000,-10.315904,-183.51173
4160000000,-10.292672,-183.73544
4161000000,-10.319318,-183.8576
4162000000,-10.327216,-183.94336
4163000000,-10.322008,-184.04625
4164000000,-10.331447,-184.06512
4165000000,-10.312263,-184.15547
4166000000,-10.329095,-184.17197
4167000000,-10.313437,-184.36475
4168000000,-10.318218,-184.39935
4169000000,-10.311512,-184.45468
4170000000,-10.320384,-184.53006
4171000000,-10.317103,-184.47318
4172000000,-10.313608,-184.48187
4173000000,-10.305541,-184.71397
4174000000,-10.303942,-184.57318
4175000000,-10.293809,-184.63846
4176000000,-10.313162,-184.94989
4177000000,-10.326576,-184.84712
4178000000,-10.313509,-184.87924
4179000000,-10.330146,-184.95477
4180000000,-10.302199,-184.90668
4181000000,-10.311686,-185.10367
4182000000,-10.308846,-185.18489
4183000000,-10.320985,-185.34647
4184000000,-10.295325,-185.24257
4185000000,-10.308689,-185.37631
4186000000,-10.31696,-185.39473
4187000000,-10.321156,-185.4597
4188000000,-10.316248,-185.56496
4189000000,-10.288044,-185.57726
4190000000,-10.314234,-185.82843
4191000000,-10.315552,-185.75478
4192000000,-10.286989,-185.77084
4193000000,-10.338487,-185.96062
4194000000,-10.337547,-185.82848
4195000000,-10.314784,-185.96205
4196000000,-10.289425,-186.21397
4197000000,-10.295444,-185.995
4198000000,-10.300977,-186.08299
4199000000,-10.28267,-186.47025
4200000000,-10.296627,-185.99394
4201000000,-10.299345,-186.30965
4202000000,-10.323069,-186.48476
4203000000,-10.313464,-186.40604
4204000000,-10.317404,-186.58835
4205000000,-10.307935,-186.5668
4206000000,-10.322498,-186.66046
4207000000,-10.341287,-186.70039
4208000000,-10.303098,-186.75494
4209000000,-10.328512,-186.73874
4210000000,-10.337102,-186.75993
4211000000,-10.328872,-186.87462
4212000000,-10.295741,-186.97342
4213000000,-10.302268,-186.98334
4214000000,-10.371054,-187.13652
4215000000,-10.325352,-187.10515
4216000000,-10.351646,-187.17047
4217000000,-10.335544,-187.18553
4218000000,-10.324307,-187.15614
4219000000,-10.318292,-187.3382
4220000000,-10.342172,-187.13829
4221000000,-10.321939,-187.42126
4222000000,-10.312931,-187.56584
4223000000,-10.303288,-187.68367
4224000000,-10.293229,-187.49544
4225000000,-10.334579,-187.69823
4226000000,-10.32077,-187.72752
4227000000,-10.33992,-187.73532
4228000000,-10.335714,-187.73486
4229000000,-10.311772,-187.84348
4230000000,-10.310472,-187.90913
4231000000,-10.285074,-187.77908
4232000000,-10.342093,-188.0148
4233000000,-10.319837,-188.1189
4234000000,-10.30839,-188.09946
4235000000,-10.335251,-188.29208
4236000000,-10.303273,-188.06931
4237000000,-10.295723,-188.37988
4238000000,-10.293622,-188.33125
4239000000,-10.308499,-188.42671
4240000000,-10.320582,-188.51964
4241000000,-10.288134,-188.43655
4242000000,-10.332151,-188.61417
4243000000,-10.318734,-188.56444
4244000000,-10.285927,-188.57123
4245000000,-10.372737,-188.67992
4246000000,-10.328003,-188.79236
4247000000,-10.321756,-188.97279
4248000000,-10.314601,-188.83896
4249000000,-10.301087,-189.04143
4250000000,-10.321895,-189.08954
4251000000,-10.351256,-189.20615
4252000000,-10.353955,-189.16971
4253000000,-10.317195,-189.25136
4254000000,-10.369374,-189.12964
4255000000,-10.351758,-189.27339
4256000000,-10.339766,-189.28693
4257000000,-10.379174,-189.31172
4258000000,-10.351075,-189.31
4259000000,-10.350426,-189.55647
4260000000,-10.356609,-189.38017
4261000000,-10.391368,-189.32175
4262000000,-10.367236,-189.59666
4263000000,-10.343801,-189.66484
4264000000,-10.332814,-189.54707
4265000000,-10.33188,-189.72842
4266000000,-10.31822,-189.65807
4267000000,-10.345765,-189.93135
4268000000,-10.318577,-190.01465
4269000000,-10.3517,-189.94264
4270000000,-10.367236,-189.78313
4271000000,-10.347669,-190.04512
4272000000,-10.343135,-190.01543
4273000000,-10.358264,-190.11696
4274000000,-10.360363,-190.01773
4275000000,-10.3506,-190.38187
4276000000,-10.36706,-190.34982
4277000000,-10.337224,-190.35146
4278000000,-10.362767,-190.4859
4279000000,-10.364956,-190.35695
4280000000,-10.359357,-190.6033
4281000000,-10.351953,-190.22639
4282000000,-10.361761,-190.68156
4283000000,-10.348048,-190.70247
4284000000,-10.368026,-191.0442
4285000000,-10.359749,-190.5844
4286000000,-10.351632,-190.94553
4287000000,-10.39639,-191.05354
4288000000,-10.369349,-190.76825
4289000000,-10.372606,-190.96153
4290000000,-10.401188,-191.03812
4291000000,-10.363459,-191.01576
4292000000,-10.353766,-190.97679
4293000000,-10.379961,-191.27382
4294000000,-10.392938,-191.09891
4295000000,-10.367342,-191.38313
4296000000,-10.370155,-191.29419
4297000000,-10.424773,-191.40013
4298000000,-10.398614,-191.50253
4299000000,-10.394906,-191.6111
4300000000,-10.386913,-191.58957
4301000000,-10.378148,-191.63348
4302000000,-10.399051,-191.70921
4303000000,-10.417195,-191.68443
4304000000,-10.385216,-191.61841
4305000000,-10.402507,-191.71722
4306000000,-10.396932,-191.70168
4307000000,-10.398149,-191.93068
4308000000,-10.418918,-191.82521
4309000000,-10.430581,-192.09892
4310000000,-10.421191,-191.82809
4311000000,-10.440012,-192.13715
4312000000,-10.438515,-191.92436
4313000000,-10.436868,-192.1647
4314000000,-10.4403,-191.98241
4315000000,-10.433894,-192.1172
4316000000,-10.413602,-192.22913
4317000000,-10.445755,-192.26503
4318000000,-10.437755,-192.33342
4319000000,-10.455306,-192.04752
4320000000,-10.445683,-192.4113
4321000000,-10.429716,-192.17947
4322000000,-10.426044,-192.43767
4323000000,-10.418124,-192.45261
4324000000,-10.430463,-192.5479
4325000000,-10.451194,-192.54515
4326000000,-10.4468,-192.91336
4327000000,-10.477184,-192.72041
4328000000,-10.473963,-192.61435
4329000000,-10.442893,-192.70387
4330000000,-10.44194,-192.77171
4331000000,-10.434106,-192.55031
4332000000,-10.503893,-192.81764
4333000000,-10.480297,-192.71828
4334000000,-10.470235,-192.57013
4335000000,-10.474619,-193.11485
4336000000,-10.437236,-193.07442
4337000000,-10.511821,-192.98703
4338000000,-10.471543,-193.07753
4339000000,-10.484574,-193.18227
4340000000,-10.457048,-193.13452
4341000000,-10.494264,-193.13187
4342000000,-10.489248,-192.94844
4343000000,-10.45534,-193.38585
4344000000,-10.516611,-192.97675
4345000000,-10.482803,-193.11821
4346000000,-10.487386,-193.54886
4347000000,-10.487167,-193.44363
4348000000,-10.511145,-193.4135
4349000000,-10.534217,-193.53343
4350000000,-10.519983,-193.48448
4351000000,-10.529507,-193.61211
4352000000,-10.516839,-193.51678
4353000000,-10.550875,-193.53729
4354000000,-10.507598,-193.53999
4355000000,-10.504553,-193.53743
4356000000,-10.511874,-193.61838
4357000000,-10.516909,-193.73218
4358000000,-10.531107,-193.89973
4359000000,-10.506693,-193.70761
4360000000,-10.541177,-193.92921
4361000000,-10.515311,-194.06979
4362000000,-10.532652,-193.88063
4363000000,-10.539204,-193.98091
4364000000,-10.574961,-193.74887
4365000000,-10.55131,-193.86763
4366000000,-10.54609,-193.83649
4367000000,-10.515905,-193.78546
4368000000,-10.560388,-194.07631
4369000000,-10.513777,-193.95264
4370000000,-10.566786,-194.19868
4371000000,-10.542532,-194.13873
4372000000,-10.558729,-193.81517
4373000000,-10.581207,-193.93559
4374000000,-10.554341,-194.08456
4375000000,-10.590866,-194.21078
4376000000,-10.533642,-194.27971
4377000000,-10.584825,-194.31593
4378000000,-10.55727,-194.43025
4379000000,-10.552295,-194.36787
4380000000,-10.582337,-194.48199
4381000000,-10.591942,-194.26216
4382000000,-10.582461,-194.37729
4383000000,-10.605194,-194.62802
4384000000,-10.577188,-194.7126
4385000000,-10.556893,-194.57964
4386000000,-10.569478,-194.54865
4387000000,-10.576926,-194.51056
4388000000,-10.581487,-194.649
4389000000,-10.550803,-194.66119
4390000000,-10.578658,-194.40442
4391000000,-10.59678,-194.60011
4392000000,-10.582744,-194.54843
4393000000,-10.575602,-194.77498
4394000000,-10.574822,-194.79286
4395000000,-10.604757,-194.82202
4396000000,-10.576303,-194.9357
4397000000,-10.61538,-194.95441
4398000000,-10.585294,-195.06294
4399000000,-10.593116,-195.07387
4400000000,-10.597078,-194.79324
4401000000,-10.626464,-195.18559
4402000000,-10.609149,-195.06439
4403000000,-10.622697,-194.99199
4404000000,-10.611311,-194.88826
4405000000,-10.604432,-195.27715
4406000000,-10.629608,-195.13411
4407000000,-10.664407,-195.20494
4408000000,-10.626012,-195.0164
4409000000,-10.656266,-194.96953
4410000000,-10.654221,-195.05127
4411000000,-10.635858,-195.36703
4412000000,-10.617362,-195.13269
4413000000,-10.63123,-195.06853
4414000000,-10.666636,-195.26604
4415000000,-10.600595,-195.54639
4416000000,-10.64484,-195.34064
4417000000,-10.62305,-195.53526
4418000000,-10.62774,-195.2766
4419000000,-10.649992,-195.11667
4420000000,-10.640138,-195.46077
4421000000,-10.654254,-195.50816
4422000000,-10.670972,-195.46089
4423000000,-10.611174,-195.50783
4424000000,-10.675797,-195.58946
4425000000,-10.654171,-195.5464
4426000000,-10.659149,-195.44049
4427000000,-10.657895,-195.72493
4428000000,-10.632298,-195.52925
4429000000,-10.664426,-195.83223
4430000000,-10.685513,-195.5688
4431000000,-10.67139,-195.78043
4432000000,-10.65636,-195.49283
4433000000,-10.671151,-195.68384
4434000000,-10.65605,-195.71661
4435000000,-10.641265,-195.50464
4436000000,-10.682366,-195.817
4437000000,-10.677706,-195.75861
4438000000,-10.67025,-195.97815
4439000000,-10.660707,-195.7673
4440000000,-10.654118,-195.76077
4441000000,-10.716708,-195.77608
4442000000,-10.677459,-195.73332
4443000000,-10.756531,-195.68062
4444000000,-10.70264,-195.97249
4445000000,-10.673184,-196.10927
4446000000,-10.709441,-195.76161
4447000000,-10.650031,-195.85139
4448000000,-10.664051,-195.89671
4449000000,-10.708305,-196.04547
4450000000,-10.662566,-196.1899
4451000000,-10.699037,-195.98276
4452000000,-10.689302,-195.8909
4453000000,-10.708261,-196.04826
4454000000,-10.724996,-196.14421
4455000000,-10.665437,-195.9915
4456000000,-10.71521,-195.97279
4457000000,-10.726724,-196.10741
4458000000,-10.661416,-195.85323
4459000000,-10.699859,-196.23434
4460000000,-10.691454,-196.01067
4461000000,-10.674367,-196.14294
4462000000,-10.709021,-196.16411
4463000000,-10.654169,-195.80257
4464000000,-10.725793,-196.06964
4465000000,-10.652795,-196.15773
4466000000,-10.73556,-196.15646
4467000000,-10.689408,-196.11438
4468000000,-10.710526,-196.34416
4469000000,-10.689976,-196.12398
4470000000,-10.738415,-196.2384
4471000000,-10.747535,-196.50237
4472000000,-10.724168,-196.21774
4473000000,-10.738755,-196.38475
4474000000,-10.720544,-196.27939
4475000000,-10.697604,-196.02026
4476000000,-10.740515,-196.25684
4477000000,-10.724831,-196.4191
4478000000,-10.725574,-196.05359
4479000000,-10.715977,-196.49467
4480000000,-10.712245,-196.53131
4481000000,-10.72857,-196.42926
4482000000,-10.734492,-196.41823
4483000000,-10.731375,-196.35359
4484000000,-10.722376,-196.53943
4485000000,-10.733924,-196.47632
4486000000,-10.731308,-196.27051
4487000000,-10.740721,-196.57845
4488000000,-10.746153,-196.15536
4489000000,-10.747568,-196.60701
4490000000,-10.703666,-196.49258
4491000000,-10.714594,-196.36497
4492000000,-10.741687,-196.3985
4493000000,-10.747783,-196.5585
4494000000,-10.726591,-196.56638
4495000000,-10.689111,-196.75168
4496000000,-10.748177,-196.57617
4497000000,-10.731055,-196.35007
4498000000,-10.765696,-196.69571
4499000000,-10.727067,-196.88998
4500000000,-10.729074,-196.60199
4501000000,-10.711249,-196.61526
4502000000,-10.736392,-196.75237
4503000000,-10.76343,-196.69937
4504000000,-10.75209,-196.81418
4505000000,-10.738031,-196.66528
4506000000,-10.731505,-196.74751
4507000000,-10.754505,-196.54703
4508000000,-10.706511,-196.90741
4509000000,-10.75934,-196.60176
4510000000,-10.702567,-196.84912
4511000000,-10.764705,-196.76984
4512000000,-10.699855,-196.90363
4513000000,-10.746007,-196.73865
4514000000,-10.758676,-196.69066
4515000000,-10.759048,-196.85316
4516000000,-10.710098,-196.7148
4517000000,-10.712368,-196.69414
4518000000,-10.68856,-196.86504
4519000000,-10.752447,-196.93515
4520000000,-10.727188,-196.64438
4521000000,-10.764131,-196.83917
4522000000,-10.747256,-196.90021
4523000000,-10.747108,-197.00282
4524000000,-10.76635,-197.02078
4525000000,-10.727364,-196.93425
4526000000,-10.760405,-196.9296
4527000000,-10.737362,-197.04256
4528000000,-10.737589,-196.92221
4529000000,-10.74152,-196.77591
4530000000,-10.723177,-197.01494
4531000000,-10.744253,-197.13802
4532000000,-10.722482,-196.93814
4533000000,-10.733991,-197.16046
4534000000,-10.750792,-197.23401
4535000000,-10.710563,-197.00531
4536000000,-10.71016,-196.76337
4537000000,-10.714572,-196.9619
4538000000,-10.692593,-196.80525
4539000000,-10.690452,-196.9812
4540000000,-10.758334,-196.9388
4541000000,-10.72973,-197.12769
4542000000,-10.734032,-197.17056
4543000000,-10.704565,-197.05597
4544000000,-10.723913,-197.11174
4545000000,-10.720387,-197.03899
4546000000,-10.709919,-197.2298
4547000000,-10.73428,-197.30455
4548000000,-10.716686,-197.01923
4549000000,-10.721704,-197.11316
4550000000,-10.703673,-197.32379
4551000000,-10.69979,-197.22125
4552000000,-10.677763,-197.40611
4553000000,-10.697421,-197.06984
4554000000,-10.69532,-197.16156
4555000000,-10.67426,-197.40916
4556000000,-10.680432,-197.36493
4557000000,-10.676055,-197.3645
4558000000,-10.71412,-197.34
4559000000,-10.654192,-197.23692
4560000000,-10.68124,-197.35516
4561000000,-10.694439,-197.58722
4562000000,-10.701068,-197.07449
4563000000,-10.681773,-197.58705
4564000000,-10.700399,-197.48224
4565000000,-10.653822,-197.24255
4566000000,-10.689663,-197.11554
4567000000,-10.697507,-197.25029
4568000000,-10.705749,-197.42374
4569000000,-10.701602,-197.19232
4570000000,-10.698237,-197.26447
4571000000,-10.657413,-197.49742
4572000000,-10.6945,-197.6012
4573000000,-10.674285,-197.4949
4574000000,-10.652647,-197.14307
4575000000,-10.697745,-197.43396
4576000000,-10.645419,-197.37357
4577000000,-10.693214,-197.45346
4578000000,-10.674824,-197.37816
4579000000,-10.655402,-197.31534
4580000000,-10.700739,-197.37897
4581000000,-10.622932,-197.29666
4582000000,-10.634345,-197.52472
4583000000,-10.643914,-197.29913
4584000000,-10.647535,-197.54747
4585000000,-10.655788,-197.56203
4586000000,-10.657868,-197.26608
4587000000,-10.656165,-197.59222
4588000000,-10.656665,-197.41908
4589000000,-10.626746,-197.50632
4590000000,-10.636925,-197.37311
4591000000,-10.611426,-197.56387
4592000000,-10.615103,-197.42342
4593000000,-10.637941,-197.61035
4594000000,-10.669282,-197.57605
4595000000,-10.639201,-197.70087
4596000000,-10.617565,-197.55191
4597000000,-10.583893,-197.36745
4598000000,-10.60558,-197.84978
4599000000,-10.574807,-197.44742
4600000000,-10.626663,-197.68619
4601000000,-10.63766,-197.67323
4602000000,-10.588831,-197.67764
4603000000,-10.595531,-197.77344
4604000000,-10.57812,-197.6028
4605000000,-10.608454,-197.67889
4606000000,-10.59443,-197.89909
4607000000,-10.601784,-197.73326
4608000000,-10.577718,-197.48575
4609000000,-10.558934,-197.78734
4610000000,-10.581739,-197.6002
4611000000,-10.580128,-197.78731
4612000000,-10.549181,-198.05339
4613000000,-10.596713,-198.04677
4614000000,-10.562314,-198.02173
4615000000,-10.5714,-197.59306
4616000000,-10.551358,-197.84479
4617000000,-10.580227,-198.04886
4618000000,-10.585148,-197.77788
4619000000,-10.562605,-197.91193
4620000000,-10.618907,-197.68939
4621000000,-10.565331,-197.66928
4622000000,-10.532368,-197.66273
4623000000,-10.531341,-197.59264
4624000000,-10.568265,-197.6608
4625000000,-10.516857,-197.79369
4626000000,-10.496579,-197.53059
4627000000,-10.557161,-197.98103
4628000000,-10.57501,-198.08087
4629000000,-10.525223,-197.86919
4630000000,-10.542097,-197.84064
4631000000,-10.543448,-197.9388
4632000000,-10.527479,-197.87968
4633000000,-10.536004,-197.73801
4634000000,-10.506242,-197.99577
4635000000,-10.503373,-198.08678
4636000000,-10.540036,-198.12401
4637000000,-10.51378,-198.07021
4638000000,-10.484266,-197.82999
4639000000,-10.503304,-198.33888
4640000000,-10.529019,-197.90244
4641000000,-10.505823,-198.04449
4642000000,-10.477047,-198.15839
4643000000,-10.489998,-197.91228
4644000000,-10.530179,-198.00323
4645000000,-10.502397,-197.86635
4646000000,-10.49802,-198.254
4647000000,-10.46788,-198.06575
4648000000,-10.536383,-198.12692
4649000000,-10.498808,-198.22891
4650000000,-10.47629,-198.00758
4651000000,-10.445301,-198.04655
4652000000,-10.496049,-197.86229
4653000000,-10.442063,-198.19739
4654000000,-10.414329,-198.04402
4655000000,-10.42923,-198.24066
4656000000,-10.452768,-198.15314
4657000000,-10.463545,-198.20284
4658000000,-10.413986,-198.09203
4659000000,-10.455622,-198.12619
4660000000,-10.444035,-198.21815
4661000000,-10.440355,-198.3273
4662000000,-10.445031,-198.0638
4663000000,-10.41634,-198.15166
4664000000,-10.406749,-198.2578
4665000000,-10.423377,-198.2153
4666000000,-10.454123,-198.67021
4667000000,-10.426094,-198.43694
4668000000,-10.369237,-198.05846
4669000000,-10.382014,-198.10133
4670000000,-10.383339,-198.13184
4671000000,-10.369293,-198.53758
4672000000,-10.3668,-198.68692
4673000000,-10.369585,-198.38376
4674000000,-10.368724,-198.63066
4675000000,-10.391462,-198.34181
4676000000,-10.296642,-198.39246
4677000000,-10.327759,-198.52493
4678000000,-10.378023,-198.61824
4679000000,-10.327124,-198.60707
4680000000,-10.361675,-198.46405
4681000000,-10.340447,-198.58557
4682000000,-10.359036,-198.65489
4683000000,-10.353365,-198.46799
4684000000,-10.276924,-198.73737
4685000000,-10.33999,-198.64621
4686000000,-10.353242,-198.61804
4687000000,-10.324188,-198.87201
4688000000,-10.286131,-198.73891
4689000000,-10.304061,-198.92831
4690000000,-10.34351,-198.58492
4691000000,-10.292384,-198.57529
4692000000,-10.315177,-198.62993
4693000000,-10.292169,-198.71878
4694000000,-10.277877,-198.85205
4695000000,-10.299303,-198.80382
4696000000,-10.286441,-198.73051
4697000000,-10.277874,-198.91113
4698000000,-10.29769,-198.49341
4699000000,-10.29154,-198.82874
4700000000,-10.2863,-198.43407
4701000000,-10.21077,-198.74355
4702000000,-10.260133,-199.08488
4703000000,-10.292191,-199.08406
4704000000,-10.225919,-198.74059
4705000000,-10.296167,-198.89622
4706000000,-10.225954,-198.96898
4707000000,-10.277999,-198.88445
4708000000,-10.208083,-199.0405
4709000000,-10.199953,-199.09209
4710000000,-10.201739,-198.7823
4711000000,-10.175517,-199.3127
4712000000,-10.200623,-199.20995
4713000000,-10.155503,-199.36494
4714000000,-10.228013,-199.24648
4715000000,-10.190017,-198.99869
4716000000,-10.189408,-199.12758
4717000000,-10.194878,-199.0351
4718000000,-10.142188,-199.01424
4719000000,-10.222429,-198.98466
4720000000,-10.159615,-199.18781
4721000000,-10.168109,-198.98177
4722000000,-10.15471,-199.03687
4723000000,-10.139256,-199.16849
4724000000,-10.130379,-199.14673
4725000000,-10.13493,-199.24609
4726000000,-10.123503,-199.40219
4727000000,-10.123666,-199.31821
4728000000,-10.140627,-199.30644
4729000000,-10.101456,-199.50374
4730000000,-10.131474,-199.47354
4731000000,-10.148296,-199.51309
4732000000,-10.106387,-199.28966
4733000000,-10.097379,-199.45868
4734000000,-10.07241,-199.61162
4735000000,-10.036364,-199.44861
4736000000,-10.105906,-199.66245
4737000000,-10.069477,-199.73636
4738000000,-10.064303,-199.57574
4739000000,-10.100904,-199.58952
4740000000,-10.068753,-199.94171
4741000000,-9.9963417,-199.53552
4742000000,-10.059911,-199.58395
4743000000,-10.077592,-199.85345
4744000000,-10.030771,-199.67859
4745000000,-10.065198,-199.8284
4746000000,-10.038758,-199.67397
4747000000,-10.048764,-199.53737
4748000000,-10.016541,-199.93434
4749000000,-10.043756,-199.68277
4750000000,-10.011317,-199.79794
4751000000,-9.9748011,-199.72025
4752000000,-10.000118,-199.7606
4753000000,-9.9998407,-200.20427
4754000000,-9.9663591,-199.86688
4755000000,-9.9805794,-199.88933
4756000000,-9.9600763,-199.58611
4757000000,-9.9783573,-199.77698
4758000000,-9.954937,-199.79906
4759000000,-9.9865818,-200.03041
4760000000,-9.9248648,-200.04092
4761000000,-9.9129648,-199.85443
4762000000,-9.9643545,-199.90187
4763000000,-9.9881153,-199.84898
4764000000,-9.898242,-200.24084
4765000000,-9.9134588,-200.0815
4766000000,-9.9392862,-200.16074
4767000000,-9.9255743,-200.10754
4768000000,-9.8740349,-199.92786
4769000000,-9.9181452,-200.10452
4770000000,-9.8896732,-200.34547
4771000000,-9.8687105,-200.29303
4772000000,-9.8854151,-200.40514
4773000000,-9.8609037,-200.38062
4774000000,-9.8708076,-200.6057
4775000000,-9.8759117,-200.32671
4776000000,-9.8741341,-200.47856
4777000000,-9.8455153,-200.3723
4778000000,-9.8624496,-200.60469
4779000000,-9.8129253,-200.54695
4780000000,-9.8205862,-200.4769
4781000000,-9.8187437,-200.51048
4782000000,-9.7926264,-200.58896
4783000000,-9.8469343,-200.50008
4784000000,-9.8427906,-200.89694
4785000000,-9.8472242,-200.66725
4786000000,-9.8245583,-200.59596
4787000000,-9.8205204,-200.72299
4788000000,-9.7843666,-200.91495
4789000000,-9.7991667,-200.66478
4790000000,-9.781147,-200.71185
4791000000,-9.7502184,-200.76936
4792000000,-9.765214,-200.83565
4793000000,-9.7476168,-200.83638
4794000000,-9.7506409,-200.82544
4795000000,-9.7284718,-200.8159
4796000000,-9.7147989,-201.00227
4797000000,-9.7138376,-200.78419
4798000000,-9.701313,-201.08174
4799000000,-9.7374477,-200.79936
4800000000,-9.7207422,-201.20201
4801000000,-9.7071857,-200.82309
4802000000,-9.6865101,-200.99718
4803000000,-9.6814394,-201.30006
4804000000,-9.639698,-201.16357
4805000000,-9.6700983,-201.35448
4806000000,-9.7052946,-201.45146
4807000000,-9.6920815,-201.34245
4808000000,-9.6535072,-201.06775
4809000000,-9.6732664,-201.39383
4810000000,-9.6396246,-201.34628
4811000000,-9.6629753,-201.19174
4812000000,-9.6338434,-201.42485
4813000000,-9.6214361,-201.45599
4814000000,-9.6731653,-201.64519
4815000000,-9.6075716,-201.37613
4816000000,-9.612133,-201.70618
4817000000,-9.6357832,-201.60373
4818000000,-9.5881577,-201.22809
4819000000,-9.6138983,-201.40169
4820000000,-9.593626,-201.67192
4821000000,-9.6592522,-201.85869
4822000000,-9.5600004,-201.63148
4823000000,-9.5769682,-201.48468
4824000000,-9.6113062,-201.80777
4825000000,-9.5745392,-201.7164
4826000000,-9.595048,-201.74965
4827000000,-9.5933056,-202.04272
4828000000,-9.5717363,-202.15401
4829000000,-9.5515718,-202.13
4830000000,-9.5343485,-201.95033
4831000000,-9.5813227,-201.61226
4832000000,-9.5276728,-201.79643
4833000000,-9.5120926,-202.20419
4834000000,-9.5333176,-202.1053
4835000000,-9.4815998,-202.39967
4836000000,-9.5446224,-202.34543
4837000000,-9.5147314,-202.261
4838000000,-9.4534626,-202.41963
4839000000,-9.487936,-202.42969
4840000000,-9.4953156,-202.56552
4841000000,-9.475112,-202.40504
4842000000,-9.4913454,-202.61777
4843000000,-9.4606295,-202.49452
4844000000,-9.4476366,-202.64836
4845000000,-9.4601631,-202.52078
4846000000,-9.425931,-202.52995
4847000000,-9.4084663,-202.68575
4848000000,-9.3641043,-202.72282
4849000000,-9.4217186,-202.78816
4850000000,-9.3541031,-202.61792
4851000000,-9.4334059,-202.77824
4852000000,-9.4132271,-202.93233
4853000000,-9.3577108,-202.84749
4854000000,-9.3541899,-202.80872
4855000000,-9.375865,-202.89555
4856000000,-9.3759937,-202.82219
4857000000,-9.3535395,-203.15663
4858000000,-9.3518591,-203.01207
4859000000,-9.342495,-203.30466
4860000000,-9.2759733,-203.3441
4861000000,-9.3290567,-203.28035
4862000000,-9.3097162,-203.07451
4863000000,-9.3090343,-203.03824
4864000000,-9.3234167,-203.24776
4865000000,-9.3343172,-203.33951
4866000000,-9.2761927,-203.4406
4867000000,-9.3046789,-203.41931
4868000000,-9.2995501,-203.39314
4869000000,-9.2607946,-203.59558
4870000000,-9.2782221,-203.5462
4871000000,-9.315608,-203.91167
4872000000,-9.2447224,-203.40286
4873000000,-9.2733917,-203.75439
4874000000,-9.2751665,-203.57555
4875000000,-9.2784157,-203.72408
4876000000,-9.2155952,-203.81171
4877000000,-9.2252502,-203.9343
4878000000,-9.2690144,-203.41463
4879000000,-9.2377739,-203.78561
4880000000,-9.1832314,-204.13133
4881000000,-9.1709967,-204.00244
4882000000,-9.1819601,-204.16905
4883000000,-9.1654959,-204.05309
4884000000,-9.1581564,-204.15027
4885000000,-9.1545477,-204.10742
4886000000,-9.1326704,-204.34157
4887000000,-9.1535854,-204.10883
4888000000,-9.1228895,-204.49345
4889000000,-9.1388502,-204.31311
4890000000,-9.0661335,-204.34637
4891000000,-9.0670624,-204.57341
4892000000,-9.1231709,-204.3036
4893000000,-9.068099,-204.65813
4894000000,-9.0742846,-204.2912
4895000000,-9.0501165,-204.54863
4896000000,-9.0672245,-204.39462
4897000000,-9.084095,-204.78795
4898000000,-9.024538,-204.94899
4899000000,-9.0740051,-204.7614
4900000000,-9.008028,-204.77415
4901000000,-9.012888,-204.95717
4902000000,-9.0556555,-205.16331
4903000000,-8.9971008,-204.88478
4904000000,-9.0762091,-205.00357
4905000000,-8.9894629,-205.12047
4906000000,-9.0088806,-205.50719
4907000000,-8.9975424,-205.42038
4908000000,-9.0304356,-205.33871
4909000000,-8.9905796,-205.35843
4910000000,-8.9652691,-205.30882
4911000000,-9.0213413,-205.69305
4912000000,-8.9825268,-205.39926
4913000000,-9.0243988,-205.73686
4914000000,-8.9734707,-205.4648
4915000000,-8.9217396,-205.55305
4916000000,-8.9657564,-205.60774
4917000000,-8.9497662,-205.81761
4918000000,-8.9501123,-205.8674
4919000000,-8.9302711,-205.76971
4920000000,-8.9507599,-205.87521
4921000000,-8.8952379,-205.98053
4922000000,-8.9057627,-205.89583
4923000000,-8.9390669,-206.13243
4924000000,-8.9000397,-205.8338
4925000000,-8.9060841,-206.2007
4926000000,-8.9021168,-206.16496
4927000000,-8.8944921,-206.30597
4928000000,-8.8561249,-206.17111
4929000000,-8.8528242,-206.40549
4930000000,-8.8535337,-206.31825
4931000000,-8.8803387,-206.41988
4932000000,-8.8730917,-206.6904
4933000000,-8.828516,-206.63274
4934000000,-8.8117886,-206.55576
4935000000,-8.8397417,-206.83488
4936000000,-8.7898178,-206.87021
4937000000,-8.768712,-206.6626
4938000000,-8.8179998,-207.11685
4939000000,-8.7986012,-206.61313
4940000000,-8.7831306,-207.0435
4941000000,-8.7830925,-207.17136
4942000000,-8.789566,-207.25456
4943000000,-8.7760057,-207.08118
4944000000,-8.7564917,-207.21028
4945000000,-8.7619925,-207.17152
4946000000,-8.8060961,-207.56773
4947000000,-8.7428226,-207.41846
4948000000,-8.7607145,-207.52325
4949000000,-8.7434225,-207.42444
4950000000,-8.7248287,-207.44598
4951000000,-8.7707539,-207.30849
4952000000,-8.7300873,-207.4341
4953000000,-8.7431984,-207.46187
4954000000,-8.7013531,-207.71744
4955000000,-8.6960754,-207.70825
4956000000,-8.6381559,-207.62325
4957000000,-8.6979208,-207.84848
4958000000,-8.6862259,-207.82399
4959000000,-8.6907759,-208.22314
4960000000,-8.6848021,-208.18185
4961000000,-8.6941166,-208.39909
4962000000,-8.6995268,-208.22475
4963000000,-8.6301346,-208.30342
4964000000,-8.6395111,-208.54642
4965000000,-8.6473045,-208.3726
4966000000,-8.6330595,-208.59686
4967000000,-8.6384172,-208.39212
4968000000,-8.6353111,-208.59096
4969000000,-8.5760393,-208.75835
4970000000,-8.6023388,-208.56813
4971000000,-8.5768375,-208.73798
4972000000,-8.6175327,-208.74808
4973000000,-8.5954027,-208.98727
4974000000,-8.5710335,-208.97806
4975000000,-8.5921478,-208.63731
4976000000,-8.5486279,-209.05357
4977000000,-8.5967541,-209.25777
4978000000,-8.5555859,-209.1232
4979000000,-8.5754471,-209.36919
4980000000,-8.5593176,-208.95937
4981000000,-8.5397463,-208.97002
4982000000,-8.4958506,-209.61101
4983000000,-8.5263166,-209.56647
4984000000,-8.5117044,-209.58682
4985000000,-8.4962349,-209.64485
4986000000,-8.4886503,-209.81122
4987000000,-8.5120583,-209.85312
4988000000,-8.4309244,-209.26154
4989000000,-8.5150232,-209.56378
4990000000,-8.5094414,-209.73267
4991000000,-8.5031843,-209.72903
4992000000,-8.4964161,-209.86716
4993000000,-8.4533901,-210.21078
4994000000,-8.4918432,-209.70001
4995000000,-8.4447451,-210.18289
4996000000,-8.4299726,-210.22878
4997000000,-8.4226627,-209.87611
4998000000,-8.4245129,-210.32918
4999000000,-8.3831892,-210.26541
5000000000,-8.4403849,-210.54266
END,,
