!CSV A.01.01
!Agilent Technologies,E8362C,MY49020225,A.09.42.22
!Agilent E8362C: A.09.42.22
!Date: Friday, March 04, 2016 13:42:49
!Source: Standard

BEGIN CH1_DATA
Freq(Hz),S11 Phase(°),S21 Phase(°)
1000000000,161.49199,-145.3553
1001000000,160.61681,-145.4198
1002000000,162.0425,-145.69713
1003000000,160.71083,-145.67844
1004000000,159.60078,-145.93987
1005000000,160.73698,-146.08318
1006000000,160.8705,-146.15421
1007000000,161.11218,-146.28732
1008000000,160.82481,-146.37543
1009000000,159.95473,-146.62308
1010000000,159.70508,-146.53857
1011000000,159.32851,-147.05595
1012000000,160.2067,-147.10631
1013000000,159.07137,-147.37506
1014000000,158.23729,-147.43613
1015000000,160.04283,-147.53984
1016000000,157.57315,-147.72644
1017000000,159.32411,-147.97334
1018000000,158.63022,-148.08514
1019000000,158.08817,-148.14795
1020000000,158.3499,-148.08908
1021000000,158.48216,-148.4865
1022000000,157.31726,-148.69896
1023000000,157.38788,-148.77148
1024000000,156.90736,-148.80698
1025000000,157.29941,-149.0564
1026000000,157.45569,-149.04942
1027000000,157.02434,-149.39549
1028000000,156.14214,-149.5215
1029000000,156.30801,-149.65587
1030000000,155.87334,-149.73586
1031000000,156.05954,-149.86978
1032000000,156.14983,-150.01976
1033000000,155.56084,-150.21181
1034000000,154.8633,-150.34369
1035000000,154.16624,-150.54536
1036000000,154.74246,-150.60431
1037000000,154.95114,-150.57971
1038000000,155.3933,-150.8992
1039000000,154.44966,-151.09192
1040000000,153.54219,-151.25
1041000000,154.32416,-151.30565
1042000000,153.43747,-151.46577
1043000000,153.70981,-151.68207
1044000000,153.77396,-151.86346
1045000000,153.09099,-151.97655
1046000000,152.8006,-152.07355
1047000000,152.03238,-152.42923
1048000000,152.64954,-152.46581
1049000000,152.74077,-152.55583
1050000000,152.37866,-152.56912
1051000000,151.73079,-152.81715
1052000000,152.27663,-152.97812
1053000000,152.07143,-153.11319
1054000000,152.30675,-153.10391
1055000000,152.08914,-153.30901
1056000000,152.16177,-153.48183
1057000000,151.32243,-153.67905
1058000000,151.64076,-153.86032
1059000000,150.75729,-154.02658
1060000000,151.15782,-154.13887
1061000000,151.46931,-154.11658
1062000000,151.34448,-154.3264
1063000000,149.8334,-154.67903
1064000000,150.60519,-154.91214
1065000000,150.82596,-154.73508
1066000000,150.52876,-154.7764
1067000000,150.11571,-155.15976
1068000000,149.91321,-155.20674
1069000000,149.8383,-155.66261
1070000000,149.88496,-155.48801
1071000000,149.7076,-155.72279
1072000000,149.67235,-155.76454
1073000000,149.13071,-156.10733
1074000000,149.19365,-156.02609
1075000000,149.14574,-156.52814
1076000000,148.60902,-156.35873
1077000000,149.28241,-156.40363
1078000000,148.54999,-156.74527
1079000000,147.72731,-157.13556
1080000000,148.23178,-157.19867
1081000000,148.19119,-157.36348
1082000000,147.68327,-157.37524
1083000000,147.90578,-157.30174
1084000000,147.9994,-157.55919
1085000000,147.80283,-157.59901
1086000000,147.32219,-157.82024
1087000000,147.48972,-158.02969
1088000000,146.97374,-158.40977
1089000000,147.15729,-158.21924
1090000000,146.96704,-158.58369
1091000000,146.77684,-158.50737
1092000000,146.78539,-158.8726
1093000000,146.74112,-158.92653
1094000000,146.79121,-158.92239
1095000000,146.07669,-159.3446
1096000000,146.38899,-159.28723
1097000000,146.12108,-159.5631
1098000000,145.80089,-159.78889
1099000000,146.35484,-159.75146
1100000000,145.87997,-159.87587
1101000000,146.0925,-160.13893
1102000000,145.56769,-160.11293
1103000000,145.4731,-160.51129
1104000000,145.05106,-160.433
1105000000,145.03059,-160.69179
1106000000,145.23448,-160.56682
1107000000,144.93315,-160.99838
1108000000,144.65149,-161.12498
1109000000,144.64294,-161.3253
1110000000,144.37805,-161.53093
1111000000,144.28059,-161.41989
1112000000,144.16222,-161.56438
1113000000,144.00206,-161.80573
1114000000,143.82632,-161.96188
1115000000,143.5293,-162.22124
1116000000,143.33813,-162.28967
1117000000,143.43343,-162.53098
1118000000,143.70032,-162.35738
1119000000,143.24168,-162.5824
1120000000,142.90576,-162.93207
1121000000,142.84146,-162.99896
1122000000,142.79694,-163.20854
1123000000,142.80273,-163.15372
1124000000,142.60474,-163.35046
1125000000,142.23334,-163.53667
1126000000,142.12691,-163.75745
1127000000,141.99533,-163.77217
1128000000,142.18442,-163.78604
1129000000,142.07729,-164.12236
1130000000,141.33551,-164.3407
1131000000,141.58708,-164.52783
1132000000,141.33934,-164.52931
1133000000,141.19316,-164.77304
1134000000,140.73589,-165.03267
1135000000,141.02466,-164.94156
1136000000,140.39096,-165.22185
1137000000,140.45341,-165.45073
1138000000,140.74503,-165.34848
1139000000,140.07143,-165.70366
1140000000,140.3989,-165.57808
1141000000,139.85321,-165.95088
1142000000,140.00612,-166.16844
1143000000,139.52361,-166.36986
1144000000,139.66911,-166.42484
1145000000,139.50648,-166.51561
1146000000,139.24289,-166.77223
1147000000,139.39679,-166.80847
1148000000,139.14198,-166.92661
1149000000,139.01102,-166.98611
1150000000,138.87675,-167.21901
1151000000,138.59352,-167.37486
1152000000,138.26657,-167.52325
1153000000,138.58607,-167.65784
1154000000,138.46156,-167.64771
1155000000,138.25621,-167.91182
1156000000,137.90323,-168.13675
1157000000,137.99973,-168.35989
1158000000,137.68094,-168.34714
1159000000,137.51001,-168.51935
1160000000,137.45607,-168.58401
1161000000,137.44476,-168.87814
1162000000,137.24385,-168.90588
1163000000,137.41753,-168.96587
1164000000,137.17693,-169.02972
1165000000,136.70238,-169.51315
1166000000,137.05879,-169.43463
1167000000,136.62758,-169.65884
1168000000,136.24763,-170.00011
1169000000,136.55367,-169.80554
1170000000,136.16566,-170.20454
1171000000,136.14166,-170.2494
1172000000,135.87848,-170.3651
1173000000,135.9446,-170.60779
1174000000,135.43703,-170.7578
1175000000,135.53394,-170.77281
1176000000,135.38216,-170.98524
1177000000,135.42857,-171.09314
1178000000,135.21577,-171.40462
1179000000,134.92593,-171.58434
1180000000,134.86238,-171.56723
1181000000,135.01407,-171.55302
1182000000,134.74332,-171.74722
1183000000,134.80466,-171.95343
1184000000,134.42314,-172.03012
1185000000,134.18552,-172.33598
1186000000,134.22453,-172.3286
1187000000,133.88713,-172.5106
1188000000,133.79892,-172.73177
1189000000,133.7831,-172.94302
1190000000,133.67072,-172.96259
1191000000,133.49202,-173.15536
1192000000,133.22134,-173.29677
1193000000,133.01154,-173.64458
1194000000,132.89458,-173.74753
1195000000,132.72942,-173.82303
1196000000,132.62753,-173.95204
1197000000,132.33116,-174.08347
1198000000,132.66663,-174.09192
1199000000,132.22292,-174.33868
1200000000,132.00554,-174.57341
1201000000,131.89839,-174.63983
1202000000,131.72545,-174.85815
1203000000,131.76581,-174.83405
1204000000,131.77502,-174.94331
1205000000,131.33505,-175.24986
1206000000,131.3576,-175.21524
1207000000,130.85271,-175.52014
1208000000,131.0809,-175.5854
1209000000,130.91634,-175.72652
1210000000,130.98674,-175.78644
1211000000,130.54211,-176.06558
1212000000,130.45598,-176.22034
1213000000,130.49458,-176.2525
1214000000,130.13324,-176.45285
1215000000,130.10274,-176.60608
1216000000,129.98595,-176.74429
1217000000,129.78529,-176.93233
1218000000,129.64471,-177.04359
1219000000,129.66617,-177.11183
1220000000,129.49207,-177.13348
1221000000,129.35201,-177.52026
1222000000,129.20308,-177.73932
1223000000,128.94855,-177.80643
1224000000,128.96158,-178.01308
1225000000,128.63492,-178.19566
1226000000,128.89452,-178.15111
1227000000,128.7242,-178.2225
1228000000,128.3761,-178.49431
1229000000,128.45746,-178.54193
1230000000,128.43724,-178.72253
1231000000,128.11835,-178.84279
1232000000,127.88823,-179.13136
1233000000,127.75938,-179.26186
1234000000,127.53735,-179.5976
1235000000,127.44307,-179.49638
1236000000,127.30159,-179.78903
1237000000,127.30275,-179.85822
1238000000,127.22893,-179.9543
1239000000,127.04129,179.77155
1240000000,126.74676,179.65218
1241000000,126.81661,179.5023
1242000000,126.52949,179.36729
1243000000,126.59137,179.36363
1244000000,126.22177,178.97142
1245000000,126.17321,178.96832
1246000000,126.27658,179.00748
1247000000,126.11423,178.77719
1248000000,125.7355,178.47923
1249000000,125.81755,178.50925
1250000000,125.77912,178.43655
1251000000,125.50989,178.25278
1252000000,125.4967,178.06033
1253000000,125.38952,177.96042
1254000000,125.25487,177.83719
1255000000,125.10235,177.77673
1256000000,124.89522,177.41258
1257000000,124.72684,177.40645
1258000000,124.54561,177.08083
1259000000,124.43997,177.05389
1260000000,124.17366,176.73462
1261000000,124.27696,176.78465
1262000000,124.12429,176.64514
1263000000,124.201,176.61206
1264000000,123.79526,176.26924
1265000000,123.98135,176.30777
1266000000,123.8179,176.22017
1267000000,123.31223,175.77986
1268000000,123.36162,175.69363
1269000000,123.24452,175.62984
1270000000,123.17592,175.50337
1271000000,122.93397,175.2545
1272000000,122.79088,175.13132
1273000000,122.76596,175.03773
1274000000,122.61503,174.80324
1275000000,122.3595,174.59637
1276000000,122.21918,174.40257
1277000000,122.26189,174.39522
1278000000,121.87216,174.13579
1279000000,121.80416,173.96028
1280000000,121.97066,173.9758
1281000000,121.57981,173.80263
1282000000,121.71078,173.84531
1283000000,121.50248,173.63464
1284000000,121.60844,173.49667
1285000000,121.1609,173.10994
1286000000,121.14459,173.19565
1287000000,120.80878,172.97206
1288000000,121.20754,172.98228
1289000000,120.85165,172.72635
1290000000,120.77989,172.50505
1291000000,120.3748,172.43242
1292000000,120.22993,172.24089
1293000000,120.09908,172.09566
1294000000,120.379,172.11128
1295000000,120.07992,171.77666
1296000000,120.05518,171.82404
1297000000,119.50925,171.51794
1298000000,119.58044,171.489
1299000000,119.45763,171.25906
1300000000,119.32848,171.14545
1301000000,119.0622,171.00063
1302000000,118.78223,170.9619
1303000000,118.93584,170.75967
1304000000,118.62708,170.56895
1305000000,118.60058,170.47946
1306000000,118.27925,170.30208
1307000000,118.22073,170.18933
1308000000,118.03366,169.85487
1309000000,117.79418,169.75209
1310000000,118.09669,169.92877
1311000000,117.86429,169.46782
1312000000,117.5574,169.44371
1313000000,117.48755,169.25783
1314000000,117.52365,169.20941
1315000000,117.27125,169.06378
1316000000,116.99674,168.87146
1317000000,116.7664,168.70131
1318000000,116.8185,168.52513
1319000000,116.64008,168.29559
1320000000,116.45343,168.28777
1321000000,116.25308,168.05659
1322000000,116.28281,168.11249
1323000000,115.84971,167.79329
1324000000,115.95175,167.72307
1325000000,115.50291,167.41216
1326000000,115.73835,167.44258
1327000000,115.52229,167.37328
1328000000,115.36588,167.01814
1329000000,115.34219,167.13174
1330000000,115.16677,166.92361
1331000000,115.11536,166.73769
1332000000,114.78616,166.62605
1333000000,114.7888,166.37294
1334000000,114.66042,166.3483
1335000000,114.40407,166.10527
1336000000,114.35591,166.07739
1337000000,114.48523,165.90459
1338000000,114.27405,165.83139
1339000000,114.39374,165.7807
1340000000,113.72533,165.37454
1341000000,113.88921,165.3873
1342000000,113.51105,164.92859
1343000000,113.47663,164.94571
1344000000,113.50523,164.82524
1345000000,113.37054,164.79404
1346000000,113.04272,164.42113
1347000000,113.19926,164.67809
1348000000,112.89456,164.25032
1349000000,112.59594,164.01474
1350000000,112.39917,164.01308
1351000000,112.49651,163.91467
1352000000,112.39521,163.54578
1353000000,111.9733,163.62967
1354000000,111.81733,163.29305
1355000000,111.89627,163.24582
1356000000,111.75229,163.16769
1357000000,111.72667,163.0322
1358000000,111.38817,162.85483
1359000000,111.33741,162.64018
1360000000,111.3192,162.68091
1361000000,111.20715,162.3721
1362000000,110.75195,162.33548
1363000000,110.68162,162.15651
1364000000,110.3488,161.94519
1365000000,110.49444,161.90733
1366000000,110.18389,161.69714
1367000000,110.07507,161.55952
1368000000,110.14138,161.34923
1369000000,109.71859,161.20413
1370000000,109.6493,160.98647
1371000000,109.76338,161.14619
1372000000,109.32287,160.78481
1373000000,109.32286,160.69931
1374000000,109.66821,160.71298
1375000000,109.11443,160.51224
1376000000,108.99589,160.41016
1377000000,108.74239,160.05696
1378000000,108.86237,160.07846
1379000000,108.69051,159.78558
1380000000,108.5939,159.95531
1381000000,108.1657,159.59891
1382000000,108.34927,159.50774
1383000000,108.13159,159.32155
1384000000,107.94413,159.13972
1385000000,107.93478,158.97464
1386000000,107.7485,158.83418
1387000000,107.81671,158.66312
1388000000,107.50642,158.5275
1389000000,107.21497,158.32214
1390000000,106.93716,158.21445
1391000000,106.99841,158.00943
1392000000,106.79148,157.93405
1393000000,106.6901,157.6853
1394000000,106.53126,157.69673
1395000000,106.37341,157.44878
1396000000,106.35339,157.396
1397000000,106.26817,157.35052
1398000000,105.73654,157.09084
1399000000,106.0871,156.91245
1400000000,105.90284,156.82968
1401000000,105.92675,156.785
1402000000,105.44086,156.59001
1403000000,105.31344,156.39554
1404000000,105.2965,156.39746
1405000000,105.15499,156.13686
1406000000,105.1356,156.13564
1407000000,104.78862,155.80305
1408000000,104.66909,155.64063
1409000000,104.64951,155.54861
1410000000,104.49706,155.4122
1411000000,104.03706,155.18102
1412000000,104.20681,155.12485
1413000000,104.03331,154.86195
1414000000,104.05467,154.7942
1415000000,103.89555,154.77863
1416000000,103.633,154.52953
1417000000,103.4845,154.46057
1418000000,103.3455,154.30588
1419000000,103.1385,154.14549
1420000000,102.89899,153.98393
1421000000,102.84722,153.91389
1422000000,102.8985,153.69496
1423000000,102.54953,153.45847
1424000000,102.65388,153.57858
1425000000,102.56438,153.42125
1426000000,102.58031,153.25198
1427000000,102.23881,153.07809
1428000000,101.90752,152.79268
1429000000,102.12522,152.84494
1430000000,101.7333,152.42459
1431000000,101.50126,152.38515
1432000000,101.65107,152.3318
1433000000,100.98381,152.02982
1434000000,100.99895,151.91499
1435000000,101.15482,151.89706
1436000000,100.70478,151.52934
1437000000,100.87689,151.61452
1438000000,100.29698,151.28664
1439000000,100.47166,151.3501
1440000000,100.47506,151.18741
1441000000,100.01889,150.96358
1442000000,100.33116,150.73511
1443000000,99.904991,150.71246
1444000000,99.895378,150.55287
1445000000,99.666359,150.48668
1446000000,99.506332,150.22945
1447000000,99.369278,150.13982
1448000000,99.261864,150.02538
1449000000,99.466553,150.09872
1450000000,98.929344,149.69131
1451000000,99.079445,149.55249
1452000000,99.166855,149.55133
1453000000,98.773445,149.48848
1454000000,98.260315,149.06357
1455000000,98.347137,148.88074
1456000000,98.262077,148.93771
1457000000,98.107147,148.67784
1458000000,97.980988,148.66737
1459000000,97.947357,148.52319
1460000000,97.812752,148.3492
1461000000,97.377014,148.03433
1462000000,97.065742,147.8632
1463000000,97.169052,147.82329
1464000000,97.18161,147.65848
1465000000,96.976997,147.50899
1466000000,97.133675,147.66907
1467000000,96.970657,147.36502
1468000000,96.496857,147.09726
1469000000,96.359772,146.93161
1470000000,96.369789,146.87129
1471000000,96.066864,146.52646
1472000000,95.814079,146.33006
1473000000,95.918304,146.57376
1474000000,95.924416,146.32076
1475000000,95.694397,146.08099
1476000000,95.794983,145.8797
1477000000,95.507919,145.94771
1478000000,95.111687,145.67235
1479000000,95.133095,145.70151
1480000000,95.110611,145.52779
1481000000,94.887154,145.18901
1482000000,94.66465,145.09673
1483000000,94.685402,145.10376
1484000000,94.250427,144.75902
1485000000,94.252068,144.59937
1486000000,94.268929,144.72501
1487000000,93.981079,144.45369
1488000000,93.987251,144.33794
1489000000,93.702797,144.09773
1490000000,93.630302,144.04463
1491000000,93.198044,143.72078
1492000000,93.452721,143.83871
1493000000,93.080437,143.4608
1494000000,93.00502,143.55861
1495000000,92.89492,143.36456
1496000000,92.920464,143.19901
1497000000,92.620201,143.03407
1498000000,92.676773,142.81796
1499000000,92.398903,142.79709
1500000000,92.238708,142.67661
1501000000,92.04155,142.48549
1502000000,92.059166,142.48038
1503000000,91.582962,141.98721
1504000000,91.90377,142.03403
1505000000,91.765488,141.90863
1506000000,91.714684,141.86327
1507000000,91.797958,141.73973
1508000000,91.487694,141.59985
1509000000,91.230843,141.36852
1510000000,91.224937,141.20358
1511000000,90.898262,141.01929
1512000000,90.688515,140.84764
1513000000,90.617012,140.72238
1514000000,90.517281,140.58978
1515000000,90.390381,140.6116
1516000000,90.133385,140.31523
1517000000,90.105072,140.18721
1518000000,90.021667,140.22249
1519000000,89.829102,139.87135
1520000000,89.751938,139.81398
1521000000,89.228264,139.53987
1522000000,89.497307,139.52577
1523000000,89.085014,139.25198
1524000000,88.908203,139.04353
1525000000,88.826881,139.09833
1526000000,88.894241,138.95294
1527000000,88.401123,138.82704
1528000000,88.598259,138.68703
1529000000,87.991943,138.31857
1530000000,88.213814,138.36311
1531000000,88.129829,138.38947
1532000000,87.903862,138.11505
1533000000,87.992828,137.87964
1534000000,87.610809,137.8
1535000000,87.512314,137.64867
1536000000,87.40976,137.52492
1537000000,87.32933,137.36316
1538000000,87.275124,137.32324
1539000000,86.96209,137.15555
1540000000,86.914978,136.80452
1541000000,86.486801,136.7709
1542000000,86.725342,136.6978
1543000000,86.605431,136.43477
1544000000,86.17569,136.23553
1545000000,86.132401,136.10335
1546000000,86.167969,136.13536
1547000000,86.102867,135.89371
1548000000,85.908607,135.76605
1549000000,85.748558,135.65778
1550000000,85.70694,135.60591
1551000000,85.395073,135.44452
1552000000,85.296608,135.14189
1553000000,85.14315,135.00577
1554000000,85.264404,134.98921
1555000000,85.088387,134.95207
1556000000,85.11834,134.70358
1557000000,84.72303,134.50064
1558000000,84.560135,134.5488
1559000000,84.379326,134.22737
1560000000,84.248924,134.07951
1561000000,84.006866,133.90514
1562000000,84.04673,133.73451
1563000000,84.117638,133.74767
1564000000,83.630699,133.63904
1565000000,83.753639,133.21724
1566000000,83.360374,133.21384
1567000000,83.301491,133.03786
1568000000,83.109634,132.81569
1569000000,82.849922,132.64383
1570000000,82.768585,132.57758
1571000000,82.957726,132.48213
1572000000,82.419678,132.31071
1573000000,82.487358,132.33731
1574000000,82.506538,132.18065
1575000000,82.297836,131.90442
1576000000,82.073891,131.84348
1577000000,82.118523,131.70689
1578000000,81.734123,131.41219
1579000000,81.716263,131.5206
1580000000,81.423859,131.13692
1581000000,81.328133,131.08287
1582000000,81.072304,130.87146
1583000000,81.141769,130.81873
1584000000,81.172379,130.8074
1585000000,80.67379,130.53593
1586000000,80.770416,130.40543
1587000000,80.629265,130.23209
1588000000,80.749001,130.11328
1589000000,80.305969,129.88029
1590000000,80.462227,130.0327
1591000000,79.962631,129.75623
1592000000,79.851868,129.50674
1593000000,79.689743,129.35869
1594000000,79.376923,129.29053
1595000000,79.305527,129.12599
1596000000,79.252693,128.9411
1597000000,79.198235,128.72313
1598000000,79.060844,128.61884
1599000000,78.767143,128.48648
1600000000,78.774773,128.46614
1601000000,78.308762,128.17052
1602000000,78.349602,128.06233
1603000000,78.130272,127.81501
1604000000,78.291252,127.89198
1605000000,77.762222,127.68473
1606000000,77.821083,127.58303
1607000000,77.889366,127.60504
1608000000,77.730431,127.43889
1609000000,77.716705,127.10108
1610000000,77.418198,126.80611
1611000000,77.232086,126.87052
1612000000,77.142471,126.7193
1613000000,76.88797,126.47089
1614000000,76.733727,126.27416
1615000000,76.980865,126.4085
1616000000,76.776276,126.08622
1617000000,76.449013,125.93802
1618000000,76.188171,125.97478
1619000000,76.202881,125.72958
1620000000,75.922127,125.62791
1621000000,75.842659,125.26349
1622000000,75.748161,125.19128
1623000000,75.465729,124.92569
1624000000,75.435127,124.98617
1625000000,75.293655,124.79858
1626000000,75.124359,124.63825
1627000000,74.856613,124.39455
1628000000,74.981789,124.43549
1629000000,74.740395,124.23524
1630000000,74.512627,124.13995
1631000000,74.210175,123.84788
1632000000,74.514343,123.91645
1633000000,74.397514,123.78541
1634000000,74.031433,123.52852
1635000000,74.013176,123.35368
1636000000,73.736221,123.10493
1637000000,73.500465,122.9188
1638000000,73.36525,122.91848
1639000000,72.972313,122.71338
1640000000,73.081444,122.72202
1641000000,73.013481,122.2961
1642000000,72.549225,122.40232
1643000000,72.766434,122.28255
1644000000,72.742653,122.23487
1645000000,72.05986,121.85616
1646000000,72.309799,121.78284
1647000000,71.798752,121.63438
1648000000,71.917244,121.50163
1649000000,71.575066,121.24444
1650000000,71.798058,121.29285
1651000000,71.601357,120.9866
1652000000,71.529327,120.91846
1653000000,71.279213,120.87492
1654000000,71.021225,120.67117
1655000000,70.906265,120.52437
1656000000,70.819046,120.24136
1657000000,70.653709,120.28286
1658000000,70.375328,120.05574
1659000000,70.36689,120.08253
1660000000,70.269363,119.63578
1661000000,70.227188,119.472
1662000000,69.718033,119.41545
1663000000,69.880173,119.19846
1664000000,69.897446,119.30985
1665000000,69.078392,118.99145
1666000000,69.337265,118.90819
1667000000,69.170708,118.74107
1668000000,69.14782,118.77852
1669000000,68.882492,118.36543
1670000000,69.10968,118.39289
1671000000,68.781815,118.30514
1672000000,68.441238,118.12819
1673000000,68.142616,118.00622
1674000000,68.249992,117.80656
1675000000,67.838783,117.53347
1676000000,67.649521,117.50903
1677000000,67.392258,117.40125
1678000000,67.565208,117.35698
1679000000,67.692039,117.14788
1680000000,67.095917,116.85373
1681000000,66.721024,116.94815
1682000000,66.782974,116.54519
1683000000,67.13327,116.39314
1684000000,67.048019,116.38212
1685000000,66.754982,116.1148
1686000000,66.442261,116.12421
1687000000,65.741409,115.87207
1688000000,66.075974,115.71464
1689000000,65.555862,115.56297
1690000000,65.628891,115.50443
1691000000,65.459526,115.23289
1692000000,65.612419,115.17887
1693000000,65.422066,115.06589
1694000000,64.854836,114.84785
1695000000,64.687355,114.74019
1696000000,65.051445,114.59447
1697000000,64.627533,114.43697
1698000000,64.409393,114.3417
1699000000,64.143677,114.22164
1700000000,64.255554,114.00177
1701000000,64.104813,113.85759
1702000000,63.784248,113.73558
1703000000,63.595291,113.37158
1704000000,63.8354,113.29395
1705000000,63.291039,113.32558
1706000000,63.180378,113.04955
1707000000,63.204582,112.95013
1708000000,62.713802,112.63474
1709000000,63.067802,112.72623
1710000000,62.740944,112.40118
1711000000,62.350986,112.4145
1712000000,62.41621,112.34752
1713000000,62.200321,111.9898
1714000000,62.135952,112.07043
1715000000,61.893112,111.8363
1716000000,61.391571,111.67265
1717000000,61.577763,111.59133
1718000000,61.440796,111.47321
1719000000,61.168533,111.12407
1720000000,61.534779,111.03369
1721000000,60.827816,111.00252
1722000000,60.986084,110.79064
1723000000,60.823383,110.5522
1724000000,60.408436,110.6578
1725000000,60.425434,110.39342
1726000000,60.208103,110.19163
1727000000,60.056835,110.1497
1728000000,59.880493,109.96651
1729000000,59.873337,109.68717
1730000000,59.57851,109.7846
1731000000,59.789551,109.65058
1732000000,59.56498,109.22791
1733000000,59.421753,109.40987
1734000000,58.797226,109.02734
1735000000,58.896633,108.95627
1736000000,58.664265,108.65899
1737000000,59.06908,108.48463
1738000000,58.178753,108.52332
1739000000,58.342239,108.33205
1740000000,58.069164,108.06683
1741000000,57.524723,107.97339
1742000000,57.536236,107.88332
1743000000,57.034588,107.62655
1744000000,57.390114,107.54228
1745000000,57.453331,107.2743
1746000000,57.103237,107.20594
1747000000,57.223392,107.12123
1748000000,56.821716,107.05922
1749000000,56.947357,106.96681
1750000000,56.393166,106.6747
1751000000,57.001419,106.7612
1752000000,55.809525,106.31309
1753000000,55.9286,106.30787
1754000000,56.06398,105.96117
1755000000,56.049934,106.1391
1756000000,55.49976,105.79893
1757000000,55.172768,105.51949
1758000000,55.070354,105.56544
1759000000,55.501213,105.53651
1760000000,55.217381,105.249
1761000000,54.35107,105.12884
1762000000,54.10508,104.89278
1763000000,54.275757,104.90689
1764000000,53.850594,104.85131
1765000000,53.869053,104.53039
1766000000,53.966686,104.42898
1767000000,53.379238,104.11478
1768000000,53.559177,104.17489
1769000000,53.392246,104.06537
1770000000,52.698074,103.88242
1771000000,53.087265,103.70894
1772000000,52.5014,103.49849
1773000000,52.806049,103.33473
1774000000,52.798473,103.37453
1775000000,52.370594,103.24155
1776000000,52.191978,103.03382
1777000000,51.929504,102.67588
1778000000,51.861824,102.63902
1779000000,51.765335,102.67155
1780000000,51.473812,102.53027
1781000000,51.42997,102.2922
1782000000,50.783302,101.99557
1783000000,50.950642,102.1291
1784000000,50.764343,101.7476
1785000000,50.435307,101.65585
1786000000,50.352844,101.53089
1787000000,49.733654,101.41501
1788000000,50.351727,101.41351
1789000000,49.899929,101.18057
1790000000,49.548321,100.92824
1791000000,49.626053,100.75438
1792000000,48.890095,100.53904
1793000000,48.746124,100.50994
1794000000,49.159061,100.41981
1795000000,48.487553,100.07603
1796000000,48.146111,100.08579
1797000000,48.042572,99.923141
1798000000,47.802631,99.78154
1799000000,47.795128,99.558891
1800000000,47.71019,99.398605
1801000000,47.547279,99.363838
1802000000,47.020229,99.090355
1803000000,46.733627,99.081055
1804000000,47.161125,98.838333
1805000000,46.212837,98.849777
1806000000,46.645157,98.496674
1807000000,46.290195,98.43988
1808000000,46.063358,98.110344
1809000000,45.90107,98.137978
1810000000,45.977489,98.133759
1811000000,45.561264,97.987518
1812000000,44.939339,97.549057
1813000000,45.1712,97.582626
1814000000,44.066536,97.463997
1815000000,44.379562,97.411484
1816000000,44.517879,97.095566
1817000000,44.041962,96.986946
1818000000,43.952812,96.855873
1819000000,43.170277,96.754341
1820000000,43.531574,96.640266
1821000000,43.450752,96.394203
1822000000,43.131168,96.394867
1823000000,42.611217,96.136971
1824000000,42.625301,96.041077
1825000000,42.575771,95.714584
1826000000,42.303204,95.635742
1827000000,41.764076,95.587791
1828000000,42.090904,95.195892
1829000000,41.208881,95.235893
1830000000,41.120552,94.954834
1831000000,40.911789,94.782089
1832000000,40.396965,94.864197
1833000000,40.316021,94.600693
1834000000,40.812237,94.652596
1835000000,40.297676,94.284225
1836000000,39.817455,94.056297
1837000000,39.660439,94.011642
1838000000,39.873695,93.98291
1839000000,39.302891,93.713249
1840000000,38.905422,93.786736
1841000000,38.479542,93.591202
1842000000,38.151901,93.329628
1843000000,37.967537,93.166862
1844000000,37.166866,92.773117
1845000000,37.68412,92.923019
1846000000,37.309963,92.886948
1847000000,37.433422,92.633377
1848000000,37.087559,92.463272
1849000000,36.962872,92.351791
1850000000,36.053921,92.171509
1851000000,35.452404,91.956528
1852000000,35.118141,92.006416
1853000000,35.050629,91.65963
1854000000,35.689404,91.798462
1855000000,34.989803,91.166939
1856000000,34.072311,91.15567
1857000000,33.557468,91.204094
1858000000,34.832447,91.127098
1859000000,32.89587,90.896767
1860000000,33.666866,90.746307
1861000000,33.08308,90.641258
1862000000,32.616653,90.408173
1863000000,32.377781,90.250877
1864000000,31.796381,90.135559
1865000000,31.656319,89.95858
1866000000,31.523212,89.819489
1867000000,31.138464,89.689224
1868000000,30.22023,89.5438
1869000000,30.834244,89.168671
1870000000,30.344601,89.32058
1871000000,30.196615,89.03907
1872000000,28.856501,88.909813
1873000000,28.905754,88.786102
1874000000,28.589787,88.749939
1875000000,27.666079,88.563988
1876000000,28.570318,88.331825
1877000000,26.550453,87.959625
1878000000,27.172009,88.162781
1879000000,26.347502,87.905434
1880000000,26.563263,87.890114
1881000000,25.565538,87.694702
1882000000,25.725847,87.33757
1883000000,25.171381,87.164978
1884000000,24.792049,87.342422
1885000000,24.347147,87.117661
1886000000,24.351852,86.931374
1887000000,22.984358,86.643265
1888000000,24.137611,86.479195
1889000000,23.137615,86.360008
1890000000,21.293673,86.382484
1891000000,20.102943,86.201355
1892000000,21.715605,85.967323
1893000000,20.915157,85.798195
1894000000,19.708611,85.8032
1895000000,19.902203,85.631996
1896000000,18.884634,85.30854
1897000000,18.782246,85.409103
1898000000,18.403797,84.988144
1899000000,17.03956,85.132813
1900000000,16.587191,84.821472
1901000000,16.251953,84.642754
1902000000,14.902842,84.527412
1903000000,13.394337,84.496658
1904000000,13.357369,84.190819
1905000000,13.406644,84.083725
1906000000,14.098791,84.124634
1907000000,9.9720116,83.982628
1908000000,12.581524,83.717361
1909000000,10.400927,83.456398
1910000000,7.6661935,83.347374
1911000000,8.4776058,83.363998
1912000000,8.4366064,83.124886
1913000000,5.9049678,82.963799
1914000000,5.9193397,82.655876
1915000000,4.9881773,82.476486
1916000000,4.2883682,82.266586
1917000000,3.9307504,82.237724
1918000000,1.8557236,82.191933
1919000000,0.4751941,81.888779
1920000000,-2.9594581,81.884369
1921000000,-0.28635377,81.837624
1922000000,-3.5838792,81.489838
1923000000,-3.8738136,81.501045
1924000000,-5.0085316,81.371346
1925000000,-6.8988104,81.003326
1926000000,-11.639524,81.042412
1927000000,-10.23049,80.768951
1928000000,-10.551707,80.728516
1929000000,-15.309676,80.337532
1930000000,-17.787855,80.304451
1931000000,-16.683283,79.989372
1932000000,-17.013266,79.963051
1933000000,-19.483549,79.988548
1934000000,-27.386507,79.834702
1935000000,-30.065613,79.74279
1936000000,-28.866295,79.479408
1937000000,-28.515568,79.328499
1938000000,-30.29443,79.325386
1939000000,-34.385799,79.132439
1940000000,-34.973541,78.72757
1941000000,-39.51572,78.644455
1942000000,-40.485458,78.543076
1943000000,-41.25692,78.413254
1944000000,-48.39119,78.164696
1945000000,-47.278374,78.091339
1946000000,-51.521614,78.022011
1947000000,-55.711666,77.9282
1948000000,-56.663952,77.791389
1949000000,-61.765987,77.532982
1950000000,-63.191769,77.381378
1951000000,-66.855881,77.260117
1952000000,-66.190765,76.940811
1953000000,-67.889,77.190636
1954000000,-72.128326,76.808228
1955000000,-73.042923,76.666016
1956000000,-75.130417,76.357056
1957000000,-82.37719,76.301018
1958000000,-81.762733,76.398849
1959000000,-80.971283,76.007439
1960000000,-82.970268,76.067177
1961000000,-86.603111,75.937126
1962000000,-85.611221,75.853981
1963000000,-89.463524,75.629143
1964000000,-93.272629,75.277092
1965000000,-92.899422,75.233475
1966000000,-97.433243,75.056763
1967000000,-95.791214,74.778473
1968000000,-95.76757,74.785324
1969000000,-100.52587,74.609573
1970000000,-102.11188,74.536995
1971000000,-105.36806,74.420326
1972000000,-108.82049,74.003708
1973000000,-105.62609,73.814308
1974000000,-106.56706,73.96212
1975000000,-108.54017,73.48188
1976000000,-108.90288,73.512733
1977000000,-110.40516,73.44062
1978000000,-110.61234,73.115227
1979000000,-113.92059,73.226273
1980000000,-116.29782,73.00618
1981000000,-115.98373,72.774773
1982000000,-114.5231,72.691116
1983000000,-116.85018,72.339821
1984000000,-117.91684,72.307648
1985000000,-117.13806,72.303658
1986000000,-117.30688,72.189308
1987000000,-121.05494,71.90583
1988000000,-119.2494,71.928169
1989000000,-120.18839,71.689888
1990000000,-120.75473,71.635384
1991000000,-120.68653,71.381882
1992000000,-123.96169,71.267075
1993000000,-124.709,71.080368
1994000000,-124.59457,71.008705
1995000000,-124.77608,70.904106
1996000000,-122.92773,70.49765
1997000000,-126.59634,70.556084
1998000000,-127.02731,70.516808
1999000000,-126.55209,70.233986
2000000000,-127.9574,69.886971
2001000000,-127.62643,70.03138
2002000000,-127.94833,69.716713
2003000000,-130.13695,69.484871
2004000000,-130.28154,69.282516
2005000000,-129.40623,69.367645
2006000000,-131.30806,69.113892
2007000000,-131.24721,68.703552
2008000000,-130.92371,68.695847
2009000000,-133.24951,68.678177
2010000000,-132.57486,68.406708
2011000000,-133.37555,68.43766
2012000000,-133.17558,68.115501
2013000000,-133.12706,68.017838
2014000000,-133.34384,67.898193
2015000000,-135.80263,67.76017
2016000000,-134.03297,67.734222
2017000000,-135.76054,67.58239
2018000000,-135.17267,67.392471
2019000000,-136.38419,67.119904
2020000000,-136.14268,67.124481
2021000000,-137.23573,66.857689
2022000000,-137.21616,66.8815
2023000000,-137.01772,66.818764
2024000000,-138.25943,66.474144
2025000000,-138.17769,66.30368
2026000000,-137.75,66.239136
2027000000,-138.80762,65.82515
2028000000,-139.31709,65.69725
2029000000,-138.91374,65.88372
2030000000,-139.34544,65.563362
2031000000,-140.6451,65.095245
2032000000,-140.38147,65.478157
2033000000,-140.66122,65.177963
2034000000,-141.43188,65.026237
2035000000,-140.91959,64.889687
2036000000,-141.04335,64.65773
2037000000,-141.6528,64.589493
2038000000,-142.59216,64.387077
2039000000,-142.63275,64.392845
2040000000,-143.2252,63.928925
2041000000,-143.03777,63.707523
2042000000,-142.89961,63.748089
2043000000,-143.87303,63.469063
2044000000,-143.55768,63.464424
2045000000,-143.58517,63.416389
2046000000,-143.95518,63.349758
2047000000,-145.02055,63.07785
2048000000,-144.0468,63.108871
2049000000,-145.09392,62.698658
2050000000,-144.37332,62.570339
2051000000,-145.02492,62.527378
2052000000,-145.92314,62.422737
2053000000,-145.85782,62.272217
2054000000,-145.51756,61.933685
2055000000,-145.88588,61.992054
2056000000,-146.27608,61.779518
2057000000,-147.02306,61.552513
2058000000,-146.67612,61.536816
2059000000,-147.97955,61.158588
2060000000,-147.95033,61.123165
2061000000,-147.62619,60.823418
2062000000,-147.37549,60.955143
2063000000,-148.6521,60.612041
2064000000,-148.39645,60.641289
2065000000,-149.06746,60.349907
2066000000,-148.85898,60.285519
2067000000,-148.93309,60.140553
2068000000,-149.43893,60.101376
2069000000,-150.09833,59.780418
2070000000,-149.22224,59.751526
2071000000,-150.23608,59.503071
2072000000,-150.84534,59.500858
2073000000,-150.4101,59.108685
2074000000,-150.80014,59.092911
2075000000,-150.66934,59.063332
2076000000,-151.20102,58.898232
2077000000,-151.28053,58.892815
2078000000,-151.17181,58.56752
2079000000,-152.63443,58.242668
2080000000,-152.34497,58.171436
2081000000,-152.26062,58.26424
2082000000,-152.35844,58.052906
2083000000,-151.55122,57.949982
2084000000,-152.70958,57.51783
2085000000,-152.52315,57.679035
2086000000,-153.51279,57.204281
2087000000,-153.2281,57.205246
2088000000,-153.82993,57.177746
2089000000,-154.07893,56.873188
2090000000,-153.86746,57.044624
2091000000,-153.79364,56.793434
2092000000,-154.05527,56.489559
2093000000,-154.18941,56.482361
2094000000,-155.00873,56.028961
2095000000,-154.04079,56.150261
2096000000,-155.23882,55.776524
2097000000,-154.74216,55.885818
2098000000,-155.2984,55.772923
2099000000,-155.17943,55.659996
2100000000,-155.7458,55.120071
2101000000,-155.04764,55.319214
2102000000,-155.36072,55.094929
2103000000,-155.80383,54.881218
2104000000,-156.34656,54.759548
2105000000,-155.94745,54.598824
2106000000,-156.13077,54.534752
2107000000,-156.79866,54.396347
2108000000,-156.64009,54.303497
2109000000,-156.71877,54.024403
2110000000,-157.47635,53.821503
2111000000,-157.28459,53.711941
2112000000,-157.7359,53.573254
2113000000,-157.64458,53.296398
2114000000,-158.16461,53.16795
2115000000,-157.42958,53.28756
2116000000,-158.54549,52.881641
2117000000,-158.68393,52.980541
2118000000,-158.87427,52.480881
2119000000,-158.73863,52.561604
2120000000,-158.40955,52.465694
2121000000,-159.18605,52.085884
2122000000,-159.61227,52.006275
2123000000,-159.52985,51.913002
2124000000,-159.1324,51.868534
2125000000,-159.96579,51.59145
2126000000,-159.67073,51.429199
2127000000,-160.15498,51.468697
2128000000,-159.96367,51.239208
2129000000,-160.17583,51.28513
2130000000,-161.10001,51.014511
2131000000,-160.7798,50.818836
2132000000,-161.46269,50.708351
2133000000,-161.51698,50.531792
2134000000,-161.29269,50.350636
2135000000,-161.65271,50.273273
2136000000,-161.93002,50.14917
2137000000,-161.58577,49.954292
2138000000,-162.39526,49.720627
2139000000,-162.02739,49.619827
2140000000,-162.36887,49.36887
2141000000,-162.67029,49.343716
2142000000,-162.66115,49.084484
2143000000,-163.05383,49.082462
2144000000,-163.32185,48.982388
2145000000,-162.89058,48.782192
2146000000,-163.42361,48.414478
2147000000,-163.44005,48.771053
2148000000,-163.7466,48.349125
2149000000,-164.08784,48.118935
2150000000,-163.67645,48.121696
2151000000,-163.90031,47.888729
2152000000,-163.66684,48.021645
2153000000,-163.98375,47.63839
2154000000,-164.46196,47.484428
2155000000,-164.54668,47.443031
2156000000,-164.52855,47.266895
2157000000,-164.87929,47.037941
2158000000,-164.59097,47.04142
2159000000,-164.96039,46.564445
2160000000,-165.48413,46.417057
2161000000,-165.17613,46.498489
2162000000,-165.39189,46.199814
2163000000,-165.72842,46.11797
2164000000,-165.77542,46.154949
2165000000,-166.14899,45.860882
2166000000,-166.62781,45.689484
2167000000,-166.5705,45.526489
2168000000,-166.22365,45.512535
2169000000,-166.66629,45.256039
2170000000,-166.82942,45.1021
2171000000,-167.20036,44.828747
2172000000,-167.30569,44.860619
2173000000,-167.07973,44.78635
2174000000,-167.73738,44.281044
2175000000,-167.72145,44.425694
2176000000,-167.59917,44.222523
2177000000,-168.33202,44.000427
2178000000,-167.90959,43.954868
2179000000,-168.24333,43.918495
2180000000,-168.64218,43.516159
2181000000,-168.90736,43.392349
2182000000,-168.59306,43.341019
2183000000,-169.30734,43.281693
2184000000,-168.71059,43.21339
2185000000,-169.01711,43.17128
2186000000,-168.85374,42.845276
2187000000,-169.22627,42.782562
2188000000,-169.56412,42.600235
2189000000,-169.72754,42.431946
2190000000,-169.95232,42.28347
2191000000,-170.19185,42.009495
2192000000,-169.95709,41.969067
2193000000,-170.43274,41.698097
2194000000,-170.25607,41.853943
2195000000,-170.58171,41.465759
2196000000,-170.56795,41.312405
2197000000,-170.72482,41.300343
2198000000,-171.29185,41.021908
2199000000,-171.19385,40.824757
2200000000,-171.11707,40.916004
2201000000,-171.50526,40.583088
2202000000,-171.68681,40.419456
2203000000,-171.86014,40.339714
2204000000,-171.86432,40.196053
2205000000,-172.24469,39.972111
2206000000,-172.14493,40.124664
2207000000,-172.5049,39.650578
2208000000,-172.72107,39.545521
2209000000,-172.62547,39.437073
2210000000,-172.46571,39.437508
2211000000,-172.93095,39.128201
2212000000,-173.00514,39.120174
2213000000,-173.22424,38.830109
2214000000,-173.67264,38.754879
2215000000,-173.55078,38.680832
2216000000,-173.34158,38.57605
2217000000,-173.55278,38.369862
2218000000,-173.42624,38.36858
2219000000,-174.2937,37.91946
2220000000,-173.81407,38.078621
2221000000,-174.31906,37.809872
2222000000,-174.25021,37.673328
2223000000,-174.87045,37.395786
2224000000,-174.87889,37.409458
2225000000,-175.21512,37.040051
2226000000,-175.37128,36.978981
2227000000,-175.1286,36.85466
2228000000,-175.3093,36.659618
2229000000,-175.69548,36.530895
2230000000,-175.34154,36.382378
2231000000,-175.75029,36.343395
2232000000,-175.94711,36.08189
2233000000,-176.04152,36.177929
2234000000,-176.05692,35.945354
2235000000,-176.24245,35.626415
2236000000,-176.19981,35.487766
2237000000,-176.57051,35.456818
2238000000,-176.64558,35.208233
2239000000,-177.26653,35.062595
2240000000,-177.19351,34.907967
2241000000,-176.88638,34.83773
2242000000,-176.95036,34.915565
2243000000,-177.39807,34.524487
2244000000,-177.70673,34.220325
2245000000,-177.54083,34.195614
2246000000,-177.68149,34.223484
2247000000,-178.15536,33.687027
2248000000,-178.08881,33.926262
2249000000,-178.26077,33.513817
2250000000,-178.17711,33.556183
2251000000,-178.56032,33.419216
2252000000,-178.45206,33.333183
2253000000,-178.87987,33.068752
2254000000,-179.07776,32.883789
2255000000,-179.34129,32.760269
2256000000,-179.60854,32.613384
2257000000,-179.18936,32.751598
2258000000,-179.48782,32.555744
2259000000,-179.74229,32.09333
2260000000,-179.39693,32.295406
2261000000,179.90594,32.012291
2262000000,179.92778,31.765345
2263000000,179.80624,31.664276
2264000000,179.72774,31.463833
2265000000,179.71693,31.3559
2266000000,179.57291,31.260242
2267000000,179.04073,30.909756
2268000000,179.35023,31.015333
2269000000,178.72,30.657164
2270000000,179.10721,30.800106
2271000000,178.79564,30.526264
2272000000,179.15025,30.594187
2273000000,178.39395,30.218739
2274000000,178.48708,30.140051
2275000000,178.31653,29.97529
2276000000,178.09784,29.766729
2277000000,177.69995,29.594063
2278000000,178.02702,29.599154
2279000000,177.44806,29.336592
2280000000,177.36246,29.185415
2281000000,177.1201,28.900562
2282000000,177.35709,29.087881
2283000000,177.15593,28.869171
2284000000,176.84444,28.639538
2285000000,176.56537,28.391756
2286000000,176.61995,28.349644
2287000000,176.21451,27.985353
2288000000,176.48645,28.260761
2289000000,175.9958,27.637306
2290000000,176.17506,27.828503
2291000000,176.49741,27.805166
2292000000,175.74515,27.426489
2293000000,175.95518,27.47821
2294000000,175.81734,27.283249
2295000000,175.31934,27.102329
2296000000,175.35092,26.939466
2297000000,174.82732,26.650888
2298000000,175.04399,26.761106
2299000000,174.90709,26.470268
2300000000,174.54933,26.221849
2301000000,174.67326,26.155159
2302000000,174.69264,26.167505
2303000000,174.312,25.876194
2304000000,174.30865,25.718494
2305000000,174.09109,25.737249
2306000000,173.73877,25.473476
2307000000,173.59282,25.259893
2308000000,173.96626,25.375677
2309000000,173.54498,25.119017
2310000000,173.25323,24.853031
2311000000,173.44933,24.723982
2312000000,173.04781,24.571341
2313000000,172.95189,24.504496
2314000000,173.07066,24.336218
2315000000,172.76213,24.121189
2316000000,172.63797,24.075928
2317000000,172.69064,23.893764
2318000000,172.56641,23.75979
2319000000,172.20935,23.530954
2320000000,171.97252,23.516298
2321000000,172.4279,23.569525
2322000000,171.4659,22.849306
2323000000,171.88763,23.085087
2324000000,171.52568,22.862663
2325000000,171.60498,22.773432
2326000000,171.51483,22.697065
2327000000,171.04066,22.200657
2328000000,171.2094,22.341402
2329000000,170.76419,22.079306
2330000000,170.98248,22.027699
2331000000,170.75194,21.911501
2332000000,171.12666,22.025324
2333000000,170.54106,21.833309
2334000000,170.91008,21.752171
2335000000,170.38167,21.379383
2336000000,170.16914,21.229761
2337000000,169.83128,21.025467
2338000000,169.81067,20.885908
2339000000,169.68452,20.643862
2340000000,169.90413,20.788242
2341000000,169.50403,20.598568
2342000000,168.90265,20.120985
2343000000,169.0386,20.232031
2344000000,169.16974,19.879543
2345000000,168.79385,19.701469
2346000000,168.83583,19.786888
2347000000,168.66188,19.561941
2348000000,168.63266,19.428455
2349000000,168.28415,19.299139
2350000000,168.05925,19.138035
2351000000,167.82446,19.023935
2352000000,168.02068,18.854136
2353000000,167.82051,18.850834
2354000000,167.62636,18.639593
2355000000,167.79948,18.434059
2356000000,167.48877,18.226913
2357000000,167.49846,18.154251
2358000000,167.36108,17.932009
2359000000,167.31322,18.001659
2360000000,167.02811,17.744081
2361000000,166.6503,17.635252
2362000000,166.67564,17.505363
2363000000,166.71902,17.51552
2364000000,166.25471,17.210884
2365000000,166.0593,16.927044
2366000000,165.86749,16.860973
2367000000,165.94972,16.73897
2368000000,165.70663,16.594345
2369000000,165.6033,16.320629
2370000000,165.49446,16.106377
2371000000,165.5274,16.380629
2372000000,165.47572,16.003469
2373000000,165.00055,15.770427
2374000000,165.11179,15.863555
2375000000,164.80247,15.581739
2376000000,164.84326,15.370243
2377000000,164.71619,15.351337
2378000000,164.49597,15.089352
2379000000,164.50072,15.12872
2380000000,164.32175,14.732122
2381000000,163.83076,14.609712
2382000000,164.42169,14.810783
2383000000,163.85886,14.324906
2384000000,163.65311,14.281313
2385000000,163.90854,14.175456
2386000000,163.87419,14.202014
2387000000,162.78261,13.607109
2388000000,163.21458,13.677892
2389000000,163.16034,13.384667
2390000000,163.05591,13.381569
2391000000,162.67896,13.327073
2392000000,162.66203,13.058619
2393000000,162.61258,12.968889
2394000000,162.58218,12.985826
2395000000,162.60661,12.909987
2396000000,162.18613,12.492527
2397000000,161.8064,12.535184
2398000000,161.79222,12.382191
2399000000,161.71729,12.067812
2400000000,161.67537,11.952085
2401000000,161.8201,11.820777
2402000000,161.65988,11.79861
2403000000,161.41905,11.678071
2404000000,160.93155,11.26627
2405000000,160.94496,11.22772
2406000000,161.07309,11.264481
2407000000,160.76462,11.05619
2408000000,160.52589,10.740016
2409000000,160.30925,10.661052
2410000000,160.43642,10.51288
2411000000,160.07823,10.471865
2412000000,160.27016,10.418338
2413000000,159.8381,10.281281
2414000000,159.86865,10.014789
2415000000,159.47482,9.7065496
2416000000,159.60023,9.7714081
2417000000,159.0296,9.5424957
2418000000,159.22266,9.4971361
2419000000,159.45204,9.3040676
2420000000,158.90578,9.1549778
2421000000,158.60812,8.9113655
2422000000,158.85716,8.721715
2423000000,158.61449,8.5700493
2424000000,158.42279,8.4499588
2425000000,158.38379,8.3446436
2426000000,158.05258,7.9371495
2427000000,158.43904,8.3724508
2428000000,158.07568,7.9584408
2429000000,158.11813,8.0116758
2430000000,157.90622,7.7153449
2431000000,157.47662,7.6039858
2432000000,157.52223,7.3987207
2433000000,157.24547,7.0952954
2434000000,157.17189,7.0070705
2435000000,157.19073,7.0620656
2436000000,157.47287,6.9515409
2437000000,157.3968,6.9011984
2438000000,156.94521,6.6601648
2439000000,156.7084,6.3290367
2440000000,156.62697,6.1971087
2441000000,156.14224,6.0217261
2442000000,156.16862,5.9621096
2443000000,156.40479,5.819973
2444000000,156.19191,5.6999149
2445000000,155.73723,5.5285983
2446000000,155.83267,5.2504172
2447000000,155.52162,5.0914235
2448000000,155.77547,5.1499872
2449000000,155.22069,4.7866278
2450000000,155.22395,4.6697006
2451000000,155.2056,4.6137028
2452000000,154.9176,4.5683227
2453000000,155.15196,4.427865
2454000000,154.47571,4.3199759
2455000000,154.64462,4.0005803
2456000000,154.44696,4.0117102
2457000000,154.47002,3.8401189
2458000000,154.25621,3.7665761
2459000000,154.21417,3.4886875
2460000000,154.24307,3.4082327
2461000000,153.85876,3.2437608
2462000000,153.7453,2.8693988
2463000000,153.54048,2.8112502
2464000000,153.83073,2.8039832
2465000000,153.55959,2.6403332
2466000000,153.1568,2.4418492
2467000000,153.32759,2.3687286
2468000000,153.3522,2.4766402
2469000000,153.03021,2.2612994
2470000000,152.81668,1.9905908
2471000000,152.84755,1.8640463
2472000000,152.85437,1.7584955
2473000000,152.66122,1.4505959
2474000000,152.49234,1.285611
2475000000,152.27849,1.3050892
2476000000,152.35564,1.2458825
2477000000,152.29869,1.0422541
2478000000,151.87151,0.74466139
2479000000,151.73141,0.51231033
2480000000,151.783,0.47126827
2481000000,151.59163,0.32789323
2482000000,151.78674,0.25880131
2483000000,151.36021,0.20139886
2484000000,151.25963,-0.074488714
2485000000,151.24059,-0.13127969
2486000000,151.08679,-0.33960408
2487000000,150.90079,-0.42959079
2488000000,150.87737,-0.54292941
2489000000,151.2021,-0.46687317
2490000000,150.62268,-0.88103408
2491000000,150.50244,-1.0398479
2492000000,150.33334,-1.3712336
2493000000,150.19177,-1.4979777
2494000000,150.31322,-1.3498454
2495000000,149.91843,-1.6639929
2496000000,150.25668,-1.6606627
2497000000,149.99947,-1.98807
2498000000,149.78542,-1.9345961
2499000000,149.46368,-2.1687772
2500000000,149.39807,-2.5249102
2501000000,148.88379,-2.7602553
2502000000,149.01704,-2.6852674
2503000000,149.26408,-2.5723808
2504000000,149.09294,-2.9432926
2505000000,148.61189,-3.096976
2506000000,148.77107,-3.0528727
2507000000,148.30943,-3.4072642
2508000000,148.26686,-3.6958568
2509000000,148.9312,-3.4710438
2510000000,148.22815,-3.7487676
2511000000,148.28471,-3.9661224
2512000000,148.4425,-4.1307478
2513000000,148.0119,-4.1852059
2514000000,147.94308,-4.2055454
2515000000,147.4523,-4.835207
2516000000,147.74313,-4.5397139
2517000000,147.65738,-4.8045731
2518000000,147.23341,-5.0799761
2519000000,147.48453,-4.9895
2520000000,147.22372,-5.3340096
2521000000,147.16283,-5.5068288
2522000000,146.95053,-5.5166078
2523000000,146.9404,-5.7585349
2524000000,146.57262,-6.0200028
2525000000,146.57797,-6.2107635
2526000000,146.54802,-6.0153913
2527000000,146.52109,-6.0913472
2528000000,146.22459,-6.565906
2529000000,146.09389,-6.4805107
2530000000,146.26306,-6.5597153
2531000000,146.0451,-6.5744057
2532000000,145.87407,-7.0158734
2533000000,146.06026,-6.9669504
2534000000,145.67064,-7.0943336
2535000000,145.61411,-7.323082
2536000000,145.5219,-7.4835982
2537000000,145.48273,-7.4989033
2538000000,145.28535,-7.836381
2539000000,145.13152,-7.9922428
2540000000,144.80504,-8.0968513
2541000000,144.93585,-8.2027521
2542000000,145.13885,-8.5012398
2543000000,144.78302,-8.8186464
2544000000,144.60378,-8.8248444
2545000000,144.46375,-8.8322859
2546000000,144.28244,-9.0921144
2547000000,144.35262,-9.1645489
2548000000,144.27205,-9.4208412
2549000000,143.87775,-9.5999765
2550000000,144.2583,-9.4284878
2551000000,144.3221,-9.5549183
2552000000,143.77843,-9.8903351
2553000000,143.69487,-10.127554
2554000000,143.49818,-10.3337
2555000000,143.83334,-10.24871
2556000000,143.55821,-10.371964
2557000000,143.21317,-10.473014
2558000000,143.15033,-10.700007
2559000000,143.08963,-11.00063
2560000000,142.98608,-11.125432
2561000000,142.93216,-11.046087
2562000000,142.87541,-11.31079
2563000000,142.67494,-11.424326
2564000000,142.88441,-11.471537
2565000000,142.71765,-11.575932
2566000000,142.38695,-11.897237
2567000000,142.61665,-11.957417
2568000000,142.10562,-12.088364
2569000000,142.36269,-12.28539
2570000000,141.99881,-12.569877
2571000000,141.94806,-12.685401
2572000000,141.9864,-12.810134
2573000000,142.19574,-12.6426
2574000000,141.68144,-12.925668
2575000000,141.94434,-13.17641
2576000000,141.61823,-13.443213
2577000000,141.18398,-13.452771
2578000000,141.27243,-13.49561
2579000000,140.9608,-13.580053
2580000000,140.89648,-13.833674
2581000000,140.88573,-14.086568
2582000000,140.78479,-14.195347
2583000000,140.62427,-14.440513
2584000000,140.46948,-14.733456
2585000000,140.82288,-14.669015
2586000000,140.50252,-14.816339
2587000000,140.62207,-14.821525
2588000000,140.49893,-14.911878
2589000000,140.44383,-15.248893
2590000000,140.30861,-15.321732
2591000000,140.08662,-15.317001
2592000000,140.16827,-15.602441
2593000000,140.05119,-15.741935
2594000000,139.74069,-16.091005
2595000000,139.93489,-16.150349
2596000000,139.68365,-16.312647
2597000000,139.6575,-16.467043
2598000000,139.74451,-16.387587
2599000000,139.48962,-16.630499
2600000000,139.42595,-16.551996
2601000000,139.55566,-16.894897
2602000000,138.99152,-17.114599
2603000000,139.11638,-17.393139
2604000000,139.14853,-17.455858
2605000000,138.89461,-17.629501
2606000000,138.98943,-17.734495
2607000000,139.21332,-17.494816
2608000000,138.9653,-17.797039
2609000000,138.8483,-18.0249
2610000000,138.42047,-18.239027
2611000000,138.3275,-18.479658
2612000000,138.74008,-18.363623
2613000000,138.48993,-18.808552
2614000000,138.35892,-18.691151
2615000000,137.88417,-19.20015
2616000000,137.9155,-19.166916
2617000000,138.22842,-19.182388
2618000000,138.13316,-19.349411
2619000000,137.72829,-19.590326
2620000000,137.73831,-19.692484
2621000000,137.63557,-19.848251
2622000000,137.64035,-19.927868
2623000000,137.3246,-20.077238
2624000000,137.41216,-20.34585
2625000000,137.19302,-20.337711
2626000000,137.38104,-20.785439
2627000000,137.28391,-20.723333
2628000000,137.15907,-20.831802
2629000000,137.03328,-21.079332
2630000000,137.11339,-20.880451
2631000000,136.9128,-21.302282
2632000000,136.70616,-21.47534
2633000000,136.86119,-21.591148
2634000000,136.48265,-21.780436
2635000000,136.50922,-22.05184
2636000000,136.50334,-21.96133
2637000000,136.37842,-21.985447
2638000000,136.6321,-22.311251
2639000000,136.30559,-22.565332
2640000000,136.64598,-22.649086
2641000000,136.38301,-22.592726
2642000000,136.17162,-22.73374
2643000000,136.04262,-23.268961
2644000000,136.05962,-23.234344
2645000000,135.81134,-23.294281
2646000000,135.7572,-23.373755
2647000000,135.73697,-23.407583
2648000000,136.09966,-23.663284
2649000000,135.55092,-24.038853
2650000000,135.67703,-23.979254
2651000000,135.61595,-24.164753
2652000000,135.43604,-24.687922
2653000000,135.78206,-24.370007
2654000000,135.58603,-24.692078
2655000000,135.46063,-24.791506
2656000000,135.20277,-24.977446
2657000000,135.28105,-25.065269
2658000000,135.43826,-25.099749
2659000000,134.98442,-25.24251
2660000000,135.1449,-25.394955
2661000000,134.98029,-25.732903
2662000000,135.01439,-25.853767
2663000000,135.12447,-25.729366
2664000000,135.02003,-26.176998
2665000000,135.07007,-26.177635
2666000000,134.47527,-26.491302
2667000000,135.18358,-26.416237
2668000000,134.88649,-26.634607
2669000000,134.36185,-26.872601
2670000000,134.30959,-26.898129
2671000000,134.40343,-27.001589
2672000000,134.59087,-27.303957
2673000000,134.10994,-27.475319
2674000000,134.18872,-27.671776
2675000000,133.88954,-27.685251
2676000000,133.87918,-27.82295
2677000000,134.27367,-27.738089
2678000000,133.82518,-28.204117
2679000000,133.8036,-28.132698
2680000000,133.66534,-28.55678
2681000000,133.60437,-28.663521
2682000000,133.78229,-28.661554
2683000000,134.09207,-29.194038
2684000000,133.60313,-28.905176
2685000000,133.28737,-29.281458
2686000000,133.27573,-29.398634
2687000000,133.74547,-29.463419
2688000000,133.55479,-29.739174
2689000000,133.58612,-29.82099
2690000000,133.7403,-29.878981
2691000000,133.38699,-30.106871
2692000000,133.27452,-30.264296
2693000000,133.30344,-30.564869
2694000000,133.18707,-30.640032
2695000000,133.44368,-30.728338
2696000000,133.06827,-30.760618
2697000000,132.96532,-30.774378
2698000000,133.36171,-31.11866
2699000000,133.28259,-31.104593
2700000000,133.18933,-31.549088
2701000000,132.98894,-31.345242
2702000000,132.68236,-31.684525
2703000000,133.12761,-31.886978
2704000000,132.90343,-32.085106
2705000000,132.61891,-32.125252
2706000000,133.15822,-32.3517
2707000000,132.77074,-32.604519
2708000000,132.73511,-32.756737
2709000000,132.96939,-32.88995
2710000000,132.82603,-32.780399
2711000000,133.22801,-33.075718
2712000000,132.93031,-33.107174
2713000000,132.55946,-33.360817
2714000000,132.81136,-33.509373
2715000000,132.7899,-33.617973
2716000000,132.82585,-33.658558
2717000000,133.09941,-33.830158
2718000000,132.5451,-33.949169
2719000000,132.86157,-34.106636
2720000000,132.37108,-34.442867
2721000000,132.68604,-34.489071
2722000000,132.71207,-34.531475
2723000000,132.70682,-34.747643
2724000000,132.62706,-34.966724
2725000000,132.45825,-34.927341
2726000000,132.79391,-35.280197
2727000000,132.27449,-35.437805
2728000000,132.46135,-35.687271
2729000000,132.74776,-35.512886
2730000000,132.3179,-35.711571
2731000000,132.56357,-35.896648
2732000000,132.04152,-36.132294
2733000000,132.43127,-36.369686
2734000000,132.59567,-36.437992
2735000000,132.17989,-36.519459
2736000000,132.5713,-36.695831
2737000000,132.5233,-36.856079
2738000000,132.71082,-37.139942
2739000000,132.61086,-37.051826
2740000000,132.1991,-37.132172
2741000000,132.37944,-37.40456
2742000000,132.07141,-37.532318
2743000000,132.03168,-37.52364
2744000000,132.37621,-37.91901
2745000000,132.60071,-37.900055
2746000000,132.05414,-38.057041
2747000000,132.40567,-38.381508
2748000000,132.65576,-38.527843
2749000000,132.26875,-38.584999
2750000000,132.20674,-38.751629
2751000000,132.61394,-38.887436
2752000000,132.7406,-39.126198
2753000000,132.42834,-39.120918
2754000000,132.78911,-39.416107
2755000000,132.35056,-39.375256
2756000000,132.60587,-39.749535
2757000000,132.23405,-39.77882
2758000000,132.61493,-39.75885
2759000000,132.54985,-40.007179
2760000000,133.03389,-40.215042
2761000000,132.94263,-40.317242
2762000000,132.41202,-40.391357
2763000000,133.11227,-40.728092
2764000000,132.79684,-40.853519
2765000000,132.68794,-40.95261
2766000000,133.30977,-41.130779
2767000000,133.39816,-41.266026
2768000000,133.20705,-41.410641
2769000000,133.27084,-41.348255
2770000000,133.05809,-41.643417
2771000000,133.70047,-41.67749
2772000000,133.50185,-42.028271
2773000000,133.4458,-42.140697
2774000000,133.39409,-42.061615
2775000000,133.32114,-42.293507
2776000000,134.1356,-42.471951
2777000000,133.82504,-42.528896
2778000000,133.94707,-42.923923
2779000000,133.49838,-43.145416
2780000000,133.88017,-43.045765
2781000000,133.75203,-43.039997
2782000000,134.17415,-43.352455
2783000000,133.95027,-43.547718
2784000000,134.14578,-43.730221
2785000000,133.95624,-43.858173
2786000000,134.55829,-43.847961
2787000000,134.27957,-44.253811
2788000000,134.29041,-44.19928
2789000000,134.63478,-44.409077
2790000000,134.84592,-44.740753
2791000000,134.44547,-44.59959
2792000000,135.02914,-44.991554
2793000000,134.88641,-45.146069
2794000000,134.82581,-44.943699
2795000000,134.40871,-45.463364
2796000000,135.07878,-45.554455
2797000000,135.21144,-45.523182
2798000000,135.29478,-45.643063
2799000000,135.86656,-45.861652
2800000000,135.51514,-46.256443
2801000000,135.25337,-46.173988
2802000000,135.4184,-46.364101
2803000000,135.66402,-46.579983
2804000000,135.51665,-46.842197
2805000000,136.21828,-46.891174
2806000000,136.63496,-47.038948
2807000000,135.74377,-47.432316
2808000000,136.43221,-47.234283
2809000000,136.47528,-47.277706
2810000000,136.17366,-47.760246
2811000000,136.51151,-47.710732
2812000000,136.65425,-47.631016
2813000000,136.82433,-48.107693
2814000000,136.70107,-48.161465
2815000000,137.10571,-48.316429
2816000000,136.95007,-48.556469
2817000000,136.64229,-48.758713
2818000000,137.94681,-48.627155
2819000000,137.31555,-49.035191
2820000000,137.54306,-49.233269
2821000000,137.7803,-49.37458
2822000000,138.20177,-49.186119
2823000000,138.57246,-49.312256
2824000000,138.70685,-49.651634
2825000000,138.24089,-49.922287
2826000000,138.73634,-49.99802
2827000000,139.79617,-49.891754
2828000000,138.66443,-50.400082
2829000000,139.54015,-50.285866
2830000000,139.4151,-50.465469
2831000000,139.38338,-50.662022
2832000000,139.81247,-50.866146
2833000000,139.91235,-50.964214
2834000000,140.2132,-51.114857
2835000000,139.16425,-51.327751
2836000000,140.58821,-51.372013
2837000000,140.37753,-51.748077
2838000000,140.65477,-51.747456
2839000000,141.33716,-51.721764
2840000000,141.52563,-52.004856
2841000000,141.16341,-52.040943
2842000000,141.50819,-52.070927
2843000000,141.51489,-52.512131
2844000000,141.99315,-52.750031
2845000000,141.52109,-52.812862
2846000000,142.14549,-52.859604
2847000000,142.79192,-53.157124
2848000000,143.21796,-53.150658
2849000000,142.97752,-53.485737
2850000000,142.97943,-53.601742
2851000000,143.96353,-53.683643
2852000000,144.38084,-53.773621
2853000000,143.96112,-54.047562
2854000000,143.56747,-53.763474
2855000000,144.67613,-54.273335
2856000000,145.04514,-54.321178
2857000000,144.93277,-54.57299
2858000000,144.95062,-54.750275
2859000000,144.97963,-54.796955
2860000000,144.92488,-55.041504
2861000000,145.29427,-55.283596
2862000000,145.5269,-55.342793
2863000000,146.25665,-55.578663
2864000000,146.98245,-55.56356
2865000000,146.1787,-55.883411
2866000000,147.55652,-55.857594
2867000000,147.44008,-55.887794
2868000000,147.76556,-56.00058
2869000000,148.36455,-56.40863
2870000000,148.57813,-56.383842
2871000000,149.05632,-56.72171
2872000000,149.20937,-57.055252
2873000000,149.67761,-57.049652
2874000000,150.09695,-57.001106
2875000000,150.19202,-57.306183
2876000000,150.87807,-57.301136
2877000000,150.33658,-57.558147
2878000000,152.02028,-57.553333
2879000000,151.64639,-57.93829
2880000000,152.21713,-58.038967
2881000000,152.32045,-57.931118
2882000000,152.48376,-58.236153
2883000000,153.13765,-58.371899
2884000000,153.77789,-58.428097
2885000000,153.9975,-58.704254
2886000000,153.71924,-58.842976
2887000000,154.7644,-58.845467
2888000000,154.43864,-59.086117
2889000000,155.17058,-59.41227
2890000000,155.0386,-59.474529
2891000000,156.23563,-59.661499
2892000000,155.86894,-59.732887
2893000000,156.41286,-59.869114
2894000000,156.0159,-59.987415
2895000000,156.64511,-60.179588
2896000000,157.82394,-60.368431
2897000000,158.17401,-60.284595
2898000000,157.49773,-60.581142
2899000000,158.27115,-61.068783
2900000000,158.62886,-61.204819
2901000000,159.26904,-61.0341
2902000000,158.67938,-61.17701
2903000000,159.00481,-61.448753
2904000000,159.53951,-61.551064
2905000000,160.35951,-61.559357
2906000000,160.20673,-61.659866
2907000000,162.03322,-61.926975
2908000000,161.15536,-62.087349
2909000000,160.80869,-62.266609
2910000000,161.52892,-62.465481
2911000000,161.78792,-62.452156
2912000000,162.2057,-62.839783
2913000000,162.58083,-62.678982
2914000000,162.68463,-63.075287
2915000000,164.10454,-63.410248
2916000000,164.18842,-63.358959
2917000000,164.34579,-63.620338
2918000000,164.04796,-63.413158
2919000000,165.25102,-63.561741
2920000000,164.65633,-63.758205
2921000000,164.69333,-64.310631
2922000000,165.49423,-64.176552
2923000000,166.33606,-64.16964
2924000000,166.67163,-64.468338
2925000000,167.30708,-64.530998
2926000000,167.67775,-64.79644
2927000000,167.54797,-64.847504
2928000000,167.96332,-64.852905
2929000000,168.74255,-65.119537
2930000000,168.49265,-65.373489
2931000000,168.73587,-65.488991
2932000000,169.3967,-65.762001
2933000000,170.10083,-65.688919
2934000000,169.41495,-65.858452
2935000000,170.41493,-66.074654
2936000000,170.93919,-66.242088
2937000000,170.0656,-66.365318
2938000000,171.54417,-66.500717
2939000000,172.02469,-66.51722
2940000000,170.73221,-67.0028
2941000000,172.72206,-66.98114
2942000000,172.95546,-67.309952
2943000000,172.62932,-67.156357
2944000000,174.0457,-67.483673
2945000000,174.32683,-67.702477
2946000000,175.41785,-67.587082
2947000000,175.17004,-67.686195
2948000000,174.6243,-67.941391
2949000000,175.49117,-68.301575
2950000000,176.34282,-68.206619
2951000000,175.65579,-68.41774
2952000000,176.21074,-68.617912
2953000000,176.40227,-68.709801
2954000000,176.45084,-68.985359
2955000000,177.52104,-68.990585
2956000000,177.2002,-69.129501
2957000000,177.52374,-69.290504
2958000000,178.36481,-69.592941
2959000000,176.85074,-69.847054
2960000000,179.02946,-69.792397
2961000000,178.38246,-69.853607
2962000000,177.81012,-70.082787
2963000000,178.59158,-70.286407
2964000000,-179.90785,-70.342972
2965000000,178.57715,-70.494606
2966000000,179.27972,-70.742111
2967000000,179.5677,-70.874313
2968000000,-179.24783,-70.781258
2969000000,-179.2305,-71.157677
2970000000,-178.26382,-71.278137
2971000000,-179.20897,-71.469009
2972000000,-178.62311,-71.404022
2973000000,-178.85216,-71.711983
2974000000,-177.09306,-71.879974
2975000000,-178.24435,-72.198029
2976000000,-176.90869,-72.101082
2977000000,-177.22862,-72.286346
2978000000,-177.23505,-72.358765
2979000000,-177.76894,-72.806831
2980000000,-176.21532,-72.709175
2981000000,-175.99985,-73.037117
2982000000,-175.446,-73.0718
2983000000,-175.52945,-73.190163
2984000000,-175.34055,-73.276894
2985000000,-175.72827,-73.612846
2986000000,-175.00407,-73.599319
2987000000,-175.52995,-73.846931
2988000000,-174.19041,-73.769981
2989000000,-174.72583,-74.014923
2990000000,-173.88045,-74.450722
2991000000,-173.90552,-74.439194
2992000000,-173.44466,-74.428871
2993000000,-173.1049,-74.623177
2994000000,-173.26677,-74.918152
2995000000,-173.35049,-75.059296
2996000000,-173.46028,-75.102547
2997000000,-173.15312,-75.250275
2998000000,-173.47006,-75.571709
2999000000,-172.27921,-75.428795
3000000000,-171.354,-75.652283
3001000000,-171.92764,-75.877083
3002000000,-171.30154,-76.036301
3003000000,-171.00595,-76.159134
3004000000,-172.01361,-76.282326
3005000000,-171.19089,-76.479668
3006000000,-171.15588,-76.597168
3007000000,-170.92763,-76.721107
3008000000,-171.16861,-76.930611
3009000000,-170.76941,-77.077797
3010000000,-169.82556,-77.244637
3011000000,-169.98776,-77.20517
3012000000,-169.40346,-77.368385
3013000000,-170.62476,-77.788361
3014000000,-170.59937,-77.754501
3015000000,-169.31161,-78.104057
3016000000,-170.23306,-78.055984
3017000000,-169.3889,-78.215012
3018000000,-168.806,-78.24514
3019000000,-169.09268,-78.549263
3020000000,-169.334,-78.666946
3021000000,-168.51733,-78.793968
3022000000,-169.11739,-78.926979
3023000000,-169.60211,-79.104622
3024000000,-168.83896,-79.147682
3025000000,-168.13472,-79.221771
3026000000,-168.49513,-79.511673
3027000000,-168.28485,-79.819107
3028000000,-167.86884,-79.844589
3029000000,-168.1055,-80.156876
3030000000,-168.0545,-80.166183
3031000000,-167.81734,-80.089073
3032000000,-167.81613,-80.528549
3033000000,-168.22675,-80.613335
3034000000,-167.4008,-80.80513
3035000000,-167.6321,-80.890343
3036000000,-167.53932,-81.069916
3037000000,-167.32864,-81.354881
3038000000,-168.18759,-81.463737
3039000000,-167.31544,-81.290657
3040000000,-167.03033,-81.627098
3041000000,-166.23447,-81.593163
3042000000,-167.32803,-82.048584
3043000000,-167.09192,-82.134865
3044000000,-167.33479,-82.311569
3045000000,-166.89438,-82.392807
3046000000,-166.23973,-82.331673
3047000000,-167.22198,-82.518417
3048000000,-166.75604,-82.882317
3049000000,-166.32718,-82.845451
3050000000,-166.67804,-83.210426
3051000000,-166.81487,-83.366562
3052000000,-166.00783,-83.305771
3053000000,-165.84648,-83.572205
3054000000,-166.95613,-83.680122
3055000000,-165.09486,-83.816948
3056000000,-165.61906,-83.799431
3057000000,-166.08018,-84.009956
3058000000,-166.35052,-84.184814
3059000000,-165.54268,-84.403603
3060000000,-164.69514,-84.561981
3061000000,-165.50832,-84.716927
3062000000,-165.43576,-84.731148
3063000000,-165.39067,-85.083099
3064000000,-165.38277,-85.074364
3065000000,-165.18001,-85.384155
3066000000,-165.20901,-85.553612
3067000000,-165.29738,-85.542755
3068000000,-165.64957,-85.821175
3069000000,-165.38747,-85.989937
3070000000,-166.05786,-86.206482
3071000000,-165.91133,-86.206665
3072000000,-164.87035,-86.243423
3073000000,-165.38367,-86.490738
3074000000,-165.74777,-86.63784
3075000000,-165.31407,-86.588509
3076000000,-165.46513,-87.051147
3077000000,-164.9697,-86.895767
3078000000,-165.49152,-87.086296
3079000000,-165.28804,-87.252594
3080000000,-164.7686,-87.468842
3081000000,-165.34793,-87.617317
3082000000,-165.291,-87.63076
3083000000,-164.78461,-87.95649
3084000000,-164.97737,-88.102722
3085000000,-165.46779,-88.344849
3086000000,-164.9254,-88.492432
3087000000,-166.02988,-88.533592
3088000000,-164.69083,-88.67865
3089000000,-165.56104,-88.861824
3090000000,-164.70984,-88.859474
3091000000,-165.02725,-88.924706
3092000000,-164.69688,-88.819794
3093000000,-165.02794,-89.245285
3094000000,-165.33221,-89.55069
3095000000,-164.91641,-89.578995
3096000000,-164.54619,-89.694344
3097000000,-164.68332,-90.043388
3098000000,-164.49348,-90.051659
3099000000,-165.09537,-90.253181
3100000000,-164.56419,-90.192642
3101000000,-165.25536,-90.745819
3102000000,-164.42584,-90.539528
3103000000,-164.97791,-90.819069
3104000000,-164.19139,-90.721268
3105000000,-164.67847,-91.113701
3106000000,-164.85805,-91.301552
3107000000,-164.42464,-91.38369
3108000000,-164.58208,-91.559189
3109000000,-164.56084,-91.772789
3110000000,-164.60112,-91.95536
3111000000,-164.68588,-91.982155
3112000000,-164.44095,-92.105736
3113000000,-164.67194,-92.346924
3114000000,-164.02664,-92.193802
3115000000,-164.96021,-92.532173
3116000000,-164.01291,-92.818596
3117000000,-165.12892,-93.053711
3118000000,-164.8597,-93.090668
3119000000,-164.49918,-93.182121
3120000000,-164.90932,-93.521629
3121000000,-164.73495,-93.428276
3122000000,-163.93651,-93.4245
3123000000,-163.92412,-93.652184
3124000000,-164.34451,-93.831985
3125000000,-165.42397,-94.101585
3126000000,-164.8172,-94.220596
3127000000,-165.50076,-94.429314
3128000000,-164.93457,-94.500946
3129000000,-165.1409,-94.70536
3130000000,-164.86404,-94.816444
3131000000,-165.10019,-94.739731
3132000000,-165.15962,-95.11911
3133000000,-165.3083,-95.025238
3134000000,-165.11612,-95.268936
3135000000,-164.77124,-95.231262
3136000000,-164.67604,-95.582375
3137000000,-165.84885,-95.612419
3138000000,-165.52283,-95.684937
3139000000,-164.72571,-96.176247
3140000000,-165.34955,-96.334984
3141000000,-165.10893,-96.323151
3142000000,-165.97485,-96.480904
3143000000,-164.89801,-96.659378
3144000000,-164.99135,-96.883575
3145000000,-165.67412,-96.918312
3146000000,-165.63594,-97.139763
3147000000,-165.9239,-97.266464
3148000000,-165.53177,-97.303368
3149000000,-166.11121,-97.575104
3150000000,-165.46741,-97.735023
3151000000,-165.42955,-97.687607
3152000000,-166.05005,-97.934303
3153000000,-165.85121,-98.21608
3154000000,-166.75629,-98.389488
3155000000,-165.81641,-98.437279
3156000000,-166.17772,-98.616959
3157000000,-165.94923,-98.718948
3158000000,-166.02423,-98.832039
3159000000,-166.11452,-99.009125
3160000000,-166.28857,-99.0811
3161000000,-166.53673,-99.262291
3162000000,-166.29068,-99.452011
3163000000,-165.90088,-99.452759
3164000000,-166.54781,-99.672539
3165000000,-166.04179,-99.741516
3166000000,-166.45801,-100.01353
3167000000,-166.73788,-100.06317
3168000000,-166.32883,-100.1932
3169000000,-166.94049,-100.56839
3170000000,-166.54778,-100.6386
3171000000,-166.94339,-100.80158
3172000000,-167.14122,-101.16913
3173000000,-166.32219,-100.9073
3174000000,-166.9281,-101.17952
3175000000,-166.95961,-101.486
3176000000,-166.78253,-101.59443
3177000000,-166.92216,-101.70265
3178000000,-166.99985,-101.9084
3179000000,-167.05458,-102.00762
3180000000,-166.7979,-102.06326
3181000000,-167.43695,-102.11901
3182000000,-167.6994,-102.47492
3183000000,-167.61551,-102.62559
3184000000,-167.08234,-102.52071
3185000000,-167.42047,-102.79435
3186000000,-167.01668,-102.79941
3187000000,-167.11098,-102.99127
3188000000,-167.57686,-103.34007
3189000000,-167.44933,-103.33666
3190000000,-167.37228,-103.33747
3191000000,-167.66673,-103.63669
3192000000,-167.77945,-103.80788
3193000000,-168.11449,-104.00772
3194000000,-168.24249,-104.18364
3195000000,-167.7253,-104.36517
3196000000,-168.99159,-104.49991
3197000000,-168.16304,-104.6053
3198000000,-168.4608,-104.59596
3199000000,-168.15189,-104.97731
3200000000,-168.27371,-105.17477
3201000000,-168.27237,-104.91054
3202000000,-168.81561,-105.40996
3203000000,-168.47226,-105.43193
3204000000,-168.43834,-105.58368
3205000000,-168.18311,-105.6478
3206000000,-168.19545,-105.72131
3207000000,-169.11261,-105.99136
3208000000,-168.52872,-106.14952
3209000000,-169.53261,-106.33107
3210000000,-169.21097,-106.55918
3211000000,-169.37383,-106.57608
3212000000,-169.30695,-106.64026
3213000000,-169.3996,-106.79835
3214000000,-169.45778,-107.01861
3215000000,-169.73817,-107.24278
3216000000,-169.17131,-107.31892
3217000000,-169.44998,-107.50359
3218000000,-169.32753,-107.58155
3219000000,-169.25143,-107.68822
3220000000,-169.72586,-108.02767
3221000000,-169.66354,-108.1226
3222000000,-169.40836,-108.1246
3223000000,-169.60133,-108.29751
3224000000,-169.64192,-108.43285
3225000000,-170.10591,-108.6758
3226000000,-169.69974,-108.69813
3227000000,-169.48976,-109.1292
3228000000,-170.47717,-109.04229
3229000000,-170.16899,-109.17261
3230000000,-169.85524,-109.49777
3231000000,-170.09749,-109.59671
3232000000,-170.08559,-109.66692
3233000000,-170.42854,-109.96019
3234000000,-170.46408,-109.95094
3235000000,-170.27174,-109.99514
3236000000,-170.5802,-110.27145
3237000000,-170.77081,-110.48775
3238000000,-170.96498,-110.54932
3239000000,-171.11494,-110.48248
3240000000,-171.3342,-110.68656
3241000000,-171.01393,-110.85181
3242000000,-171.21436,-110.98124
3243000000,-170.80592,-111.303
3244000000,-171.19128,-111.42253
3245000000,-171.56529,-111.91601
3246000000,-171.42899,-111.76177
3247000000,-171.57506,-111.69048
3248000000,-172.17412,-111.93497
3249000000,-172.18649,-112.13258
3250000000,-171.84969,-112.33815
3251000000,-171.96992,-112.41644
3252000000,-172.14487,-112.49666
3253000000,-172.0312,-112.75386
3254000000,-171.89857,-112.64432
3255000000,-172.48894,-113.06638
3256000000,-172.31047,-113.27119
3257000000,-172.71111,-113.11758
3258000000,-172.20399,-113.52926
3259000000,-172.584,-113.62409
3260000000,-172.60336,-113.78603
3261000000,-172.54916,-113.81809
3262000000,-172.9245,-113.99699
3263000000,-173.19318,-114.33811
3264000000,-172.81364,-114.0627
3265000000,-173.05832,-114.47625
3266000000,-172.93484,-114.61873
3267000000,-173.28882,-114.75639
3268000000,-173.46075,-114.93744
3269000000,-173.26068,-114.93628
3270000000,-173.14188,-115.0583
3271000000,-173.36574,-115.33014
3272000000,-173.88991,-115.47272
3273000000,-173.58601,-115.52704
3274000000,-173.9155,-115.86244
3275000000,-173.72079,-116.06261
3276000000,-173.70274,-115.97342
3277000000,-173.72243,-116.37596
3278000000,-173.79063,-116.40757
3279000000,-173.99313,-116.45872
3280000000,-173.91907,-116.68904
3281000000,-174.00627,-116.78495
3282000000,-174.39958,-116.88869
3283000000,-174.40614,-116.94142
3284000000,-173.79744,-117.29166
3285000000,-174.68141,-117.19702
3286000000,-174.67792,-117.63732
3287000000,-174.91867,-117.55733
3288000000,-174.58853,-117.82037
3289000000,-174.91428,-117.8403
3290000000,-174.91985,-118.11431
3291000000,-175.06934,-118.01503
3292000000,-175.12729,-118.45609
3293000000,-175.38269,-118.39898
3294000000,-175.30568,-118.67989
3295000000,-175.18675,-118.8666
3296000000,-175.91995,-118.69149
3297000000,-175.51054,-119.13555
3298000000,-175.44064,-119.19926
3299000000,-175.6908,-119.2794
3300000000,-175.52982,-119.46672
3301000000,-176.18349,-119.78746
3302000000,-176.09575,-119.70016
3303000000,-176.12463,-119.93543
3304000000,-176.26373,-120.17868
3305000000,-176.29584,-120.51675
3306000000,-176.25687,-120.44451
3307000000,-176.75633,-120.34658
3308000000,-176.65143,-120.71055
3309000000,-176.71809,-121.03976
3310000000,-176.9445,-120.90646
3311000000,-176.87372,-121.10378
3312000000,-176.72871,-121.29934
3313000000,-177.21162,-121.48964
3314000000,-176.76848,-121.58902
3315000000,-177.18414,-121.83064
3316000000,-177.37775,-121.97906
3317000000,-177.25677,-121.79719
3318000000,-177.57233,-122.04138
3319000000,-177.08452,-122.52265
3320000000,-177.76521,-122.53075
3321000000,-177.87335,-122.63731
3322000000,-177.93616,-122.83408
3323000000,-177.68405,-122.98418
3324000000,-177.78654,-123.03024
3325000000,-178.38872,-123.1177
3326000000,-178.38741,-123.37077
3327000000,-178.12093,-123.4142
3328000000,-178.16083,-123.55587
3329000000,-178.76112,-123.86391
3330000000,-178.08109,-123.99564
3331000000,-178.57069,-123.89089
3332000000,-178.44431,-124.15373
3333000000,-178.83943,-124.56395
3334000000,-178.69067,-124.37386
3335000000,-178.37823,-124.84836
3336000000,-178.68207,-124.68305
3337000000,-178.47578,-124.98294
3338000000,-179.30835,-125.11386
3339000000,-178.94804,-125.39272
3340000000,-178.99657,-125.27415
3341000000,-179.29227,-125.68822
3342000000,-179.53719,-125.72714
3343000000,-179.04285,-125.90231
3344000000,-179.86708,-125.96523
3345000000,-179.35846,-126.17283
3346000000,-179.68184,-126.40415
3347000000,-179.99132,-126.23145
3348000000,-179.99274,-126.44182
3349000000,179.89737,-126.62377
3350000000,179.689,-126.86221
3351000000,179.70134,-126.98084
3352000000,179.76553,-127.23798
3353000000,179.44049,-127.17586
3354000000,179.37465,-127.4268
3355000000,179.2545,-127.57911
3356000000,178.90633,-127.83302
3357000000,179.53889,-128.08444
3358000000,179.38371,-127.94431
3359000000,179.14052,-128.41103
3360000000,179.09518,-128.50865
3361000000,178.56764,-128.60532
3362000000,178.49448,-128.62704
3363000000,178.28458,-128.68472
3364000000,178.36684,-128.87279
3365000000,178.79941,-129.20325
3366000000,177.79419,-129.2412
3367000000,178.01459,-129.22244
3368000000,178.08478,-129.55457
3369000000,177.81776,-129.55446
3370000000,178.53854,-129.6255
3371000000,177.87151,-129.83272
3372000000,177.71935,-129.98766
3373000000,178.00885,-130.05536
3374000000,178.08141,-130.51389
3375000000,177.12808,-130.44296
3376000000,176.91367,-130.88782
3377000000,177.71777,-130.78021
3378000000,177.13419,-131.16055
3379000000,177.45213,-130.85573
3380000000,177.16989,-131.35623
3381000000,177.10583,-131.32996
3382000000,177.44724,-131.73871
3383000000,176.80336,-131.8504
3384000000,176.33652,-131.88817
3385000000,176.94659,-132.08922
3386000000,176.80794,-132.13649
3387000000,177.44469,-132.29909
3388000000,176.40776,-132.44922
3389000000,176.64188,-132.55629
3390000000,176.33626,-132.74184
3391000000,175.69398,-132.88843
3392000000,176.03508,-133.1113
3393000000,176.20502,-133.24081
3394000000,175.75568,-133.38417
3395000000,176.34277,-133.37402
3396000000,175.70145,-133.57411
3397000000,176.08144,-133.89557
3398000000,175.95827,-133.79614
3399000000,176.0058,-134.08986
3400000000,175.34364,-134.1375
3401000000,175.30536,-134.18813
3402000000,175.37209,-134.50885
3403000000,175.38496,-134.73236
3404000000,175.0276,-134.67354
3405000000,175.03551,-135.05016
3406000000,175.25482,-135.07271
3407000000,175.64377,-135.16882
3408000000,174.65941,-135.41606
3409000000,174.46333,-135.59413
3410000000,174.85449,-135.65341
3411000000,174.91443,-135.62277
3412000000,174.53806,-135.97531
3413000000,173.67963,-136.03926
3414000000,174.6304,-136.20203
3415000000,175.46907,-136.43286
3416000000,174.25737,-136.57684
3417000000,174.26732,-136.52905
3418000000,174.4351,-136.80896
3419000000,173.63007,-137.27538
3420000000,175.29782,-137.22935
3421000000,174.45605,-137.28291
3422000000,173.9267,-137.41916
3423000000,173.45259,-137.39967
3424000000,174.00273,-137.75342
3425000000,173.3786,-137.77127
3426000000,173.82455,-137.87584
3427000000,173.63818,-138.28285
3428000000,173.74797,-138.37109
3429000000,173.94548,-138.37456
3430000000,173.29974,-138.59966
3431000000,173.35472,-138.7747
3432000000,174.18384,-138.9091
3433000000,173.0919,-139.22368
3434000000,173.61414,-139.1364
3435000000,173.29959,-139.31976
3436000000,173.32175,-139.74738
3437000000,172.80266,-139.88208
3438000000,173.55122,-139.74709
3439000000,173.26683,-140.01195
3440000000,173.10898,-140.1709
3441000000,172.4595,-140.26682
3442000000,172.81197,-140.57603
3443000000,172.8287,-140.4758
3444000000,172.63548,-140.67888
3445000000,173.19705,-141.12561
3446000000,172.27983,-140.78517
3447000000,172.69855,-141.29295
3448000000,172.15327,-141.25706
3449000000,172.36534,-141.45737
3450000000,171.95306,-141.5379
3451000000,171.95128,-141.54039
3452000000,172.4467,-141.88722
3453000000,171.83836,-142.03757
3454000000,172.48315,-142.34009
3455000000,171.74048,-142.16806
3456000000,171.10229,-142.448
3457000000,172.20041,-142.50385
3458000000,172.1676,-142.74495
3459000000,171.65884,-142.61305
3460000000,172.32848,-143.06212
3461000000,171.79219,-143.23607
3462000000,172.04402,-143.51942
3463000000,171.42572,-143.57762
3464000000,171.33092,-143.6884
3465000000,171.19189,-143.70636
3466000000,171.70799,-143.87558
3467000000,171.37997,-143.903
3468000000,171.35316,-144.17587
3469000000,172.13065,-144.54221
3470000000,170.81792,-144.5304
3471000000,171.39069,-144.66183
3472000000,170.87604,-144.89444
3473000000,171.68324,-144.97409
3474000000,171.13269,-145.13243
3475000000,170.79211,-145.25957
3476000000,171.16299,-145.28085
3477000000,171.33153,-145.56058
3478000000,171.16687,-145.73355
3479000000,171.44012,-146.08325
3480000000,171.64815,-145.93578
3481000000,171.21446,-146.21202
3482000000,170.99808,-146.14697
3483000000,171.20248,-146.47609
3484000000,171.38969,-146.45126
3485000000,170.62315,-146.56688
3486000000,171.80168,-147.03316
3487000000,171.71332,-147.06058
3488000000,170.92107,-147.26781
3489000000,171.20131,-147.16672
3490000000,171.85573,-147.3251
3491000000,171.63487,-147.62108
3492000000,171.46844,-147.75816
3493000000,171.38539,-147.75504
3494000000,171.20778,-147.9834
3495000000,171.75108,-148.24901
3496000000,171.58713,-148.43636
3497000000,171.51541,-148.39961
3498000000,171.47913,-148.54242
3499000000,171.72365,-148.67328
3500000000,172.10809,-149.10164
3501000000,171.8708,-148.94417
3502000000,171.53008,-149.22354
3503000000,171.56685,-149.33846
3504000000,172.09958,-149.58299
3505000000,172.567,-149.89339
3506000000,171.9149,-149.87766
3507000000,172.33932,-150.05704
3508000000,171.96014,-150.12706
3509000000,172.65605,-150.32962
3510000000,172.44695,-150.38625
3511000000,172.09518,-150.54247
3512000000,172.45065,-150.66643
3513000000,172.67671,-150.91888
3514000000,172.16174,-151.00604
3515000000,172.97362,-151.31882
3516000000,173.5305,-151.3421
3517000000,173.4167,-151.45834
3518000000,172.60126,-151.64084
3519000000,171.59227,-151.77132
3520000000,172.90178,-151.80508
3521000000,173.60144,-151.95848
3522000000,173.1431,-152.20683
3523000000,172.98782,-152.38538
3524000000,172.84875,-152.33385
3525000000,173.55203,-152.5379
3526000000,174.07375,-152.98933
3527000000,173.689,-152.86604
3528000000,174.12756,-153.14217
3529000000,173.64561,-153.32462
3530000000,172.79263,-153.33449
3531000000,173.63919,-153.7346
3532000000,174.67152,-153.67451
3533000000,174.67548,-153.9747
3534000000,173.94373,-154.23274
3535000000,173.65163,-154.01653
3536000000,175.56668,-154.51147
3537000000,174.10844,-154.33145
3538000000,174.51233,-154.47362
3539000000,174.79669,-154.7782
3540000000,176.54291,-155.00925
3541000000,175.73747,-154.94058
3542000000,175.64317,-155.17857
3543000000,175.81932,-155.33185
3544000000,176.65773,-155.65771
3545000000,176.12108,-155.51811
3546000000,175.97185,-155.91835
3547000000,177.25433,-155.94341
3548000000,177.48648,-156.13673
3549000000,177.532,-156.09393
3550000000,177.14447,-156.26228
3551000000,178.00229,-156.5954
3552000000,178.80157,-156.75412
3553000000,177.64546,-156.75827
3554000000,178.59044,-157.00067
3555000000,178.90862,-157.14677
3556000000,179.18915,-157.27052
3557000000,179.83276,-157.36937
3558000000,178.88245,-157.54807
3559000000,-179.05075,-157.68938
3560000000,179.95454,-157.87297
3561000000,-179.5872,-157.92264
3562000000,-178.70378,-158.2804
3563000000,-178.79932,-158.27774
3564000000,-178.54099,-158.37015
3565000000,-177.91591,-158.56924
3566000000,-176.61127,-158.63795
3567000000,-176.86578,-158.8817
3568000000,-177.71423,-158.9456
3569000000,-176.18922,-159.26376
3570000000,-176.01326,-159.31644
3571000000,-174.64754,-159.46147
3572000000,-174.47095,-159.60378
3573000000,-174.78604,-159.68114
3574000000,-172.29832,-160.09906
3575000000,-173.10724,-160.00528
3576000000,-172.5963,-160.39468
3577000000,-172.21974,-160.4007
3578000000,-171.25481,-160.56606
3579000000,-171.58267,-160.61971
3580000000,-169.76521,-160.90833
3581000000,-169.46382,-161.12112
3582000000,-170.45956,-161.08504
3583000000,-169.3904,-161.39897
3584000000,-168.27078,-161.58371
3585000000,-168.03795,-161.55223
3586000000,-167.16191,-161.89224
3587000000,-167.11845,-161.86584
3588000000,-167.83904,-161.82013
3589000000,-166.2475,-162.07484
3590000000,-165.31696,-162.4418
3591000000,-164.29993,-162.39796
3592000000,-162.992,-162.62825
3593000000,-163.12956,-162.84419
3594000000,-161.77692,-162.91057
3595000000,-162.55142,-163.04173
3596000000,-161.95187,-163.18536
3597000000,-159.82471,-163.46039
3598000000,-159.92644,-163.62245
3599000000,-158.38284,-163.63339
3600000000,-159.0208,-163.81897
3601000000,-157.26459,-163.90065
3602000000,-156.09436,-164.41222
3603000000,-155.85172,-164.11888
3604000000,-153.92513,-164.34634
3605000000,-155.18074,-164.44423
3606000000,-152.36842,-164.72768
3607000000,-152.12137,-164.83391
3608000000,-150.33328,-165.028
3609000000,-151.90897,-165.04016
3610000000,-149.22807,-165.37036
3611000000,-149.97017,-165.38298
3612000000,-147.13992,-165.66322
3613000000,-146.52635,-165.84129
3614000000,-147.54367,-166.05789
3615000000,-144.88152,-166.19199
3616000000,-143.96883,-166.27319
3617000000,-141.59558,-166.42413
3618000000,-142.84409,-166.7122
3619000000,-142.48868,-166.53479
3620000000,-140.91434,-166.70786
3621000000,-141.28387,-166.77939
3622000000,-139.35831,-167.07828
3623000000,-138.30545,-167.19893
3624000000,-139.90961,-167.34743
3625000000,-137.87175,-167.48979
3626000000,-135.49437,-167.69221
3627000000,-134.54784,-167.71968
3628000000,-134.76053,-167.95729
3629000000,-133.07443,-168.14464
3630000000,-132.48413,-168.33513
3631000000,-131.9568,-168.49432
3632000000,-130.26651,-168.5195
3633000000,-131.28563,-168.65613
3634000000,-128.5239,-168.92966
3635000000,-129.31453,-169.01469
3636000000,-127.67992,-169.23094
3637000000,-125.96642,-169.48596
3638000000,-126.78222,-169.44237
3639000000,-126.83193,-169.5112
3640000000,-124.4172,-169.76807
3641000000,-123.67079,-169.75903
3642000000,-121.94756,-170.06828
3643000000,-121.45741,-170.3168
3644000000,-120.98808,-170.61757
3645000000,-120.18258,-170.62422
3646000000,-118.25945,-170.85551
3647000000,-120.1581,-170.83214
3648000000,-118.89062,-170.87715
3649000000,-117.63036,-171.17027
3650000000,-116.23257,-171.39108
3651000000,-116.7016,-171.27771
3652000000,-115.2374,-171.51418
3653000000,-115.21263,-171.54512
3654000000,-113.94817,-171.93977
3655000000,-113.49596,-172.02933
3656000000,-113.6879,-172.32019
3657000000,-112.46027,-172.32948
3658000000,-110.46901,-172.48987
3659000000,-111.46304,-172.76067
3660000000,-110.86656,-172.71881
3661000000,-109.9986,-172.98016
3662000000,-109.77724,-172.93298
3663000000,-109.37592,-173.2699
3664000000,-108.14542,-173.1956
3665000000,-107.98922,-173.8168
3666000000,-109.19723,-173.67841
3667000000,-106.31609,-173.71671
3668000000,-106.61339,-174.04674
3669000000,-106.18581,-174.05502
3670000000,-105.77534,-174.23885
3671000000,-105.6041,-174.32268
3672000000,-105.36391,-174.57704
3673000000,-104.86526,-174.90741
3674000000,-105.11922,-175.01509
3675000000,-103.57361,-175.15532
3676000000,-103.98656,-175.19223
3677000000,-101.98785,-175.27533
3678000000,-102.98756,-175.71541
3679000000,-101.48391,-175.52692
3680000000,-101.649,-175.80833
3681000000,-102.4324,-175.77722
3682000000,-101.01575,-176.15884
3683000000,-100.25416,-176.25804
3684000000,-100.37305,-176.21783
3685000000,-100.43971,-176.57643
3686000000,-99.354866,-176.6188
3687000000,-99.428108,-176.94447
3688000000,-99.49382,-176.85722
3689000000,-99.580063,-177.19226
3690000000,-98.262535,-177.1956
3691000000,-97.442215,-177.24106
3692000000,-98.266922,-177.24751
3693000000,-97.238266,-177.52263
3694000000,-98.364677,-177.81229
3695000000,-97.508728,-178.05252
3696000000,-96.958527,-178.05179
3697000000,-96.402306,-178.18015
3698000000,-97.351624,-178.35216
3699000000,-96.488449,-178.54419
3700000000,-96.12793,-178.62589
3701000000,-94.969597,-178.85335
3702000000,-95.71637,-179.15263
3703000000,-95.379524,-179.11076
3704000000,-95.037552,-179.26453
3705000000,-94.691521,-179.48294
3706000000,-95.777405,-179.72302
3707000000,-95.139137,-179.71696
3708000000,-95.48275,-179.968
3709000000,-95.39064,179.94357
3710000000,-94.362839,179.53622
3711000000,-94.329208,179.60239
3712000000,-94.386993,179.3327
3713000000,-94.409752,179.45239
3714000000,-94.779106,179.09509
3715000000,-93.342583,179.10777
3716000000,-93.983452,178.77313
3717000000,-93.801323,178.92496
3718000000,-93.890266,178.54037
3719000000,-93.649834,178.38472
3720000000,-93.736305,178.22502
3721000000,-92.852348,178.1064
3722000000,-92.765594,178.12772
3723000000,-92.745461,177.74898
3724000000,-92.502213,177.75122
3725000000,-92.984375,177.59312
3726000000,-92.854073,177.3188
3727000000,-92.171661,177.32095
3728000000,-92.459175,177.04996
3729000000,-92.160095,176.91356
3730000000,-92.171921,176.62215
3731000000,-91.524284,176.80318
3732000000,-92.195435,176.45824
3733000000,-91.472221,176.39014
3734000000,-92.014694,176.37183
3735000000,-91.761322,175.99535
3736000000,-91.337547,176.1259
3737000000,-92.042877,175.78827
3738000000,-92.014748,175.47658
3739000000,-91.244362,175.67574
3740000000,-91.891724,175.47984
3741000000,-91.061371,175.15787
3742000000,-92.487595,174.94792
3743000000,-91.77462,174.85709
3744000000,-91.809196,174.70509
3745000000,-92.383659,174.50294
3746000000,-91.237785,174.25177
3747000000,-91.146309,174.3233
3748000000,-90.299301,174.28554
3749000000,-91.469719,174.05196
3750000000,-91.855003,173.71761
3751000000,-91.668884,173.78763
3752000000,-91.530556,173.65155
3753000000,-91.692101,173.30775
3754000000,-91.714149,173.28543
3755000000,-91.024109,173.0533
3756000000,-90.93898,173.00114
3757000000,-91.028061,172.62555
3758000000,-91.519119,172.70628
3759000000,-92.243172,172.50752
3760000000,-91.433678,172.34236
3761000000,-91.440155,172.05672
3762000000,-91.223465,171.98012
3763000000,-91.223701,171.8017
3764000000,-91.625916,171.61256
3765000000,-91.410843,171.56494
3766000000,-91.064751,171.38246
3767000000,-91.331482,171.1936
3768000000,-91.376877,170.97514
3769000000,-91.997826,170.76918
3770000000,-91.388,170.85678
3771000000,-91.050911,170.75136
3772000000,-91.069496,170.64206
3773000000,-91.633904,170.41652
3774000000,-91.112236,170.24756
3775000000,-91.578064,170.10826
3776000000,-90.944641,170
3777000000,-91.349998,169.72717
3778000000,-91.573448,169.73611
3779000000,-91.681503,169.3801
3780000000,-92.299965,169.20924
3781000000,-91.614716,169.13998
3782000000,-91.210075,169.2262
3783000000,-91.98745,168.89851
3784000000,-91.678246,168.80843
3785000000,-91.93026,168.64368
3786000000,-92.425949,168.38188
3787000000,-91.605965,168.41367
3788000000,-91.678299,168.26215
3789000000,-92.649376,167.88785
3790000000,-91.757835,167.88359
3791000000,-92.178391,167.70766
3792000000,-92.49057,167.57188
3793000000,-91.712952,167.60973
3794000000,-92.435966,167.32784
3795000000,-92.544121,167.14684
3796000000,-92.016121,166.99582
3797000000,-92.268097,166.8667
3798000000,-92.426056,166.72032
3799000000,-92.119781,166.59319
3800000000,-91.899078,166.41301
3801000000,-92.535164,166.19519
3802000000,-92.908585,166.02377
3803000000,-92.271103,166.08118
3804000000,-92.920998,165.91354
3805000000,-92.479134,165.7449
3806000000,-92.896584,165.672
3807000000,-92.284943,165.29329
3808000000,-92.947998,165.17545
3809000000,-93.003716,165.12726
3810000000,-93.061386,164.94371
3811000000,-93.040489,164.76454
3812000000,-92.72892,164.51538
3813000000,-93.335251,164.50819
3814000000,-92.890511,164.28358
3815000000,-93.288361,164.04356
3816000000,-93.05146,164.02959
3817000000,-93.416939,163.97591
3818000000,-93.19413,163.81526
3819000000,-93.440849,163.56059
3820000000,-93.247421,163.59579
3821000000,-93.381081,163.43311
3822000000,-93.043488,163.18839
3823000000,-93.651062,162.9464
3824000000,-94.341103,162.77962
3825000000,-94.040756,162.67604
3826000000,-94.37133,162.45567
3827000000,-94.499886,162.47435
3828000000,-94.046333,162.32848
3829000000,-94.137512,162.13344
3830000000,-94.178062,161.89095
3831000000,-94.515762,161.87051
3832000000,-94.25032,161.63925
3833000000,-94.201721,161.48332
3834000000,-94.489563,161.40712
3835000000,-94.0485,161.28043
3836000000,-94.750664,161.02301
3837000000,-94.813614,160.68605
3838000000,-94.62056,160.83302
3839000000,-94.556763,160.42163
3840000000,-95.378395,160.47836
3841000000,-95.103767,160.20862
3842000000,-95.258156,160.13666
3843000000,-95.6903,159.85153
3844000000,-95.644669,159.78468
3845000000,-95.337555,159.84067
3846000000,-95.702553,159.48018
3847000000,-95.232071,159.57043
3848000000,-95.779976,159.38823
3849000000,-95.891747,159.15659
3850000000,-96.098152,158.90977
3851000000,-95.359177,158.99843
3852000000,-96.089241,158.67987
3853000000,-96.397453,158.56641
3854000000,-96.257996,158.39705
3855000000,-96.475914,158.26224
3856000000,-96.395966,158.16002
3857000000,-96.737282,157.8065
3858000000,-96.704391,157.68562
3859000000,-96.680382,157.72137
3860000000,-96.62204,157.39038
3861000000,-97.503838,157.24922
3862000000,-97.299171,157.09009
3863000000,-97.145767,157.09636
3864000000,-97.150177,156.89769
3865000000,-97.148399,156.76167
3866000000,-97.411591,156.58264
3867000000,-97.478981,156.42937
3868000000,-97.943535,156.25243
3869000000,-97.495178,156.00566
3870000000,-98.064972,155.86052
3871000000,-97.66404,155.75584
3872000000,-98.47583,155.64725
3873000000,-98.665329,155.6875
3874000000,-98.895302,155.34424
3875000000,-98.555931,155.28766
3876000000,-98.364372,155.07346
3877000000,-98.464989,154.80807
3878000000,-98.531952,154.82097
3879000000,-99.079338,154.69171
3880000000,-98.739227,154.52136
3881000000,-99.076714,154.33228
3882000000,-99.338676,154.11086
3883000000,-98.870888,154.20856
3884000000,-99.803658,153.81004
3885000000,-99.45153,153.76932
3886000000,-99.765152,153.59554
3887000000,-99.736443,153.47701
3888000000,-99.618332,153.35573
3889000000,-99.851212,153.06242
3890000000,-99.683754,153.01884
3891000000,-100.2902,152.8719
3892000000,-100.34676,152.69379
3893000000,-100.06594,152.54903
3894000000,-100.15187,152.38495
3895000000,-100.62381,152.16437
3896000000,-100.38667,152.15613
3897000000,-101.05069,151.96335
3898000000,-101.37302,151.68323
3899000000,-101.00394,151.47708
3900000000,-101.19447,151.35963
3901000000,-101.17193,151.44363
3902000000,-101.45624,151.15358
3903000000,-101.62687,150.82343
3904000000,-101.82393,150.89673
3905000000,-101.66673,150.83444
3906000000,-102.51073,150.68259
3907000000,-101.80444,150.60344
3908000000,-101.86197,150.21132
3909000000,-102.56354,150.22668
3910000000,-102.00078,150.16234
3911000000,-102.687,149.84042
3912000000,-102.77057,149.62531
3913000000,-103.16192,149.67432
3914000000,-102.94942,149.41183
3915000000,-103.49752,149.38689
3916000000,-102.73901,149.18842
3917000000,-102.96973,149.02347
3918000000,-103.14173,148.90593
3919000000,-103.27635,148.80798
3920000000,-104.06966,148.51257
3921000000,-103.96062,148.40277
3922000000,-103.90327,148.21283
3923000000,-103.51609,148.14581
3924000000,-104.18294,147.9157
3925000000,-104.34863,147.84024
3926000000,-104.20137,147.73082
3927000000,-104.09124,147.50887
3928000000,-104.0946,147.56863
3929000000,-104.63509,147.16928
3930000000,-105.10489,147.13089
3931000000,-104.81155,146.93985
3932000000,-105.2873,146.74261
3933000000,-105.12666,146.55423
3934000000,-105.57787,146.5215
3935000000,-104.97258,146.4035
3936000000,-105.21552,146.20563
3937000000,-105.36504,146.11905
3938000000,-105.6923,145.93394
3939000000,-105.77586,145.76674
3940000000,-106.2627,145.50107
3941000000,-105.92016,145.58742
3942000000,-106.43731,145.29982
3943000000,-106.61648,145.17485
3944000000,-106.61348,145.07187
3945000000,-106.91872,144.92184
3946000000,-106.88013,144.71727
3947000000,-106.9972,144.7207
3948000000,-107.01228,144.43671
3949000000,-107.18967,144.2576
3950000000,-107.11696,144.08672
3951000000,-107.64735,144.03065
3952000000,-107.35341,144.05606
3953000000,-107.71307,143.71964
3954000000,-107.92861,143.52896
3955000000,-107.88012,143.52614
3956000000,-107.69907,143.3214
3957000000,-108.43923,143.30707
3958000000,-108.68727,142.95042
3959000000,-108.39351,143.05452
3960000000,-108.98169,142.67348
3961000000,-109.14236,142.74658
3962000000,-109.09544,142.4455
3963000000,-108.93,142.18155
3964000000,-109.25037,142.25729
3965000000,-109.10896,142.08455
3966000000,-109.71799,141.83195
3967000000,-109.55289,141.70049
3968000000,-109.81641,141.5249
3969000000,-110.00296,141.31982
3970000000,-109.99068,141.38116
3971000000,-110.02573,141.08505
3972000000,-109.6497,141.13322
3973000000,-110.27282,140.89175
3974000000,-109.87511,140.70103
3975000000,-110.5397,140.49405
3976000000,-110.9969,140.39725
3977000000,-111.09443,140.13222
3978000000,-111.33831,140.09892
3979000000,-111.36472,139.97701
3980000000,-111.5269,139.73065
3981000000,-111.67646,139.79379
3982000000,-111.57917,139.54507
3983000000,-111.51358,139.20206
3984000000,-111.81614,139.13565
3985000000,-112.17111,139.12004
3986000000,-112.42748,138.80763
3987000000,-112.09355,138.7887
3988000000,-112.63236,138.79425
3989000000,-112.62698,138.59789
3990000000,-112.31661,138.38722
3991000000,-112.81766,138.23795
3992000000,-112.92364,138.18753
3993000000,-113.42508,137.8821
3994000000,-113.39037,137.65749
3995000000,-113.28455,137.72583
3996000000,-113.75124,137.48303
3997000000,-113.76133,137.28049
3998000000,-113.46458,137.30695
3999000000,-113.97404,136.99184
4000000000,-113.83827,136.99095
4001000000,-114.68612,136.61949
4002000000,-114.13111,136.67513
4003000000,-114.62531,136.50519
4004000000,-114.53715,136.19934
4005000000,-114.98411,136.24045
4006000000,-114.98553,136.09352
4007000000,-114.59911,136.11475
4008000000,-114.8336,135.88419
4009000000,-115.1584,135.79115
4010000000,-115.15681,135.70183
4011000000,-115.29375,135.51108
4012000000,-115.62682,135.15845
4013000000,-115.81414,134.9671
4014000000,-115.94926,134.98248
4015000000,-115.82833,134.81683
4016000000,-116.16108,134.69389
4017000000,-116.37508,134.44063
4018000000,-115.99846,134.50333
4019000000,-116.68095,134.30389
4020000000,-116.76048,134.18939
4021000000,-116.60531,133.95575
4022000000,-117.18389,133.79991
4023000000,-117.34967,133.68311
4024000000,-117.59325,133.40147
4025000000,-117.623,133.41341
4026000000,-117.61966,133.03114
4027000000,-117.13568,133.13843
4028000000,-117.68561,132.8902
4029000000,-117.85304,132.60487
4030000000,-118.20447,132.42763
4031000000,-117.94958,132.53264
4032000000,-118.37032,132.29971
4033000000,-118.17023,132.22456
4034000000,-118.65776,131.99797
4035000000,-118.76794,131.9418
4036000000,-118.70314,131.79805
4037000000,-118.46284,131.73227
4038000000,-118.8522,131.62575
4039000000,-119.51575,131.22603
4040000000,-119.49918,131.11409
4041000000,-119.51665,131.0518
4042000000,-119.48304,130.75339
4043000000,-119.8281,130.80856
4044000000,-119.9564,130.53851
4045000000,-120.11176,130.62517
4046000000,-120.03198,130.21127
4047000000,-120.17038,130.27493
4048000000,-120.35371,130.06209
4049000000,-120.54662,130.00842
4050000000,-120.91431,129.47055
4051000000,-120.57534,129.4684
4052000000,-121.10343,129.56816
4053000000,-121.13704,129.29655
4054000000,-121.29778,129.04015
4055000000,-121.39345,129.04265
4056000000,-121.59917,128.84706
4057000000,-121.34323,128.82622
4058000000,-121.50636,128.60884
4059000000,-121.81115,128.44141
4060000000,-121.86252,128.30862
4061000000,-122.04829,128.01875
4062000000,-121.81828,127.93822
4063000000,-122.58104,127.82258
4064000000,-122.70066,127.76913
4065000000,-122.73116,127.66386
4066000000,-122.54836,127.47453
4067000000,-122.74043,127.3532
4068000000,-122.84112,127.11095
4069000000,-123.20399,126.82893
4070000000,-122.9072,126.87119
4071000000,-123.19427,126.61518
4072000000,-123.44138,126.49035
4073000000,-123.14243,126.52461
4074000000,-124.07355,126.26637
4075000000,-124.17821,126.1956
4076000000,-124.23356,125.7216
4077000000,-124.2421,125.81252
4078000000,-124.29461,125.79241
4079000000,-124.35149,125.40924
4080000000,-124.8884,125.44767
4081000000,-125.01332,125.29679
4082000000,-125.04831,124.98512
4083000000,-124.98379,125.01501
4084000000,-125.23088,124.68359
4085000000,-125.15953,124.70747
4086000000,-124.93311,124.73085
4087000000,-125.18224,124.39491
4088000000,-125.63211,124.26167
4089000000,-125.44894,124.05352
4090000000,-125.89685,123.85709
4091000000,-126.11125,123.78703
4092000000,-126.06631,123.6944
4093000000,-126.02032,123.54657
4094000000,-126.08608,123.31719
4095000000,-126.66684,123.13125
4096000000,-126.44557,123.2106
4097000000,-126.49844,122.98187
4098000000,-126.79536,122.80313
4099000000,-126.83911,122.59818
4100000000,-126.86395,122.47388
4101000000,-126.96755,122.33904
4102000000,-127.28578,122.19255
4103000000,-127.34709,122.26648
4104000000,-127.67715,122.02821
4105000000,-127.74727,121.8976
4106000000,-128.12732,121.78367
4107000000,-128.34612,121.52438
4108000000,-127.98837,121.27181
4109000000,-128.05136,121.41768
4110000000,-128.39577,120.99858
4111000000,-128.43222,120.89606
4112000000,-128.47078,120.72693
4113000000,-128.54079,120.73621
4114000000,-128.65253,120.591
4115000000,-128.80832,120.37878
4116000000,-128.76099,120.14299
4117000000,-129.00636,120.13707
4118000000,-128.95915,120.07523
4119000000,-129.53972,119.74622
4120000000,-129.40404,119.82088
4121000000,-129.08685,119.57737
4122000000,-129.47617,119.43503
4123000000,-129.61266,119.28396
4124000000,-130.10979,118.93064
4125000000,-129.89149,119.12099
4126000000,-130.05569,118.79012
4127000000,-130.31737,118.73533
4128000000,-130.59349,118.379
4129000000,-130.44608,118.50762
4130000000,-130.5712,118.23837
4131000000,-130.55035,118.0874
4132000000,-130.96382,117.92638
4133000000,-130.74448,117.84448
4134000000,-131.07935,117.59436
4135000000,-131.28973,117.58728
4136000000,-130.886,117.4203
4137000000,-131.30064,117.22875
4138000000,-131.67426,116.93071
4139000000,-131.39699,116.90073
4140000000,-131.44464,116.77496
4141000000,-132.04951,116.71803
4142000000,-132.31464,116.62427
4143000000,-132.02892,116.26023
4144000000,-132.15002,116.22071
4145000000,-132.53223,115.98164
4146000000,-132.5488,116.02158
4147000000,-132.69391,115.86961
4148000000,-132.9008,115.65087
4149000000,-133.05299,115.45244
4150000000,-132.56441,115.28309
4151000000,-133.55507,115.04356
4152000000,-133.27531,115.1909
4153000000,-133.19641,115.00655
4154000000,-133.60162,114.8474
4155000000,-133.3515,114.68669
4156000000,-133.91438,114.41796
4157000000,-133.58885,114.29597
4158000000,-133.46353,114.23846
4159000000,-133.97679,113.92953
4160000000,-134.04799,113.85606
4161000000,-134.15248,113.76044
4162000000,-134.32738,113.6415
4163000000,-134.55412,113.49471
4164000000,-134.45056,113.39984
4165000000,-134.07877,113.23029
4166000000,-135.06082,112.98817
4167000000,-134.85529,112.90396
4168000000,-135.17578,112.83503
4169000000,-135.17691,112.48892
4170000000,-135.02214,112.53351
4171000000,-135.17999,112.34386
4172000000,-135.5873,112.24825
4173000000,-135.57623,112.06147
4174000000,-135.40726,111.92206
4175000000,-135.31987,111.80154
4176000000,-135.8605,111.48737
4177000000,-135.94232,111.3988
4178000000,-136.26025,111.20986
4179000000,-135.94565,111.08979
4180000000,-136.37819,111.03173
4181000000,-136.77641,110.91493
4182000000,-136.51187,110.75723
4183000000,-136.7861,110.51369
4184000000,-136.69438,110.53814
4185000000,-136.89627,110.34207
4186000000,-137.2531,110.09404
4187000000,-137.61699,110.00859
4188000000,-137.58582,109.91624
4189000000,-137.30205,109.81944
4190000000,-137.64296,109.5947
4191000000,-137.51442,109.23365
4192000000,-137.82132,109.40903
4193000000,-137.49548,109.08727
4194000000,-138.27934,109.06497
4195000000,-138.3018,108.94222
4196000000,-138.28734,108.54732
4197000000,-138.92145,108.35138
4198000000,-138.0157,108.55603
4199000000,-138.75829,108.22742
4200000000,-138.4892,108.07022
4201000000,-138.789,108.02864
4202000000,-139.10434,107.98883
4203000000,-139.46472,107.74983
4204000000,-139.28479,107.59778
4205000000,-139.61551,107.55613
4206000000,-139.84914,107.19178
4207000000,-139.64867,107.1378
4208000000,-139.48944,107.17039
4209000000,-139.43253,106.84126
4210000000,-139.88243,106.64001
4211000000,-139.65193,106.4551
4212000000,-139.9351,106.35004
4213000000,-140.18614,106.23126
4214000000,-140.37866,106.01225
4215000000,-140.33176,105.75532
4216000000,-140.59421,105.78682
4217000000,-140.42155,105.89594
4218000000,-140.59059,105.40644
4219000000,-140.87077,105.36061
4220000000,-140.95158,105.26087
4221000000,-141.11848,105.20725
4222000000,-141.23438,105.09386
4223000000,-141.4467,104.89474
4224000000,-141.6413,104.72755
4225000000,-141.63237,104.483
4226000000,-141.80136,104.35632
4227000000,-141.64735,104.11266
4228000000,-142.06569,103.94755
4229000000,-142.31151,103.76758
4230000000,-142.39268,103.71872
4231000000,-142.38486,103.56029
4232000000,-142.48138,103.38625
4233000000,-142.92229,103.2207
4234000000,-143.00096,103.13692
4235000000,-143.08955,103.0042
4236000000,-143.49248,102.81886
4237000000,-143.48203,102.73785
4238000000,-143.59508,102.58164
4239000000,-143.69008,102.68736
4240000000,-143.50446,102.38936
4241000000,-143.84483,102.05698
4242000000,-143.89854,102.17124
4243000000,-143.73601,101.76359
4244000000,-144.29581,101.83385
4245000000,-144.36354,101.50727
4246000000,-144.2106,101.3048
4247000000,-144.57684,101.37706
4248000000,-144.26112,101.13889
4249000000,-144.15462,101.07832
4250000000,-144.27573,100.86343
4251000000,-144.60414,100.80504
4252000000,-144.9473,100.48776
4253000000,-144.87103,100.46774
4254000000,-145.26869,100.34067
4255000000,-145.44124,99.966774
4256000000,-145.7999,99.889862
4257000000,-145.56955,99.801819
4258000000,-145.93222,99.556862
4259000000,-146.15723,99.648857
4260000000,-146.2867,99.353058
4261000000,-146.64484,99.158455
4262000000,-146.26059,99.153915
4263000000,-146.66544,98.848808
4264000000,-146.29665,98.686958
4265000000,-146.77487,98.637886
4266000000,-147.18768,98.56263
4267000000,-147.04115,98.229027
4268000000,-146.92705,98.152138
4269000000,-147.33414,97.997482
4270000000,-147.57178,97.854034
4271000000,-147.44179,97.718834
4272000000,-147.73195,97.555923
4273000000,-148.19901,97.448997
4274000000,-148.00729,97.344315
4275000000,-148.47392,97.116013
4276000000,-148.44659,96.942116
4277000000,-148.48517,96.91893
4278000000,-148.92613,96.693382
4279000000,-148.80461,96.612366
4280000000,-148.95988,96.389694
4281000000,-148.99976,96.171059
4282000000,-148.95514,96.236732
4283000000,-149.51393,96.053665
4284000000,-149.52815,95.900726
4285000000,-149.93785,95.664536
4286000000,-149.8103,95.52494
4287000000,-150.35982,95.420731
4288000000,-150.08908,95.198662
4289000000,-150.07333,95.136375
4290000000,-149.95157,94.878815
4291000000,-150.64517,94.896477
4292000000,-151.0211,94.653046
4293000000,-150.75462,94.411491
4294000000,-150.85403,94.358795
4295000000,-151.29785,94.229187
4296000000,-151.66495,93.984619
4297000000,-151.28734,94.002945
4298000000,-151.69998,93.840134
4299000000,-151.9791,93.59996
4300000000,-151.96893,93.481949
4301000000,-151.88646,93.446671
4302000000,-152.40741,93.279594
4303000000,-152.41457,93.17498
4304000000,-152.86987,92.953674
4305000000,-152.35475,92.688171
4306000000,-152.88504,92.621239
4307000000,-153.34306,92.401871
4308000000,-153.25999,92.18541
4309000000,-153.75362,92.161118
4310000000,-153.94621,92.048302
4311000000,-153.76456,91.740967
4312000000,-153.84869,91.575813
4313000000,-154.3748,91.652496
4314000000,-154.32526,91.442154
4315000000,-154.53384,91.348534
4316000000,-154.75453,91.229919
4317000000,-154.73833,90.881538
4318000000,-155.17606,91.059319
4319000000,-155.49364,90.609184
4320000000,-155.62326,90.72068
4321000000,-155.89067,90.469475
4322000000,-155.83527,90.281494
4323000000,-155.55519,90.146118
4324000000,-155.59276,90.053825
4325000000,-155.96146,89.680382
4326000000,-156.21794,89.677032
4327000000,-156.436,89.369102
4328000000,-156.38129,89.5728
4329000000,-157.21321,89.116905
4330000000,-156.68665,88.985893
4331000000,-157.76808,88.735619
4332000000,-157.26883,88.752953
4333000000,-157.19753,88.526779
4334000000,-157.45924,88.576759
4335000000,-157.68507,88.275291
4336000000,-157.85764,88.224304
4337000000,-157.60478,88.094383
4338000000,-157.70155,87.840462
4339000000,-158.33229,87.622673
4340000000,-158.65643,87.535927
4341000000,-158.54163,87.484123
4342000000,-158.78693,87.080391
4343000000,-158.80728,87.112411
4344000000,-159.21059,87.03759
4345000000,-159.47054,86.723961
4346000000,-159.18794,86.748367
4347000000,-159.72321,86.574471
4348000000,-159.94791,86.286354
4349000000,-159.99652,86.323647
4350000000,-160.11127,86.09407
4351000000,-160.23438,85.912292
4352000000,-160.3774,85.895271
4353000000,-160.82269,85.771919
4354000000,-161.52521,85.515717
4355000000,-161.3161,85.477005
4356000000,-161.31927,85.151199
4357000000,-161.6508,85.124687
4358000000,-161.51595,84.77021
4359000000,-162.07385,84.625679
4360000000,-162.18733,84.607422
4361000000,-162.2527,84.613411
4362000000,-162.95163,84.452057
4363000000,-162.59622,84.34491
4364000000,-162.48169,84.053787
4365000000,-162.94781,83.940598
4366000000,-163.38495,83.527702
4367000000,-163.6432,83.587234
4368000000,-162.99379,83.411507
4369000000,-162.89006,83.251404
4370000000,-163.78395,83.132607
4371000000,-163.73692,83.115311
4372000000,-163.88065,82.799118
4373000000,-164.00854,82.723251
4374000000,-164.42336,82.584518
4375000000,-164.65158,82.639946
4376000000,-164.98589,82.218781
4377000000,-165.25929,82.194878
4378000000,-164.89571,81.903976
4379000000,-165.54199,81.809006
4380000000,-166.0475,81.683807
4381000000,-165.91325,81.652817
4382000000,-166.09467,81.328659
4383000000,-166.12277,81.342484
4384000000,-166.33199,81.121231
4385000000,-166.76988,81.042801
4386000000,-166.74728,80.846542
4387000000,-166.53711,80.63665
4388000000,-166.98224,80.439865
4389000000,-166.97197,80.343636
4390000000,-167.27286,80.252502
4391000000,-167.06299,79.940323
4392000000,-167.50676,79.842445
4393000000,-168.0042,79.836037
4394000000,-167.64717,79.531532
4395000000,-167.37338,79.529457
4396000000,-169.09843,79.283463
4397000000,-168.93813,79.049377
4398000000,-168.80496,79.010216
4399000000,-168.56386,78.925064
4400000000,-168.8419,78.73243
4401000000,-169.44984,78.562973
4402000000,-169.55701,78.310196
4403000000,-170.04604,78.270081
4404000000,-169.89381,78.18438
4405000000,-170.7701,77.939194
4406000000,-170.88347,77.81855
4407000000,-170.32346,77.552528
4408000000,-170.67282,77.324913
4409000000,-171.29555,77.326843
4410000000,-171.35077,77.471397
4411000000,-171.03342,77.153618
4412000000,-171.52159,77.045708
4413000000,-171.80884,76.54689
4414000000,-171.99869,76.654701
4415000000,-172.0473,76.44397
4416000000,-171.94954,76.38958
4417000000,-172.04253,76.053375
4418000000,-173.12518,76.091499
4419000000,-172.50719,75.899376
4420000000,-173.47429,75.706955
4421000000,-172.62465,75.803223
4422000000,-173.11374,75.513756
4423000000,-173.79613,75.373146
4424000000,-173.59415,75.121254
4425000000,-173.9158,74.995956
4426000000,-173.87474,75.069847
4427000000,-174.10153,74.805565
4428000000,-174.65865,74.402901
4429000000,-175.05568,74.27224
4430000000,-175.07349,74.262703
4431000000,-174.64597,74.220398
4432000000,-175.35909,73.818031
4433000000,-175.6203,73.925186
4434000000,-175.10706,73.66317
4435000000,-175.57315,73.385185
4436000000,-175.62024,73.263168
4437000000,-176.13943,73.2724
4438000000,-176.89793,72.86924
4439000000,-175.96284,72.979828
4440000000,-176.93236,72.792969
4441000000,-177.21892,72.511703
4442000000,-177.87468,72.566978
4443000000,-177.27675,72.218575
4444000000,-177.68372,72.333008
4445000000,-178.42863,72.009865
4446000000,-178.1763,71.824402
4447000000,-178.34499,71.817024
4448000000,-178.29253,71.481728
4449000000,-178.51077,71.313484
4450000000,-179.75333,71.227638
4451000000,-179.41774,70.891457
4452000000,-179.86847,70.981239
4453000000,179.75072,70.809189
4454000000,-179.54472,70.560455
4455000000,-179.44176,70.519821
4456000000,179.81274,70.294357
4457000000,-179.52515,70.3582
4458000000,178.73103,69.988991
4459000000,178.73334,69.936661
4460000000,179.08801,69.70742
4461000000,178.80133,69.614433
4462000000,178.09735,69.364395
4463000000,178.25385,69.32991
4464000000,178.19569,69.16375
4465000000,176.75726,69.092285
4466000000,177.5986,69.031128
4467000000,176.82054,68.629402
4468000000,177.58214,68.44416
4469000000,176.4166,68.298813
4470000000,176.10695,68.370605
4471000000,176.28212,68.195007
4472000000,176.52931,68.064392
4473000000,176.42976,67.87941
4474000000,175.67061,67.786598
4475000000,175.80843,67.477211
4476000000,174.12509,67.271294
4477000000,174.58281,67.240799
4478000000,173.58731,67.116226
4479000000,174.77289,66.922935
4480000000,173.78764,66.879211
4481000000,173.34448,66.580986
4482000000,173.45859,66.586746
4483000000,173.73016,66.218384
4484000000,174.15526,66.10955
4485000000,172.49315,66.146149
4486000000,172.80986,65.815727
4487000000,172.59259,65.607758
4488000000,173.1167,65.71991
4489000000,172.04778,65.385452
4490000000,171.23874,65.26297
4491000000,171.4957,64.973412
4492000000,170.27786,65.022987
4493000000,170.80084,64.608383
4494000000,170.90511,64.579735
4495000000,170.1824,64.614044
4496000000,170.49609,64.250465
4497000000,169.10655,64.093498
4498000000,169.24771,63.98748
4499000000,169.26189,63.901447
4500000000,168.55629,63.867023
4501000000,168.48962,63.659431
4502000000,168.86452,63.654202
4503000000,168.07469,63.306641
4504000000,167.20543,63.28466
4505000000,167.62181,63.087036
4506000000,166.82893,62.912457
4507000000,166.58594,62.799553
4508000000,165.73668,62.625126
4509000000,167.13658,62.560093
4510000000,166.09456,62.357368
4511000000,164.74097,62.196407
4512000000,165.0549,62.054024
4513000000,164.86887,61.925159
4514000000,164.66252,61.824661
4515000000,165.173,61.549801
4516000000,164.21008,61.528633
4517000000,163.72699,61.299023
4518000000,164.11263,60.948689
4519000000,162.44466,61.022995
4520000000,163.01427,60.706108
4521000000,161.56947,60.666595
4522000000,162.12114,60.409344
4523000000,160.76126,60.320271
4524000000,160.51785,60.239094
4525000000,160.90077,60.21413
4526000000,159.40709,59.892761
4527000000,159.86188,59.878288
4528000000,159.76335,59.770111
4529000000,159.23039,59.314251
4530000000,157.9131,59.517612
4531000000,159.24107,59.195282
4532000000,156.82358,58.972332
4533000000,156.30389,58.76123
4534000000,156.68095,58.65929
4535000000,156.59085,58.581146
4536000000,154.87608,58.548729
4537000000,155.89893,58.369267
4538000000,155.03879,58.081089
4539000000,155.65955,57.912895
4540000000,154.04152,57.683208
4541000000,153.73328,57.684303
4542000000,154.12976,57.593365
4543000000,151.9622,57.432289
4544000000,153.27744,57.268051
4545000000,151.73317,57.036266
4546000000,150.83124,56.930695
4547000000,150.99133,56.864037
4548000000,150.46072,56.607677
4549000000,149.06027,56.4436
4550000000,149.89716,56.46368
4551000000,148.13623,56.100475
4552000000,146.96606,55.94342
4553000000,145.83035,55.924515
4554000000,147.32715,55.711636
4555000000,144.39433,55.54541
4556000000,144.33755,55.335155
4557000000,144.43791,55.266426
4558000000,141.94159,55.158703
4559000000,141.41902,54.790295
4560000000,141.36929,54.867031
4561000000,140.63541,54.71283
4562000000,141.11971,54.471493
4563000000,135.97006,54.513256
4564000000,137.96312,54.295399
4565000000,136.2045,54.168228
4566000000,133.63733,53.85675
4567000000,134.75676,53.808445
4568000000,132.20551,53.657429
4569000000,132.31773,53.478119
4570000000,131.38391,53.469589
4571000000,129.9082,53.07645
4572000000,128.01158,52.95472
4573000000,124.75921,52.799099
4574000000,125.20106,52.630939
4575000000,124.38646,52.684978
4576000000,121.8448,52.511696
4577000000,122.12761,52.311779
4578000000,120.91842,52.22691
4579000000,116.72217,52.099583
4580000000,115.06547,51.817337
4581000000,115.13975,51.753906
4582000000,115.33556,51.496223
4583000000,113.40921,51.567394
4584000000,108.21871,51.112663
4585000000,108.13512,51.1665
4586000000,106.36381,50.952976
4587000000,103.85284,50.742729
4588000000,98.724724,50.68166
4589000000,99.011406,50.496429
4590000000,97.751427,50.477749
4591000000,91.662338,50.035339
4592000000,92.595665,50.017921
4593000000,95.628029,49.997257
4594000000,86.496033,49.696575
4595000000,83.912758,49.646561
4596000000,80.470581,49.321171
4597000000,77.999214,49.21994
4598000000,75.13131,49.076572
4599000000,72.719994,49.088428
4600000000,68.715752,48.935684
4601000000,68.217354,48.698193
4602000000,64.715714,48.463326
4603000000,60.738686,48.315086
4604000000,58.669476,48.326057
4605000000,55.987411,48.068039
4606000000,58.009842,48.036697
4607000000,55.535885,47.821346
4608000000,49.266876,47.631989
4609000000,49.246674,47.455429
4610000000,48.102695,47.274769
4611000000,44.620064,47.3265
4612000000,41.67981,46.866806
4613000000,42.083454,46.922333
4614000000,38.655144,46.773941
4615000000,36.201248,46.516941
4616000000,33.926289,46.288509
4617000000,31.714952,46.100296
4618000000,31.162458,46.091228
4619000000,31.09441,45.861286
4620000000,29.015976,45.7672
4621000000,27.883734,45.641998
4622000000,27.421322,45.582977
4623000000,23.155701,45.469299
4624000000,23.015823,45.262135
4625000000,21.616697,44.935093
4626000000,24.006367,44.928608
4627000000,20.660116,44.946678
4628000000,18.185186,44.605595
4629000000,19.5315,44.64835
4630000000,18.5256,44.40424
4631000000,16.213995,44.275513
4632000000,15.094684,44.099583
4633000000,15.750277,43.818001
4634000000,12.194258,43.849483
4635000000,13.687524,43.714336
4636000000,11.550123,43.542427
4637000000,12.411425,43.316368
4638000000,10.377416,43.183754
4639000000,10.466011,42.920364
4640000000,10.245165,42.959026
4641000000,8.9034815,42.847328
4642000000,8.6160412,42.561405
4643000000,6.9952035,42.396496
4644000000,5.8031063,42.397087
4645000000,6.3863196,42.211266
4646000000,4.9497828,41.952709
4647000000,3.944447,41.777924
4648000000,4.9371552,41.67075
4649000000,3.0738742,41.376022
4650000000,2.9414122,41.401096
4651000000,2.6963067,41.195225
4652000000,2.6458831,41.047287
4653000000,1.1553463,41.051289
4654000000,1.0995284,40.785271
4655000000,1.2089136,40.526199
4656000000,0.015145088,40.469051
4657000000,-1.6165055,40.394512
4658000000,-1.2983844,40.234512
4659000000,-1.2298275,40.03323
4660000000,-1.6369052,39.783665
4661000000,-2.319247,39.714386
4662000000,-2.5511119,39.502388
4663000000,-3.2180958,39.359074
4664000000,-2.4482219,39.318787
4665000000,-3.590554,39.099392
4666000000,-4.3609591,38.814304
4667000000,-4.5685759,38.791794
4668000000,-4.9583454,38.485516
4669000000,-4.942709,38.570381
4670000000,-5.5265079,38.449463
4671000000,-6.5283422,38.147053
4672000000,-5.904192,38.0564
4673000000,-7.2140374,37.845501
4674000000,-6.5884247,37.769978
4675000000,-7.7549729,37.614998
4676000000,-7.8046241,37.466995
4677000000,-7.9619985,37.223282
4678000000,-8.1956234,37.088505
4679000000,-8.9877777,36.910374
4680000000,-8.2210197,36.89888
4681000000,-8.883872,36.612637
4682000000,-9.1471996,36.517689
4683000000,-9.714221,36.497231
4684000000,-9.3067617,36.343323
4685000000,-10.520875,36.165337
4686000000,-10.2427,35.929787
4687000000,-11.419956,35.725235
4688000000,-11.084055,35.543938
4689000000,-11.496284,35.583508
4690000000,-11.319351,35.296234
4691000000,-11.784611,35.228359
4692000000,-12.309183,35.071415
4693000000,-12.49372,34.746635
4694000000,-12.798793,34.644531
4695000000,-13.41221,34.61903
4696000000,-13.175632,34.37611
4697000000,-13.143973,34.451157
4698000000,-13.74604,34.008701
4699000000,-13.952636,33.874763
4700000000,-14.006269,33.812958
4701000000,-14.339943,33.711205
4702000000,-14.338457,33.494713
4703000000,-14.211136,33.254875
4704000000,-15.291138,33.356682
4705000000,-15.921005,33.130032
4706000000,-15.18438,32.861576
4707000000,-15.968229,32.880741
4708000000,-16.251158,32.550415
4709000000,-16.47752,32.379154
4710000000,-16.89497,32.143364
4711000000,-17.204332,32.095943
4712000000,-17.337721,31.956305
4713000000,-17.904791,31.834614
4714000000,-17.673237,31.671301
4715000000,-18.477333,31.522448
4716000000,-18.194427,31.358255
4717000000,-18.48035,31.249741
4718000000,-18.572519,31.032701
4719000000,-18.64473,30.850107
4720000000,-18.957697,30.999634
4721000000,-19.414968,30.464706
4722000000,-20.007551,30.449753
4723000000,-19.499683,30.372168
4724000000,-20.009089,30.127213
4725000000,-20.186899,30.05899
4726000000,-20.693825,29.789089
4727000000,-20.523222,29.81461
4728000000,-21.410612,29.666267
4729000000,-20.897158,29.550058
4730000000,-20.943462,29.308779
4731000000,-21.744972,29.202925
4732000000,-21.82053,29.115181
4733000000,-21.872309,28.654219
4734000000,-22.045473,28.746494
4735000000,-22.604479,28.665405
4736000000,-22.666632,28.476927
4737000000,-22.678089,28.2124
4738000000,-23.087858,28.190777
4739000000,-23.386602,27.785069
4740000000,-23.74029,27.735079
4741000000,-23.452679,27.661745
4742000000,-23.625362,27.616983
4743000000,-23.955973,27.267389
4744000000,-24.203197,27.129133
4745000000,-24.644321,27.015724
4746000000,-24.100601,27.02404
4747000000,-24.781975,26.706236
4748000000,-24.980598,26.581322
4749000000,-24.719627,26.599453
4750000000,-25.500963,26.178663
4751000000,-25.572521,26.124254
4752000000,-25.211008,25.943085
4753000000,-25.537981,25.819798
4754000000,-25.784359,25.646553
4755000000,-26.292368,25.568001
4756000000,-26.65123,25.249382
4757000000,-26.526031,25.185123
4758000000,-26.693712,24.917667
4759000000,-27.073238,24.73687
4760000000,-27.121111,24.755388
4761000000,-27.230066,24.61182
4762000000,-27.781313,24.570578
4763000000,-28.072906,24.2283
4764000000,-28.405132,24.094177
4765000000,-28.055349,23.943741
4766000000,-28.684624,23.908426
4767000000,-28.481806,23.587421
4768000000,-28.815069,23.506241
4769000000,-28.930176,23.518551
4770000000,-29.022911,23.293552
4771000000,-29.248857,23.151346
4772000000,-29.677443,23.056335
4773000000,-29.681704,22.760561
4774000000,-30.109455,22.656008
4775000000,-30.098192,22.546
4776000000,-30.573399,22.400639
4777000000,-30.501047,22.254528
4778000000,-30.823053,22.084984
4779000000,-30.962877,21.930569
4780000000,-31.085772,21.693214
4781000000,-31.372398,21.490664
4782000000,-31.155754,21.362949
4783000000,-31.850758,21.182947
4784000000,-31.817959,20.962749
4785000000,-31.571102,20.969908
4786000000,-32.185005,20.827152
4787000000,-32.17374,20.702625
4788000000,-32.452103,20.538191
4789000000,-32.45298,20.303459
4790000000,-32.569134,20.138647
4791000000,-32.88866,20.109812
4792000000,-32.79044,19.7787
4793000000,-32.935402,19.677137
4794000000,-33.681194,19.576948
4795000000,-33.235481,19.479584
4796000000,-33.42762,19.273773
4797000000,-33.892769,19.231192
4798000000,-34.031006,19.008371
4799000000,-33.959427,18.828392
4800000000,-34.354755,18.791239
4801000000,-34.492847,18.531208
4802000000,-34.616177,18.478949
4803000000,-34.638203,18.165438
4804000000,-34.857853,17.995171
4805000000,-35.176731,17.831181
4806000000,-35.254776,17.799683
4807000000,-35.396877,17.681221
4808000000,-35.552906,17.463871
4809000000,-35.793056,17.338259
4810000000,-35.94244,17.05689
4811000000,-36.143749,16.95373
4812000000,-36.635735,16.885981
4813000000,-36.452633,16.790907
4814000000,-36.662617,16.692078
4815000000,-36.727982,16.302147
4816000000,-36.982506,16.392498
4817000000,-37.315887,16.1042
4818000000,-37.342918,15.915341
4819000000,-37.674774,15.902741
4820000000,-37.459492,15.827012
4821000000,-37.81768,15.520196
4822000000,-38.068069,15.369734
4823000000,-38.303314,15.324056
4824000000,-38.390381,15.074544
4825000000,-38.564594,15.05656
4826000000,-38.924084,14.800125
4827000000,-38.714127,14.581211
4828000000,-38.937977,14.553532
4829000000,-39.369308,14.270702
4830000000,-39.254562,14.198632
4831000000,-39.015419,14.142107
4832000000,-39.635677,13.973589
4833000000,-39.791264,13.749119
4834000000,-40.0145,13.565423
4835000000,-39.953369,13.451951
4836000000,-40.221859,13.347497
4837000000,-40.731556,13.139348
4838000000,-40.515854,12.963796
4839000000,-40.510983,12.892933
4840000000,-41.011059,12.642103
4841000000,-40.993988,12.5845
4842000000,-41.016956,12.387321
4843000000,-41.314465,12.177034
4844000000,-41.434925,12.098459
4845000000,-41.48423,11.873025
4846000000,-41.558712,11.711178
4847000000,-41.802845,11.577409
4848000000,-42.076321,11.376962
4849000000,-42.531986,11.461133
4850000000,-42.200497,11.054073
4851000000,-42.332249,11.214764
4852000000,-42.497684,10.946996
4853000000,-42.962467,10.857299
4854000000,-42.875343,10.620484
4855000000,-43.062153,10.485579
4856000000,-43.38662,10.422385
4857000000,-43.514824,10.069263
4858000000,-43.355091,9.9832191
4859000000,-43.698383,9.8620481
4860000000,-43.64608,9.6935797
4861000000,-43.888802,9.4849958
4862000000,-44.191853,9.2521362
4863000000,-44.258785,9.1257906
4864000000,-44.484444,9.0835571
4865000000,-44.537388,8.9630737
4866000000,-44.695335,8.8279543
4867000000,-45.041344,8.5194721
4868000000,-44.989735,8.7097025
4869000000,-45.24197,8.3863592
4870000000,-45.25209,8.1020708
4871000000,-45.565666,7.9847322
4872000000,-45.524303,7.8588729
4873000000,-45.730766,7.7435317
4874000000,-45.886864,7.5135436
4875000000,-46.08445,7.4560156
4876000000,-46.211208,7.3396811
4877000000,-46.561905,7.2207503
4878000000,-46.410049,6.9711823
4879000000,-46.591854,6.8559766
4880000000,-46.83128,6.6923766
4881000000,-46.98349,6.4520812
4882000000,-47.08395,6.437007
4883000000,-47.274006,6.2838192
4884000000,-47.458736,6.2227845
4885000000,-47.657631,5.8108172
4886000000,-47.595139,5.7926335
4887000000,-47.918011,5.5252109
4888000000,-47.805027,5.5994306
4889000000,-48.102848,5.3740497
4890000000,-48.41301,5.1400437
4891000000,-48.551006,5.0664492
4892000000,-48.757675,4.8732214
4893000000,-48.751816,4.8058515
4894000000,-48.757656,4.5345774
4895000000,-48.848568,4.4350848
4896000000,-49.355198,4.2332683
4897000000,-49.280121,4.0950789
4898000000,-49.547478,4.0672932
4899000000,-49.337593,3.771554
4900000000,-49.666611,3.6081631
4901000000,-49.941223,3.5900521
4902000000,-50.245571,3.4282835
4903000000,-50.085636,3.4264114
4904000000,-50.105366,3.2943013
4905000000,-50.455666,3.0888057
4906000000,-50.281406,2.7755873
4907000000,-50.548313,2.7296007
4908000000,-51.036045,2.6135905
4909000000,-50.962608,2.389972
4910000000,-50.903351,2.3283947
4911000000,-51.40395,2.1409013
4912000000,-51.080853,1.939779
4913000000,-51.496593,1.7682159
4914000000,-51.450176,1.7608467
4915000000,-51.823071,1.5602612
4916000000,-52.247952,1.4850159
4917000000,-52.020264,1.2348937
4918000000,-52.255394,1.1042472
4919000000,-52.350029,0.91218299
4920000000,-52.609734,0.78530514
4921000000,-52.656746,0.61549139
4922000000,-52.823963,0.39506808
4923000000,-52.93676,0.36861712
4924000000,-52.917545,0.12389998
4925000000,-53.058628,-0.029768717
4926000000,-53.328583,-0.22853549
4927000000,-53.491287,-0.45737198
4928000000,-53.465374,-0.43490347
4929000000,-53.553661,-0.76839042
4930000000,-54.00399,-0.81108195
4931000000,-54.197414,-0.99694318
4932000000,-54.141644,-0.96281636
4933000000,-54.462658,-1.1933469
4934000000,-54.593838,-1.4097503
4935000000,-54.660892,-1.5460782
4936000000,-54.818848,-1.6716409
4937000000,-54.845264,-1.8717225
4938000000,-55.025497,-2.0765276
4939000000,-54.943649,-2.0388515
4940000000,-55.082993,-2.3078833
4941000000,-55.194157,-2.3910797
4942000000,-55.723652,-2.5403183
4943000000,-55.4515,-2.5672429
4944000000,-55.582653,-2.9482818
4945000000,-55.721645,-2.9489965
4946000000,-56.005913,-3.08636
4947000000,-55.762657,-3.3613334
4948000000,-56.241341,-3.3465178
4949000000,-56.341557,-3.4352362
4950000000,-56.590233,-3.7118917
4951000000,-56.4347,-3.71404
4952000000,-56.569653,-3.8595121
4953000000,-56.719223,-4.1822739
4954000000,-56.851994,-4.1435118
4955000000,-56.944958,-4.4403729
4956000000,-57.278416,-4.5095611
4957000000,-57.290241,-4.6229544
4958000000,-57.241982,-4.9507527
4959000000,-57.62809,-4.9940729
4960000000,-57.675407,-5.0887394
4961000000,-57.662437,-5.2721019
4962000000,-57.816235,-5.3466825
4963000000,-57.944778,-5.4118662
4964000000,-57.976387,-5.707654
4965000000,-58.533234,-5.8132281
4966000000,-58.177464,-6.0189729
4967000000,-58.397919,-6.1898346
4968000000,-58.499847,-6.3488588
4969000000,-58.772903,-6.5091801
4970000000,-58.716084,-6.5596566
4971000000,-58.972565,-6.7232699
4972000000,-58.839478,-6.8049889
4973000000,-59.157902,-6.9906521
4974000000,-59.343025,-7.288301
4975000000,-59.37112,-7.2720675
4976000000,-59.501255,-7.453702
4977000000,-59.598591,-7.6073589
4978000000,-59.654232,-7.7320194
4979000000,-59.84396,-7.8327131
4980000000,-59.936859,-8.0184917
4981000000,-60.475124,-8.3397894
4982000000,-60.092831,-8.384304
4983000000,-60.560062,-8.5122404
4984000000,-60.146729,-8.7382889
4985000000,-60.421185,-8.8401871
4986000000,-60.683655,-8.9404039
4987000000,-60.666451,-8.9890757
4988000000,-60.935097,-9.2208567
4989000000,-61.063839,-9.2478313
4990000000,-60.855988,-9.5722847
4991000000,-61.22176,-9.6475163
4992000000,-61.235706,-9.9431295
4993000000,-61.72089,-9.9258547
4994000000,-61.449158,-10.076731
4995000000,-61.664097,-10.402589
4996000000,-62.18679,-10.528143
4997000000,-61.748093,-10.655648
4998000000,-61.959808,-10.62538
4999000000,-62.282986,-10.946812
5000000000,-62.283627,-10.963147
END

